#  E (eV)   dosup(E)     dosdw(E)   Int dos(E) EFermi =    6.311 eV
 -15.000  0.0000E+00  0.0000E+00  0.8000E+01
 -14.990  0.0000E+00  0.0000E+00  0.8000E+01
 -14.980  0.0000E+00  0.0000E+00  0.8000E+01
 -14.970  0.0000E+00  0.0000E+00  0.8000E+01
 -14.960  0.0000E+00  0.0000E+00  0.8000E+01
 -14.950  0.0000E+00  0.0000E+00  0.8000E+01
 -14.940  0.0000E+00  0.0000E+00  0.8000E+01
 -14.930  0.0000E+00  0.0000E+00  0.8000E+01
 -14.920  0.0000E+00  0.0000E+00  0.8000E+01
 -14.910  0.0000E+00  0.0000E+00  0.8000E+01
 -14.900  0.0000E+00  0.0000E+00  0.8000E+01
 -14.890  0.0000E+00  0.0000E+00  0.8000E+01
 -14.880  0.0000E+00  0.0000E+00  0.8000E+01
 -14.870  0.0000E+00  0.0000E+00  0.8000E+01
 -14.860  0.0000E+00  0.0000E+00  0.8000E+01
 -14.850  0.0000E+00  0.0000E+00  0.8000E+01
 -14.840  0.0000E+00  0.0000E+00  0.8000E+01
 -14.830  0.0000E+00  0.0000E+00  0.8000E+01
 -14.820  0.0000E+00  0.0000E+00  0.8000E+01
 -14.810  0.0000E+00  0.0000E+00  0.8000E+01
 -14.800  0.0000E+00  0.0000E+00  0.8000E+01
 -14.790  0.0000E+00  0.0000E+00  0.8000E+01
 -14.780  0.0000E+00  0.0000E+00  0.8000E+01
 -14.770  0.0000E+00  0.0000E+00  0.8000E+01
 -14.760  0.0000E+00  0.0000E+00  0.8000E+01
 -14.750  0.0000E+00  0.0000E+00  0.8000E+01
 -14.740  0.0000E+00  0.0000E+00  0.8000E+01
 -14.730  0.0000E+00  0.0000E+00  0.8000E+01
 -14.720  0.0000E+00  0.0000E+00  0.8000E+01
 -14.710  0.0000E+00  0.0000E+00  0.8000E+01
 -14.700  0.0000E+00  0.0000E+00  0.8000E+01
 -14.690  0.0000E+00  0.0000E+00  0.8000E+01
 -14.680  0.0000E+00  0.0000E+00  0.8000E+01
 -14.670  0.0000E+00  0.0000E+00  0.8000E+01
 -14.660  0.0000E+00  0.0000E+00  0.8000E+01
 -14.650  0.0000E+00  0.0000E+00  0.8000E+01
 -14.640  0.0000E+00  0.0000E+00  0.8000E+01
 -14.630  0.0000E+00  0.0000E+00  0.8000E+01
 -14.620  0.0000E+00  0.0000E+00  0.8000E+01
 -14.610  0.0000E+00  0.0000E+00  0.8000E+01
 -14.600  0.0000E+00  0.0000E+00  0.8000E+01
 -14.590  0.0000E+00  0.0000E+00  0.8000E+01
 -14.580  0.0000E+00  0.0000E+00  0.8000E+01
 -14.570  0.0000E+00  0.0000E+00  0.8000E+01
 -14.560  0.0000E+00  0.0000E+00  0.8000E+01
 -14.550  0.0000E+00  0.0000E+00  0.8000E+01
 -14.540  0.0000E+00  0.0000E+00  0.8000E+01
 -14.530  0.0000E+00  0.0000E+00  0.8000E+01
 -14.520  0.0000E+00  0.0000E+00  0.8000E+01
 -14.510  0.0000E+00  0.0000E+00  0.8000E+01
 -14.500  0.0000E+00  0.0000E+00  0.8000E+01
 -14.490  0.0000E+00  0.0000E+00  0.8000E+01
 -14.480  0.0000E+00  0.0000E+00  0.8000E+01
 -14.470  0.0000E+00  0.0000E+00  0.8000E+01
 -14.460  0.0000E+00  0.0000E+00  0.8000E+01
 -14.450  0.0000E+00  0.0000E+00  0.8000E+01
 -14.440  0.0000E+00  0.0000E+00  0.8000E+01
 -14.430  0.0000E+00  0.0000E+00  0.8000E+01
 -14.420  0.0000E+00  0.0000E+00  0.8000E+01
 -14.410  0.0000E+00  0.0000E+00  0.8000E+01
 -14.400  0.0000E+00  0.0000E+00  0.8000E+01
 -14.390  0.0000E+00  0.0000E+00  0.8000E+01
 -14.380  0.0000E+00  0.0000E+00  0.8000E+01
 -14.370  0.0000E+00  0.0000E+00  0.8000E+01
 -14.360  0.0000E+00  0.0000E+00  0.8000E+01
 -14.350  0.0000E+00  0.0000E+00  0.8000E+01
 -14.340  0.0000E+00  0.0000E+00  0.8000E+01
 -14.330  0.0000E+00  0.0000E+00  0.8000E+01
 -14.320  0.0000E+00  0.0000E+00  0.8000E+01
 -14.310  0.0000E+00  0.0000E+00  0.8000E+01
 -14.300  0.0000E+00  0.0000E+00  0.8000E+01
 -14.290  0.0000E+00  0.0000E+00  0.8000E+01
 -14.280  0.0000E+00  0.0000E+00  0.8000E+01
 -14.270  0.0000E+00  0.0000E+00  0.8000E+01
 -14.260  0.0000E+00  0.0000E+00  0.8000E+01
 -14.250  0.0000E+00  0.0000E+00  0.8000E+01
 -14.240  0.0000E+00  0.0000E+00  0.8000E+01
 -14.230  0.0000E+00  0.0000E+00  0.8000E+01
 -14.220  0.0000E+00  0.0000E+00  0.8000E+01
 -14.210  0.0000E+00  0.0000E+00  0.8000E+01
 -14.200  0.0000E+00  0.0000E+00  0.8000E+01
 -14.190  0.0000E+00  0.0000E+00  0.8000E+01
 -14.180  0.0000E+00  0.0000E+00  0.8000E+01
 -14.170  0.0000E+00  0.0000E+00  0.8000E+01
 -14.160  0.0000E+00  0.0000E+00  0.8000E+01
 -14.150  0.0000E+00  0.0000E+00  0.8000E+01
 -14.140  0.0000E+00  0.0000E+00  0.8000E+01
 -14.130  0.0000E+00  0.0000E+00  0.8000E+01
 -14.120  0.0000E+00  0.0000E+00  0.8000E+01
 -14.110  0.0000E+00  0.0000E+00  0.8000E+01
 -14.100  0.0000E+00  0.0000E+00  0.8000E+01
 -14.090  0.0000E+00  0.0000E+00  0.8000E+01
 -14.080  0.0000E+00  0.0000E+00  0.8000E+01
 -14.070  0.0000E+00  0.0000E+00  0.8000E+01
 -14.060  0.0000E+00  0.0000E+00  0.8000E+01
 -14.050  0.0000E+00  0.0000E+00  0.8000E+01
 -14.040  0.0000E+00  0.0000E+00  0.8000E+01
 -14.030  0.0000E+00  0.0000E+00  0.8000E+01
 -14.020  0.0000E+00  0.0000E+00  0.8000E+01
 -14.010  0.0000E+00  0.0000E+00  0.8000E+01
 -14.000  0.0000E+00  0.0000E+00  0.8000E+01
 -13.990  0.0000E+00  0.0000E+00  0.8000E+01
 -13.980  0.0000E+00  0.0000E+00  0.8000E+01
 -13.970  0.0000E+00  0.0000E+00  0.8000E+01
 -13.960  0.0000E+00  0.0000E+00  0.8000E+01
 -13.950  0.0000E+00  0.0000E+00  0.8000E+01
 -13.940  0.0000E+00  0.0000E+00  0.8000E+01
 -13.930  0.0000E+00  0.0000E+00  0.8000E+01
 -13.920  0.0000E+00  0.0000E+00  0.8000E+01
 -13.910  0.0000E+00  0.0000E+00  0.8000E+01
 -13.900  0.0000E+00  0.0000E+00  0.8000E+01
 -13.890  0.0000E+00  0.0000E+00  0.8000E+01
 -13.880  0.0000E+00  0.0000E+00  0.8000E+01
 -13.870  0.0000E+00  0.0000E+00  0.8000E+01
 -13.860  0.0000E+00  0.0000E+00  0.8000E+01
 -13.850  0.0000E+00  0.0000E+00  0.8000E+01
 -13.840  0.0000E+00  0.0000E+00  0.8000E+01
 -13.830  0.0000E+00  0.0000E+00  0.8000E+01
 -13.820  0.0000E+00  0.0000E+00  0.8000E+01
 -13.810  0.0000E+00  0.0000E+00  0.8000E+01
 -13.800  0.0000E+00  0.0000E+00  0.8000E+01
 -13.790  0.0000E+00  0.0000E+00  0.8000E+01
 -13.780  0.0000E+00  0.0000E+00  0.8000E+01
 -13.770  0.0000E+00  0.0000E+00  0.8000E+01
 -13.760  0.0000E+00  0.0000E+00  0.8000E+01
 -13.750  0.0000E+00  0.0000E+00  0.8000E+01
 -13.740  0.0000E+00  0.0000E+00  0.8000E+01
 -13.730  0.0000E+00  0.0000E+00  0.8000E+01
 -13.720  0.0000E+00  0.0000E+00  0.8000E+01
 -13.710  0.0000E+00  0.0000E+00  0.8000E+01
 -13.700  0.0000E+00  0.0000E+00  0.8000E+01
 -13.690  0.0000E+00  0.0000E+00  0.8000E+01
 -13.680  0.0000E+00  0.0000E+00  0.8000E+01
 -13.670  0.0000E+00  0.0000E+00  0.8000E+01
 -13.660  0.0000E+00  0.0000E+00  0.8000E+01
 -13.650  0.0000E+00  0.0000E+00  0.8000E+01
 -13.640  0.0000E+00  0.0000E+00  0.8000E+01
 -13.630  0.0000E+00  0.0000E+00  0.8000E+01
 -13.620  0.0000E+00  0.0000E+00  0.8000E+01
 -13.610  0.0000E+00  0.0000E+00  0.8000E+01
 -13.600  0.0000E+00  0.0000E+00  0.8000E+01
 -13.590  0.0000E+00  0.0000E+00  0.8000E+01
 -13.580  0.0000E+00  0.0000E+00  0.8000E+01
 -13.570  0.0000E+00  0.0000E+00  0.8000E+01
 -13.560  0.0000E+00  0.0000E+00  0.8000E+01
 -13.550  0.0000E+00  0.0000E+00  0.8000E+01
 -13.540  0.0000E+00  0.0000E+00  0.8000E+01
 -13.530  0.0000E+00  0.0000E+00  0.8000E+01
 -13.520  0.0000E+00  0.0000E+00  0.8000E+01
 -13.510  0.0000E+00  0.0000E+00  0.8000E+01
 -13.500  0.0000E+00  0.0000E+00  0.8000E+01
 -13.490  0.0000E+00  0.0000E+00  0.8000E+01
 -13.480  0.0000E+00  0.0000E+00  0.8000E+01
 -13.470  0.0000E+00  0.0000E+00  0.8000E+01
 -13.460  0.0000E+00  0.0000E+00  0.8000E+01
 -13.450  0.0000E+00  0.0000E+00  0.8000E+01
 -13.440  0.0000E+00  0.0000E+00  0.8000E+01
 -13.430  0.0000E+00  0.0000E+00  0.8000E+01
 -13.420  0.0000E+00  0.0000E+00  0.8000E+01
 -13.410  0.0000E+00  0.0000E+00  0.8000E+01
 -13.400  0.0000E+00  0.0000E+00  0.8000E+01
 -13.390  0.0000E+00  0.0000E+00  0.8000E+01
 -13.380  0.0000E+00  0.0000E+00  0.8000E+01
 -13.370  0.0000E+00  0.0000E+00  0.8000E+01
 -13.360  0.0000E+00  0.0000E+00  0.8000E+01
 -13.350  0.0000E+00  0.0000E+00  0.8000E+01
 -13.340  0.0000E+00  0.0000E+00  0.8000E+01
 -13.330  0.0000E+00  0.0000E+00  0.8000E+01
 -13.320  0.0000E+00  0.0000E+00  0.8000E+01
 -13.310  0.0000E+00  0.0000E+00  0.8000E+01
 -13.300  0.0000E+00  0.0000E+00  0.8000E+01
 -13.290  0.0000E+00  0.0000E+00  0.8000E+01
 -13.280  0.0000E+00  0.0000E+00  0.8000E+01
 -13.270  0.0000E+00  0.0000E+00  0.8000E+01
 -13.260  0.0000E+00  0.0000E+00  0.8000E+01
 -13.250  0.0000E+00  0.0000E+00  0.8000E+01
 -13.240  0.0000E+00  0.0000E+00  0.8000E+01
 -13.230  0.0000E+00  0.0000E+00  0.8000E+01
 -13.220  0.0000E+00  0.0000E+00  0.8000E+01
 -13.210  0.0000E+00  0.0000E+00  0.8000E+01
 -13.200  0.0000E+00  0.0000E+00  0.8000E+01
 -13.190  0.0000E+00  0.0000E+00  0.8000E+01
 -13.180  0.0000E+00  0.0000E+00  0.8000E+01
 -13.170  0.0000E+00  0.0000E+00  0.8000E+01
 -13.160  0.0000E+00  0.0000E+00  0.8000E+01
 -13.150  0.0000E+00  0.0000E+00  0.8000E+01
 -13.140  0.0000E+00  0.0000E+00  0.8000E+01
 -13.130  0.0000E+00  0.0000E+00  0.8000E+01
 -13.120  0.0000E+00  0.0000E+00  0.8000E+01
 -13.110  0.0000E+00  0.0000E+00  0.8000E+01
 -13.100  0.0000E+00  0.0000E+00  0.8000E+01
 -13.090  0.0000E+00  0.0000E+00  0.8000E+01
 -13.080  0.0000E+00  0.0000E+00  0.8000E+01
 -13.070  0.0000E+00  0.0000E+00  0.8000E+01
 -13.060  0.0000E+00  0.0000E+00  0.8000E+01
 -13.050  0.0000E+00  0.0000E+00  0.8000E+01
 -13.040  0.0000E+00  0.0000E+00  0.8000E+01
 -13.030  0.0000E+00  0.0000E+00  0.8000E+01
 -13.020  0.0000E+00  0.0000E+00  0.8000E+01
 -13.010  0.0000E+00  0.0000E+00  0.8000E+01
 -13.000  0.0000E+00  0.0000E+00  0.8000E+01
 -12.990  0.0000E+00  0.0000E+00  0.8000E+01
 -12.980  0.0000E+00  0.0000E+00  0.8000E+01
 -12.970  0.0000E+00  0.0000E+00  0.8000E+01
 -12.960  0.0000E+00  0.0000E+00  0.8000E+01
 -12.950  0.0000E+00  0.0000E+00  0.8000E+01
 -12.940  0.0000E+00  0.0000E+00  0.8000E+01
 -12.930  0.0000E+00  0.0000E+00  0.8000E+01
 -12.920  0.0000E+00  0.0000E+00  0.8000E+01
 -12.910  0.0000E+00  0.0000E+00  0.8000E+01
 -12.900  0.0000E+00  0.0000E+00  0.8000E+01
 -12.890  0.0000E+00  0.0000E+00  0.8000E+01
 -12.880  0.0000E+00  0.0000E+00  0.8000E+01
 -12.870  0.0000E+00  0.0000E+00  0.8000E+01
 -12.860  0.0000E+00  0.0000E+00  0.8000E+01
 -12.850  0.0000E+00  0.0000E+00  0.8000E+01
 -12.840  0.0000E+00  0.0000E+00  0.8000E+01
 -12.830  0.0000E+00  0.0000E+00  0.8000E+01
 -12.820  0.0000E+00  0.0000E+00  0.8000E+01
 -12.810  0.0000E+00  0.0000E+00  0.8000E+01
 -12.800  0.0000E+00  0.0000E+00  0.8000E+01
 -12.790  0.0000E+00  0.0000E+00  0.8000E+01
 -12.780  0.0000E+00  0.0000E+00  0.8000E+01
 -12.770  0.0000E+00  0.0000E+00  0.8000E+01
 -12.760  0.0000E+00  0.0000E+00  0.8000E+01
 -12.750  0.0000E+00  0.0000E+00  0.8000E+01
 -12.740  0.0000E+00  0.0000E+00  0.8000E+01
 -12.730  0.0000E+00  0.0000E+00  0.8000E+01
 -12.720  0.0000E+00  0.0000E+00  0.8000E+01
 -12.710  0.0000E+00  0.0000E+00  0.8000E+01
 -12.700  0.0000E+00  0.0000E+00  0.8000E+01
 -12.690  0.0000E+00  0.0000E+00  0.8000E+01
 -12.680  0.0000E+00  0.0000E+00  0.8000E+01
 -12.670  0.0000E+00  0.0000E+00  0.8000E+01
 -12.660  0.0000E+00  0.0000E+00  0.8000E+01
 -12.650  0.0000E+00  0.0000E+00  0.8000E+01
 -12.640  0.0000E+00  0.0000E+00  0.8000E+01
 -12.630  0.0000E+00  0.0000E+00  0.8000E+01
 -12.620  0.0000E+00  0.0000E+00  0.8000E+01
 -12.610  0.0000E+00  0.0000E+00  0.8000E+01
 -12.600  0.0000E+00  0.0000E+00  0.8000E+01
 -12.590  0.0000E+00  0.0000E+00  0.8000E+01
 -12.580  0.0000E+00  0.0000E+00  0.8000E+01
 -12.570  0.0000E+00  0.0000E+00  0.8000E+01
 -12.560  0.0000E+00  0.0000E+00  0.8000E+01
 -12.550  0.0000E+00  0.0000E+00  0.8000E+01
 -12.540  0.0000E+00  0.0000E+00  0.8000E+01
 -12.530  0.0000E+00  0.0000E+00  0.8000E+01
 -12.520  0.0000E+00  0.0000E+00  0.8000E+01
 -12.510  0.0000E+00  0.0000E+00  0.8000E+01
 -12.500  0.0000E+00  0.0000E+00  0.8000E+01
 -12.490  0.0000E+00  0.0000E+00  0.8000E+01
 -12.480  0.0000E+00  0.0000E+00  0.8000E+01
 -12.470  0.0000E+00  0.0000E+00  0.8000E+01
 -12.460  0.0000E+00  0.0000E+00  0.8000E+01
 -12.450  0.0000E+00  0.0000E+00  0.8000E+01
 -12.440  0.0000E+00  0.0000E+00  0.8000E+01
 -12.430  0.0000E+00  0.0000E+00  0.8000E+01
 -12.420  0.0000E+00  0.0000E+00  0.8000E+01
 -12.410  0.0000E+00  0.0000E+00  0.8000E+01
 -12.400  0.0000E+00  0.0000E+00  0.8000E+01
 -12.390  0.0000E+00  0.0000E+00  0.8000E+01
 -12.380  0.0000E+00  0.0000E+00  0.8000E+01
 -12.370  0.0000E+00  0.0000E+00  0.8000E+01
 -12.360  0.0000E+00  0.0000E+00  0.8000E+01
 -12.350  0.0000E+00  0.0000E+00  0.8000E+01
 -12.340  0.0000E+00  0.0000E+00  0.8000E+01
 -12.330  0.0000E+00  0.0000E+00  0.8000E+01
 -12.320  0.0000E+00  0.0000E+00  0.8000E+01
 -12.310  0.0000E+00  0.0000E+00  0.8000E+01
 -12.300  0.0000E+00  0.0000E+00  0.8000E+01
 -12.290  0.0000E+00  0.0000E+00  0.8000E+01
 -12.280  0.0000E+00  0.0000E+00  0.8000E+01
 -12.270  0.0000E+00  0.0000E+00  0.8000E+01
 -12.260  0.0000E+00  0.0000E+00  0.8000E+01
 -12.250  0.0000E+00  0.0000E+00  0.8000E+01
 -12.240  0.0000E+00  0.0000E+00  0.8000E+01
 -12.230  0.0000E+00  0.0000E+00  0.8000E+01
 -12.220  0.0000E+00  0.0000E+00  0.8000E+01
 -12.210  0.0000E+00  0.0000E+00  0.8000E+01
 -12.200  0.0000E+00  0.0000E+00  0.8000E+01
 -12.190  0.0000E+00  0.0000E+00  0.8000E+01
 -12.180  0.0000E+00  0.0000E+00  0.8000E+01
 -12.170  0.0000E+00  0.0000E+00  0.8000E+01
 -12.160  0.0000E+00  0.0000E+00  0.8000E+01
 -12.150  0.0000E+00  0.0000E+00  0.8000E+01
 -12.140  0.0000E+00  0.0000E+00  0.8000E+01
 -12.130  0.0000E+00  0.0000E+00  0.8000E+01
 -12.120  0.0000E+00  0.0000E+00  0.8000E+01
 -12.110  0.0000E+00  0.0000E+00  0.8000E+01
 -12.100  0.0000E+00  0.0000E+00  0.8000E+01
 -12.090  0.0000E+00  0.0000E+00  0.8000E+01
 -12.080  0.0000E+00  0.0000E+00  0.8000E+01
 -12.070  0.0000E+00  0.0000E+00  0.8000E+01
 -12.060  0.0000E+00  0.0000E+00  0.8000E+01
 -12.050  0.0000E+00  0.0000E+00  0.8000E+01
 -12.040  0.0000E+00  0.0000E+00  0.8000E+01
 -12.030  0.0000E+00  0.0000E+00  0.8000E+01
 -12.020  0.0000E+00  0.0000E+00  0.8000E+01
 -12.010  0.0000E+00  0.0000E+00  0.8000E+01
 -12.000  0.0000E+00  0.0000E+00  0.8000E+01
 -11.990  0.0000E+00  0.0000E+00  0.8000E+01
 -11.980  0.0000E+00  0.0000E+00  0.8000E+01
 -11.970  0.0000E+00  0.0000E+00  0.8000E+01
 -11.960  0.0000E+00  0.0000E+00  0.8000E+01
 -11.950  0.0000E+00  0.0000E+00  0.8000E+01
 -11.940  0.0000E+00  0.0000E+00  0.8000E+01
 -11.930  0.0000E+00  0.0000E+00  0.8000E+01
 -11.920  0.0000E+00  0.0000E+00  0.8000E+01
 -11.910  0.0000E+00  0.0000E+00  0.8000E+01
 -11.900  0.0000E+00  0.0000E+00  0.8000E+01
 -11.890  0.0000E+00  0.0000E+00  0.8000E+01
 -11.880  0.0000E+00  0.0000E+00  0.8000E+01
 -11.870  0.0000E+00  0.0000E+00  0.8000E+01
 -11.860  0.0000E+00  0.0000E+00  0.8000E+01
 -11.850  0.0000E+00  0.0000E+00  0.8000E+01
 -11.840  0.0000E+00  0.0000E+00  0.8000E+01
 -11.830  0.0000E+00  0.0000E+00  0.8000E+01
 -11.820  0.0000E+00  0.0000E+00  0.8000E+01
 -11.810  0.0000E+00  0.0000E+00  0.8000E+01
 -11.800  0.0000E+00  0.0000E+00  0.8000E+01
 -11.790  0.0000E+00  0.0000E+00  0.8000E+01
 -11.780  0.0000E+00  0.0000E+00  0.8000E+01
 -11.770  0.0000E+00  0.0000E+00  0.8000E+01
 -11.760  0.0000E+00  0.0000E+00  0.8000E+01
 -11.750  0.0000E+00  0.0000E+00  0.8000E+01
 -11.740  0.0000E+00  0.0000E+00  0.8000E+01
 -11.730  0.0000E+00  0.0000E+00  0.8000E+01
 -11.720  0.0000E+00  0.0000E+00  0.8000E+01
 -11.710  0.0000E+00  0.0000E+00  0.8000E+01
 -11.700  0.0000E+00  0.0000E+00  0.8000E+01
 -11.690  0.0000E+00  0.0000E+00  0.8000E+01
 -11.680  0.0000E+00  0.0000E+00  0.8000E+01
 -11.670  0.0000E+00  0.0000E+00  0.8000E+01
 -11.660  0.0000E+00  0.0000E+00  0.8000E+01
 -11.650  0.0000E+00  0.0000E+00  0.8000E+01
 -11.640  0.0000E+00  0.0000E+00  0.8000E+01
 -11.630  0.0000E+00  0.0000E+00  0.8000E+01
 -11.620  0.0000E+00  0.0000E+00  0.8000E+01
 -11.610  0.0000E+00  0.0000E+00  0.8000E+01
 -11.600  0.0000E+00  0.0000E+00  0.8000E+01
 -11.590  0.0000E+00  0.0000E+00  0.8000E+01
 -11.580  0.0000E+00  0.0000E+00  0.8000E+01
 -11.570  0.0000E+00  0.0000E+00  0.8000E+01
 -11.560  0.0000E+00  0.0000E+00  0.8000E+01
 -11.550  0.0000E+00  0.0000E+00  0.8000E+01
 -11.540  0.0000E+00  0.0000E+00  0.8000E+01
 -11.530  0.0000E+00  0.0000E+00  0.8000E+01
 -11.520  0.0000E+00  0.0000E+00  0.8000E+01
 -11.510  0.0000E+00  0.0000E+00  0.8000E+01
 -11.500  0.0000E+00  0.0000E+00  0.8000E+01
 -11.490  0.0000E+00  0.0000E+00  0.8000E+01
 -11.480  0.0000E+00  0.0000E+00  0.8000E+01
 -11.470  0.0000E+00  0.0000E+00  0.8000E+01
 -11.460  0.0000E+00  0.0000E+00  0.8000E+01
 -11.450  0.0000E+00  0.0000E+00  0.8000E+01
 -11.440  0.0000E+00  0.0000E+00  0.8000E+01
 -11.430  0.0000E+00  0.0000E+00  0.8000E+01
 -11.420  0.0000E+00  0.0000E+00  0.8000E+01
 -11.410  0.0000E+00  0.0000E+00  0.8000E+01
 -11.400  0.0000E+00  0.0000E+00  0.8000E+01
 -11.390  0.0000E+00  0.0000E+00  0.8000E+01
 -11.380  0.0000E+00  0.0000E+00  0.8000E+01
 -11.370  0.0000E+00  0.0000E+00  0.8000E+01
 -11.360  0.0000E+00  0.0000E+00  0.8000E+01
 -11.350  0.0000E+00  0.0000E+00  0.8000E+01
 -11.340  0.0000E+00  0.0000E+00  0.8000E+01
 -11.330  0.0000E+00  0.0000E+00  0.8000E+01
 -11.320  0.0000E+00  0.0000E+00  0.8000E+01
 -11.310  0.0000E+00  0.0000E+00  0.8000E+01
 -11.300  0.0000E+00  0.0000E+00  0.8000E+01
 -11.290  0.0000E+00  0.0000E+00  0.8000E+01
 -11.280  0.0000E+00  0.0000E+00  0.8000E+01
 -11.270  0.0000E+00  0.0000E+00  0.8000E+01
 -11.260  0.0000E+00  0.0000E+00  0.8000E+01
 -11.250  0.0000E+00  0.0000E+00  0.8000E+01
 -11.240  0.0000E+00  0.0000E+00  0.8000E+01
 -11.230  0.0000E+00  0.0000E+00  0.8000E+01
 -11.220  0.0000E+00  0.0000E+00  0.8000E+01
 -11.210  0.0000E+00  0.0000E+00  0.8000E+01
 -11.200  0.0000E+00  0.0000E+00  0.8000E+01
 -11.190  0.0000E+00  0.0000E+00  0.8000E+01
 -11.180  0.0000E+00  0.0000E+00  0.8000E+01
 -11.170  0.0000E+00  0.0000E+00  0.8000E+01
 -11.160  0.0000E+00  0.0000E+00  0.8000E+01
 -11.150  0.0000E+00  0.0000E+00  0.8000E+01
 -11.140  0.0000E+00  0.0000E+00  0.8000E+01
 -11.130  0.0000E+00  0.0000E+00  0.8000E+01
 -11.120  0.0000E+00  0.0000E+00  0.8000E+01
 -11.110  0.0000E+00  0.0000E+00  0.8000E+01
 -11.100  0.0000E+00  0.0000E+00  0.8000E+01
 -11.090  0.0000E+00  0.0000E+00  0.8000E+01
 -11.080  0.0000E+00  0.0000E+00  0.8000E+01
 -11.070  0.0000E+00  0.0000E+00  0.8000E+01
 -11.060  0.0000E+00  0.0000E+00  0.8000E+01
 -11.050  0.0000E+00  0.0000E+00  0.8000E+01
 -11.040  0.0000E+00  0.0000E+00  0.8000E+01
 -11.030  0.0000E+00  0.0000E+00  0.8000E+01
 -11.020  0.0000E+00  0.0000E+00  0.8000E+01
 -11.010  0.0000E+00  0.0000E+00  0.8000E+01
 -11.000  0.0000E+00  0.0000E+00  0.8000E+01
 -10.990  0.0000E+00  0.0000E+00  0.8000E+01
 -10.980  0.0000E+00  0.0000E+00  0.8000E+01
 -10.970  0.0000E+00  0.0000E+00  0.8000E+01
 -10.960  0.0000E+00  0.0000E+00  0.8000E+01
 -10.950  0.0000E+00  0.0000E+00  0.8000E+01
 -10.940  0.0000E+00  0.0000E+00  0.8000E+01
 -10.930  0.0000E+00  0.0000E+00  0.8000E+01
 -10.920  0.0000E+00  0.0000E+00  0.8000E+01
 -10.910  0.0000E+00  0.0000E+00  0.8000E+01
 -10.900  0.0000E+00  0.0000E+00  0.8000E+01
 -10.890  0.0000E+00  0.0000E+00  0.8000E+01
 -10.880  0.0000E+00  0.0000E+00  0.8000E+01
 -10.870  0.0000E+00  0.0000E+00  0.8000E+01
 -10.860  0.0000E+00  0.0000E+00  0.8000E+01
 -10.850  0.0000E+00  0.0000E+00  0.8000E+01
 -10.840  0.0000E+00  0.0000E+00  0.8000E+01
 -10.830  0.0000E+00  0.0000E+00  0.8000E+01
 -10.820  0.0000E+00  0.0000E+00  0.8000E+01
 -10.810  0.0000E+00  0.0000E+00  0.8000E+01
 -10.800  0.0000E+00  0.0000E+00  0.8000E+01
 -10.790  0.0000E+00  0.0000E+00  0.8000E+01
 -10.780  0.0000E+00  0.0000E+00  0.8000E+01
 -10.770  0.0000E+00  0.0000E+00  0.8000E+01
 -10.760  0.0000E+00  0.0000E+00  0.8000E+01
 -10.750  0.0000E+00  0.0000E+00  0.8000E+01
 -10.740  0.0000E+00  0.0000E+00  0.8000E+01
 -10.730  0.0000E+00  0.0000E+00  0.8000E+01
 -10.720  0.0000E+00  0.0000E+00  0.8000E+01
 -10.710  0.0000E+00  0.0000E+00  0.8000E+01
 -10.700  0.0000E+00  0.0000E+00  0.8000E+01
 -10.690  0.0000E+00  0.0000E+00  0.8000E+01
 -10.680  0.0000E+00  0.0000E+00  0.8000E+01
 -10.670  0.0000E+00  0.0000E+00  0.8000E+01
 -10.660  0.0000E+00  0.0000E+00  0.8000E+01
 -10.650  0.0000E+00  0.0000E+00  0.8000E+01
 -10.640  0.0000E+00  0.0000E+00  0.8000E+01
 -10.630  0.0000E+00  0.0000E+00  0.8000E+01
 -10.620  0.0000E+00  0.0000E+00  0.8000E+01
 -10.610  0.0000E+00  0.0000E+00  0.8000E+01
 -10.600  0.0000E+00  0.0000E+00  0.8000E+01
 -10.590  0.0000E+00  0.0000E+00  0.8000E+01
 -10.580  0.0000E+00  0.0000E+00  0.8000E+01
 -10.570  0.0000E+00  0.0000E+00  0.8000E+01
 -10.560  0.0000E+00  0.0000E+00  0.8000E+01
 -10.550  0.0000E+00  0.0000E+00  0.8000E+01
 -10.540  0.0000E+00  0.0000E+00  0.8000E+01
 -10.530  0.0000E+00  0.0000E+00  0.8000E+01
 -10.520  0.0000E+00  0.0000E+00  0.8000E+01
 -10.510  0.0000E+00  0.0000E+00  0.8000E+01
 -10.500  0.0000E+00  0.0000E+00  0.8000E+01
 -10.490  0.0000E+00  0.0000E+00  0.8000E+01
 -10.480  0.0000E+00  0.0000E+00  0.8000E+01
 -10.470  0.0000E+00  0.0000E+00  0.8000E+01
 -10.460  0.0000E+00  0.0000E+00  0.8000E+01
 -10.450  0.0000E+00  0.0000E+00  0.8000E+01
 -10.440  0.0000E+00  0.0000E+00  0.8000E+01
 -10.430  0.0000E+00  0.0000E+00  0.8000E+01
 -10.420  0.0000E+00  0.0000E+00  0.8000E+01
 -10.410  0.0000E+00  0.0000E+00  0.8000E+01
 -10.400  0.0000E+00  0.0000E+00  0.8000E+01
 -10.390  0.0000E+00  0.0000E+00  0.8000E+01
 -10.380  0.0000E+00  0.0000E+00  0.8000E+01
 -10.370  0.0000E+00  0.0000E+00  0.8000E+01
 -10.360  0.0000E+00  0.0000E+00  0.8000E+01
 -10.350  0.0000E+00  0.0000E+00  0.8000E+01
 -10.340  0.0000E+00  0.0000E+00  0.8000E+01
 -10.330  0.0000E+00  0.0000E+00  0.8000E+01
 -10.320  0.0000E+00  0.0000E+00  0.8000E+01
 -10.310  0.0000E+00  0.0000E+00  0.8000E+01
 -10.300  0.0000E+00  0.0000E+00  0.8000E+01
 -10.290  0.0000E+00  0.0000E+00  0.8000E+01
 -10.280  0.0000E+00  0.0000E+00  0.8000E+01
 -10.270  0.0000E+00  0.0000E+00  0.8000E+01
 -10.260  0.0000E+00  0.0000E+00  0.8000E+01
 -10.250  0.0000E+00  0.0000E+00  0.8000E+01
 -10.240  0.0000E+00  0.0000E+00  0.8000E+01
 -10.230  0.0000E+00  0.0000E+00  0.8000E+01
 -10.220  0.0000E+00  0.0000E+00  0.8000E+01
 -10.210  0.0000E+00  0.0000E+00  0.8000E+01
 -10.200  0.0000E+00  0.0000E+00  0.8000E+01
 -10.190  0.0000E+00  0.0000E+00  0.8000E+01
 -10.180  0.0000E+00  0.0000E+00  0.8000E+01
 -10.170  0.0000E+00  0.0000E+00  0.8000E+01
 -10.160  0.0000E+00  0.0000E+00  0.8000E+01
 -10.150  0.0000E+00  0.0000E+00  0.8000E+01
 -10.140  0.0000E+00  0.0000E+00  0.8000E+01
 -10.130  0.0000E+00  0.0000E+00  0.8000E+01
 -10.120  0.0000E+00  0.0000E+00  0.8000E+01
 -10.110  0.0000E+00  0.0000E+00  0.8000E+01
 -10.100  0.0000E+00  0.0000E+00  0.8000E+01
 -10.090  0.0000E+00  0.0000E+00  0.8000E+01
 -10.080  0.0000E+00  0.0000E+00  0.8000E+01
 -10.070  0.0000E+00  0.0000E+00  0.8000E+01
 -10.060  0.0000E+00  0.0000E+00  0.8000E+01
 -10.050  0.0000E+00  0.0000E+00  0.8000E+01
 -10.040  0.0000E+00  0.0000E+00  0.8000E+01
 -10.030  0.0000E+00  0.0000E+00  0.8000E+01
 -10.020  0.0000E+00  0.0000E+00  0.8000E+01
 -10.010  0.0000E+00  0.0000E+00  0.8000E+01
 -10.000  0.0000E+00  0.0000E+00  0.8000E+01
  -9.990  0.0000E+00  0.0000E+00  0.8000E+01
  -9.980  0.0000E+00  0.0000E+00  0.8000E+01
  -9.970  0.0000E+00  0.0000E+00  0.8000E+01
  -9.960  0.0000E+00  0.0000E+00  0.8000E+01
  -9.950  0.0000E+00  0.0000E+00  0.8000E+01
  -9.940  0.0000E+00  0.0000E+00  0.8000E+01
  -9.930  0.0000E+00  0.0000E+00  0.8000E+01
  -9.920  0.0000E+00  0.0000E+00  0.8000E+01
  -9.910  0.0000E+00  0.0000E+00  0.8000E+01
  -9.900  0.0000E+00  0.0000E+00  0.8000E+01
  -9.890  0.0000E+00  0.0000E+00  0.8000E+01
  -9.880  0.0000E+00  0.0000E+00  0.8000E+01
  -9.870  0.0000E+00  0.0000E+00  0.8000E+01
  -9.860  0.0000E+00  0.0000E+00  0.8000E+01
  -9.850  0.0000E+00  0.0000E+00  0.8000E+01
  -9.840  0.0000E+00  0.0000E+00  0.8000E+01
  -9.830  0.0000E+00  0.0000E+00  0.8000E+01
  -9.820  0.0000E+00  0.0000E+00  0.8000E+01
  -9.810  0.0000E+00  0.0000E+00  0.8000E+01
  -9.800  0.0000E+00  0.0000E+00  0.8000E+01
  -9.790  0.0000E+00  0.0000E+00  0.8000E+01
  -9.780  0.0000E+00  0.0000E+00  0.8000E+01
  -9.770  0.0000E+00  0.0000E+00  0.8000E+01
  -9.760  0.0000E+00  0.0000E+00  0.8000E+01
  -9.750  0.0000E+00  0.0000E+00  0.8000E+01
  -9.740  0.0000E+00  0.0000E+00  0.8000E+01
  -9.730  0.0000E+00  0.0000E+00  0.8000E+01
  -9.720  0.0000E+00  0.0000E+00  0.8000E+01
  -9.710  0.0000E+00  0.0000E+00  0.8000E+01
  -9.700  0.0000E+00  0.0000E+00  0.8000E+01
  -9.690  0.0000E+00  0.0000E+00  0.8000E+01
  -9.680  0.0000E+00  0.0000E+00  0.8000E+01
  -9.670  0.0000E+00  0.0000E+00  0.8000E+01
  -9.660  0.0000E+00  0.0000E+00  0.8000E+01
  -9.650  0.0000E+00  0.0000E+00  0.8000E+01
  -9.640  0.0000E+00  0.0000E+00  0.8000E+01
  -9.630  0.0000E+00  0.0000E+00  0.8000E+01
  -9.620  0.0000E+00  0.0000E+00  0.8000E+01
  -9.610  0.0000E+00  0.0000E+00  0.8000E+01
  -9.600  0.0000E+00  0.0000E+00  0.8000E+01
  -9.590  0.0000E+00  0.0000E+00  0.8000E+01
  -9.580  0.0000E+00  0.0000E+00  0.8000E+01
  -9.570  0.0000E+00  0.0000E+00  0.8000E+01
  -9.560  0.0000E+00  0.0000E+00  0.8000E+01
  -9.550  0.0000E+00  0.0000E+00  0.8000E+01
  -9.540  0.0000E+00  0.0000E+00  0.8000E+01
  -9.530  0.0000E+00  0.0000E+00  0.8000E+01
  -9.520  0.0000E+00  0.0000E+00  0.8000E+01
  -9.510  0.0000E+00  0.0000E+00  0.8000E+01
  -9.500  0.0000E+00  0.0000E+00  0.8000E+01
  -9.490  0.0000E+00  0.0000E+00  0.8000E+01
  -9.480  0.0000E+00  0.0000E+00  0.8000E+01
  -9.470  0.0000E+00  0.0000E+00  0.8000E+01
  -9.460  0.0000E+00  0.0000E+00  0.8000E+01
  -9.450  0.0000E+00  0.0000E+00  0.8000E+01
  -9.440  0.0000E+00  0.0000E+00  0.8000E+01
  -9.430  0.0000E+00  0.0000E+00  0.8000E+01
  -9.420  0.0000E+00  0.0000E+00  0.8000E+01
  -9.410  0.0000E+00  0.0000E+00  0.8000E+01
  -9.400  0.0000E+00  0.0000E+00  0.8000E+01
  -9.390  0.0000E+00  0.0000E+00  0.8000E+01
  -9.380  0.0000E+00  0.0000E+00  0.8000E+01
  -9.370  0.0000E+00  0.0000E+00  0.8000E+01
  -9.360  0.0000E+00  0.0000E+00  0.8000E+01
  -9.350  0.0000E+00  0.0000E+00  0.8000E+01
  -9.340  0.0000E+00  0.0000E+00  0.8000E+01
  -9.330  0.0000E+00  0.0000E+00  0.8000E+01
  -9.320  0.0000E+00  0.0000E+00  0.8000E+01
  -9.310  0.0000E+00  0.0000E+00  0.8000E+01
  -9.300  0.0000E+00  0.0000E+00  0.8000E+01
  -9.290  0.0000E+00  0.0000E+00  0.8000E+01
  -9.280  0.0000E+00  0.0000E+00  0.8000E+01
  -9.270  0.0000E+00  0.0000E+00  0.8000E+01
  -9.260  0.0000E+00  0.0000E+00  0.8000E+01
  -9.250  0.0000E+00  0.0000E+00  0.8000E+01
  -9.240  0.0000E+00  0.0000E+00  0.8000E+01
  -9.230  0.0000E+00  0.0000E+00  0.8000E+01
  -9.220  0.0000E+00  0.0000E+00  0.8000E+01
  -9.210  0.0000E+00  0.0000E+00  0.8000E+01
  -9.200  0.0000E+00  0.0000E+00  0.8000E+01
  -9.190  0.0000E+00  0.0000E+00  0.8000E+01
  -9.180  0.0000E+00  0.0000E+00  0.8000E+01
  -9.170  0.0000E+00  0.0000E+00  0.8000E+01
  -9.160  0.0000E+00  0.0000E+00  0.8000E+01
  -9.150  0.0000E+00  0.0000E+00  0.8000E+01
  -9.140  0.0000E+00  0.0000E+00  0.8000E+01
  -9.130  0.0000E+00  0.0000E+00  0.8000E+01
  -9.120  0.0000E+00  0.0000E+00  0.8000E+01
  -9.110  0.0000E+00  0.0000E+00  0.8000E+01
  -9.100  0.0000E+00  0.0000E+00  0.8000E+01
  -9.090  0.0000E+00  0.0000E+00  0.8000E+01
  -9.080  0.0000E+00  0.0000E+00  0.8000E+01
  -9.070  0.0000E+00  0.0000E+00  0.8000E+01
  -9.060  0.0000E+00  0.0000E+00  0.8000E+01
  -9.050  0.0000E+00  0.0000E+00  0.8000E+01
  -9.040  0.0000E+00  0.0000E+00  0.8000E+01
  -9.030  0.0000E+00  0.0000E+00  0.8000E+01
  -9.020  0.0000E+00  0.0000E+00  0.8000E+01
  -9.010  0.0000E+00  0.0000E+00  0.8000E+01
  -9.000  0.0000E+00  0.0000E+00  0.8000E+01
  -8.990  0.0000E+00  0.0000E+00  0.8000E+01
  -8.980  0.0000E+00  0.0000E+00  0.8000E+01
  -8.970  0.0000E+00  0.0000E+00  0.8000E+01
  -8.960  0.0000E+00  0.0000E+00  0.8000E+01
  -8.950  0.0000E+00  0.0000E+00  0.8000E+01
  -8.940  0.0000E+00  0.0000E+00  0.8000E+01
  -8.930  0.0000E+00  0.0000E+00  0.8000E+01
  -8.920  0.0000E+00  0.0000E+00  0.8000E+01
  -8.910  0.0000E+00  0.0000E+00  0.8000E+01
  -8.900  0.0000E+00  0.0000E+00  0.8000E+01
  -8.890  0.0000E+00  0.0000E+00  0.8000E+01
  -8.880  0.0000E+00  0.0000E+00  0.8000E+01
  -8.870  0.0000E+00  0.0000E+00  0.8000E+01
  -8.860  0.0000E+00  0.0000E+00  0.8000E+01
  -8.850  0.0000E+00  0.0000E+00  0.8000E+01
  -8.840  0.0000E+00  0.0000E+00  0.8000E+01
  -8.830  0.0000E+00  0.0000E+00  0.8000E+01
  -8.820  0.0000E+00  0.0000E+00  0.8000E+01
  -8.810  0.0000E+00  0.0000E+00  0.8000E+01
  -8.800  0.0000E+00  0.0000E+00  0.8000E+01
  -8.790  0.0000E+00  0.0000E+00  0.8000E+01
  -8.780  0.0000E+00  0.0000E+00  0.8000E+01
  -8.770  0.0000E+00  0.0000E+00  0.8000E+01
  -8.760  0.0000E+00  0.0000E+00  0.8000E+01
  -8.750  0.0000E+00  0.0000E+00  0.8000E+01
  -8.740  0.0000E+00  0.0000E+00  0.8000E+01
  -8.730  0.0000E+00  0.0000E+00  0.8000E+01
  -8.720  0.0000E+00  0.0000E+00  0.8000E+01
  -8.710  0.0000E+00  0.0000E+00  0.8000E+01
  -8.700  0.0000E+00  0.0000E+00  0.8000E+01
  -8.690  0.0000E+00  0.0000E+00  0.8000E+01
  -8.680  0.0000E+00  0.0000E+00  0.8000E+01
  -8.670  0.0000E+00  0.0000E+00  0.8000E+01
  -8.660  0.0000E+00  0.0000E+00  0.8000E+01
  -8.650  0.0000E+00  0.0000E+00  0.8000E+01
  -8.640  0.0000E+00  0.0000E+00  0.8000E+01
  -8.630  0.0000E+00  0.0000E+00  0.8000E+01
  -8.620  0.0000E+00  0.0000E+00  0.8000E+01
  -8.610  0.0000E+00  0.0000E+00  0.8000E+01
  -8.600  0.0000E+00  0.0000E+00  0.8000E+01
  -8.590  0.0000E+00  0.0000E+00  0.8000E+01
  -8.580  0.0000E+00  0.0000E+00  0.8000E+01
  -8.570  0.0000E+00  0.0000E+00  0.8000E+01
  -8.560  0.0000E+00  0.0000E+00  0.8000E+01
  -8.550  0.0000E+00  0.0000E+00  0.8000E+01
  -8.540  0.0000E+00  0.0000E+00  0.8000E+01
  -8.530  0.0000E+00  0.0000E+00  0.8000E+01
  -8.520  0.0000E+00  0.0000E+00  0.8000E+01
  -8.510  0.0000E+00  0.0000E+00  0.8000E+01
  -8.500  0.0000E+00  0.0000E+00  0.8000E+01
  -8.490  0.0000E+00  0.0000E+00  0.8000E+01
  -8.480  0.0000E+00  0.0000E+00  0.8000E+01
  -8.470  0.0000E+00  0.0000E+00  0.8000E+01
  -8.460  0.0000E+00  0.0000E+00  0.8000E+01
  -8.450  0.0000E+00  0.0000E+00  0.8000E+01
  -8.440  0.0000E+00  0.0000E+00  0.8000E+01
  -8.430  0.0000E+00  0.0000E+00  0.8000E+01
  -8.420  0.0000E+00  0.0000E+00  0.8000E+01
  -8.410  0.0000E+00  0.0000E+00  0.8000E+01
  -8.400  0.0000E+00  0.0000E+00  0.8000E+01
  -8.390  0.0000E+00  0.0000E+00  0.8000E+01
  -8.380  0.0000E+00  0.0000E+00  0.8000E+01
  -8.370  0.0000E+00  0.0000E+00  0.8000E+01
  -8.360  0.0000E+00  0.0000E+00  0.8000E+01
  -8.350  0.0000E+00  0.0000E+00  0.8000E+01
  -8.340  0.0000E+00  0.0000E+00  0.8000E+01
  -8.330  0.0000E+00  0.0000E+00  0.8000E+01
  -8.320  0.0000E+00  0.0000E+00  0.8000E+01
  -8.310  0.0000E+00  0.0000E+00  0.8000E+01
  -8.300  0.0000E+00  0.0000E+00  0.8000E+01
  -8.290  0.0000E+00  0.0000E+00  0.8000E+01
  -8.280  0.0000E+00  0.0000E+00  0.8000E+01
  -8.270  0.0000E+00  0.0000E+00  0.8000E+01
  -8.260  0.0000E+00  0.0000E+00  0.8000E+01
  -8.250  0.0000E+00  0.0000E+00  0.8000E+01
  -8.240  0.0000E+00  0.0000E+00  0.8000E+01
  -8.230  0.0000E+00  0.0000E+00  0.8000E+01
  -8.220  0.0000E+00  0.0000E+00  0.8000E+01
  -8.210  0.0000E+00  0.0000E+00  0.8000E+01
  -8.200  0.0000E+00  0.0000E+00  0.8000E+01
  -8.190  0.0000E+00  0.0000E+00  0.8000E+01
  -8.180  0.0000E+00  0.0000E+00  0.8000E+01
  -8.170  0.0000E+00  0.0000E+00  0.8000E+01
  -8.160  0.0000E+00  0.0000E+00  0.8000E+01
  -8.150  0.0000E+00  0.0000E+00  0.8000E+01
  -8.140  0.0000E+00  0.0000E+00  0.8000E+01
  -8.130  0.0000E+00  0.0000E+00  0.8000E+01
  -8.120  0.0000E+00  0.0000E+00  0.8000E+01
  -8.110  0.0000E+00  0.0000E+00  0.8000E+01
  -8.100  0.0000E+00  0.0000E+00  0.8000E+01
  -8.090  0.0000E+00  0.0000E+00  0.8000E+01
  -8.080  0.0000E+00  0.0000E+00  0.8000E+01
  -8.070  0.0000E+00  0.0000E+00  0.8000E+01
  -8.060  0.0000E+00  0.0000E+00  0.8000E+01
  -8.050  0.0000E+00  0.0000E+00  0.8000E+01
  -8.040  0.0000E+00  0.0000E+00  0.8000E+01
  -8.030  0.0000E+00  0.0000E+00  0.8000E+01
  -8.020  0.0000E+00  0.0000E+00  0.8000E+01
  -8.010  0.0000E+00  0.0000E+00  0.8000E+01
  -8.000  0.0000E+00  0.0000E+00  0.8000E+01
  -7.990  0.0000E+00  0.0000E+00  0.8000E+01
  -7.980  0.0000E+00  0.0000E+00  0.8000E+01
  -7.970  0.0000E+00  0.0000E+00  0.8000E+01
  -7.960  0.0000E+00  0.0000E+00  0.8000E+01
  -7.950  0.0000E+00  0.0000E+00  0.8000E+01
  -7.940  0.0000E+00  0.0000E+00  0.8000E+01
  -7.930  0.0000E+00  0.0000E+00  0.8000E+01
  -7.920  0.0000E+00  0.0000E+00  0.8000E+01
  -7.910  0.0000E+00  0.0000E+00  0.8000E+01
  -7.900  0.0000E+00  0.0000E+00  0.8000E+01
  -7.890  0.0000E+00  0.0000E+00  0.8000E+01
  -7.880  0.0000E+00  0.0000E+00  0.8000E+01
  -7.870  0.0000E+00  0.0000E+00  0.8000E+01
  -7.860  0.0000E+00  0.0000E+00  0.8000E+01
  -7.850  0.0000E+00  0.0000E+00  0.8000E+01
  -7.840  0.0000E+00  0.0000E+00  0.8000E+01
  -7.830  0.0000E+00  0.0000E+00  0.8000E+01
  -7.820  0.0000E+00  0.0000E+00  0.8000E+01
  -7.810  0.0000E+00  0.0000E+00  0.8000E+01
  -7.800  0.0000E+00  0.0000E+00  0.8000E+01
  -7.790  0.0000E+00  0.0000E+00  0.8000E+01
  -7.780  0.0000E+00  0.0000E+00  0.8000E+01
  -7.770  0.0000E+00  0.0000E+00  0.8000E+01
  -7.760  0.0000E+00  0.0000E+00  0.8000E+01
  -7.750  0.0000E+00  0.0000E+00  0.8000E+01
  -7.740  0.0000E+00  0.0000E+00  0.8000E+01
  -7.730  0.0000E+00  0.0000E+00  0.8000E+01
  -7.720  0.0000E+00  0.0000E+00  0.8000E+01
  -7.710  0.0000E+00  0.0000E+00  0.8000E+01
  -7.700  0.0000E+00  0.0000E+00  0.8000E+01
  -7.690  0.0000E+00  0.0000E+00  0.8000E+01
  -7.680  0.0000E+00  0.0000E+00  0.8000E+01
  -7.670  0.0000E+00  0.0000E+00  0.8000E+01
  -7.660  0.0000E+00  0.0000E+00  0.8000E+01
  -7.650  0.0000E+00  0.0000E+00  0.8000E+01
  -7.640  0.0000E+00  0.0000E+00  0.8000E+01
  -7.630  0.0000E+00  0.0000E+00  0.8000E+01
  -7.620  0.0000E+00  0.0000E+00  0.8000E+01
  -7.610  0.0000E+00  0.0000E+00  0.8000E+01
  -7.600  0.0000E+00  0.0000E+00  0.8000E+01
  -7.590  0.0000E+00  0.0000E+00  0.8000E+01
  -7.580  0.0000E+00  0.0000E+00  0.8000E+01
  -7.570  0.0000E+00  0.0000E+00  0.8000E+01
  -7.560  0.0000E+00  0.0000E+00  0.8000E+01
  -7.550  0.0000E+00  0.0000E+00  0.8000E+01
  -7.540  0.0000E+00  0.0000E+00  0.8000E+01
  -7.530  0.0000E+00  0.0000E+00  0.8000E+01
  -7.520  0.0000E+00  0.0000E+00  0.8000E+01
  -7.510  0.0000E+00  0.0000E+00  0.8000E+01
  -7.500  0.0000E+00  0.0000E+00  0.8000E+01
  -7.490  0.0000E+00  0.0000E+00  0.8000E+01
  -7.480  0.0000E+00  0.0000E+00  0.8000E+01
  -7.470  0.0000E+00  0.0000E+00  0.8000E+01
  -7.460  0.1281E-01  0.0000E+00  0.8000E+01
  -7.450  0.1418E+00  0.5176E-03  0.8001E+01
  -7.440  0.5816E+00  0.2710E-01  0.8004E+01
  -7.430  0.1339E+01  0.2522E+00  0.8015E+01
  -7.420  0.2073E+01  0.7909E+00  0.8037E+01
  -7.410  0.2520E+01  0.1598E+01  0.8072E+01
  -7.400  0.2711E+01  0.2251E+01  0.8118E+01
  -7.390  0.2711E+01  0.2607E+01  0.8169E+01
  -7.380  0.2728E+01  0.2744E+01  0.8223E+01
  -7.370  0.2797E+01  0.2751E+01  0.8279E+01
  -7.360  0.2892E+01  0.2813E+01  0.8335E+01
  -7.350  0.3114E+01  0.2891E+01  0.8393E+01
  -7.340  0.3489E+01  0.3042E+01  0.8456E+01
  -7.330  0.3866E+01  0.3340E+01  0.8524E+01
  -7.320  0.4285E+01  0.3760E+01  0.8600E+01
  -7.310  0.4850E+01  0.4157E+01  0.8685E+01
  -7.300  0.5387E+01  0.4698E+01  0.8781E+01
  -7.290  0.5732E+01  0.5267E+01  0.8887E+01
  -7.280  0.5859E+01  0.5599E+01  0.8999E+01
  -7.270  0.6036E+01  0.5646E+01  0.9115E+01
  -7.260  0.6489E+01  0.5526E+01  0.9233E+01
  -7.250  0.7309E+01  0.5699E+01  0.9357E+01
  -7.240  0.8233E+01  0.6327E+01  0.9495E+01
  -7.230  0.8313E+01  0.7256E+01  0.9645E+01
  -7.220  0.8368E+01  0.8166E+01  0.9807E+01
  -7.210  0.8395E+01  0.8302E+01  0.9973E+01
  -7.200  0.8318E+01  0.8382E+01  0.1014E+02
  -7.190  0.8164E+01  0.8363E+01  0.1031E+02
  -7.180  0.7926E+01  0.8268E+01  0.1047E+02
  -7.170  0.7637E+01  0.8092E+01  0.1063E+02
  -7.160  0.7443E+01  0.7852E+01  0.1078E+02
  -7.150  0.7426E+01  0.7615E+01  0.1094E+02
  -7.140  0.7718E+01  0.7453E+01  0.1109E+02
  -7.130  0.8319E+01  0.7502E+01  0.1124E+02
  -7.120  0.8728E+01  0.7848E+01  0.1140E+02
  -7.110  0.9293E+01  0.8317E+01  0.1157E+02
  -7.100  0.1121E+02  0.8732E+01  0.1176E+02
  -7.090  0.1206E+02  0.9937E+01  0.1197E+02
  -7.080  0.1171E+02  0.1181E+02  0.1220E+02
  -7.070  0.1058E+02  0.1242E+02  0.1243E+02
  -7.060  0.1054E+02  0.1224E+02  0.1266E+02
  -7.050  0.1093E+02  0.1114E+02  0.1289E+02
  -7.040  0.1123E+02  0.1083E+02  0.1311E+02
  -7.030  0.1152E+02  0.1096E+02  0.1333E+02
  -7.020  0.1193E+02  0.1118E+02  0.1356E+02
  -7.010  0.1202E+02  0.1156E+02  0.1379E+02
  -7.000  0.1201E+02  0.1190E+02  0.1403E+02
  -6.990  0.1124E+02  0.1178E+02  0.1426E+02
  -6.980  0.1085E+02  0.1138E+02  0.1449E+02
  -6.970  0.1117E+02  0.1005E+02  0.1470E+02
  -6.960  0.1192E+02  0.1057E+02  0.1492E+02
  -6.950  0.1246E+02  0.1121E+02  0.1515E+02
  -6.940  0.1277E+02  0.1206E+02  0.1539E+02
  -6.930  0.1284E+02  0.1259E+02  0.1565E+02
  -6.920  0.1274E+02  0.1281E+02  0.1590E+02
  -6.910  0.1316E+02  0.1270E+02  0.1616E+02
  -6.900  0.1485E+02  0.1278E+02  0.1642E+02
  -6.890  0.1824E+02  0.1383E+02  0.1672E+02
  -6.880  0.2186E+02  0.1627E+02  0.1707E+02
  -6.870  0.2326E+02  0.2028E+02  0.1748E+02
  -6.860  0.2863E+02  0.2262E+02  0.1795E+02
  -6.850  0.2318E+02  0.2415E+02  0.1843E+02
  -6.840  0.2181E+02  0.2599E+02  0.1892E+02
  -6.830  0.2096E+02  0.2377E+02  0.1938E+02
  -6.820  0.1999E+02  0.2209E+02  0.1981E+02
  -6.810  0.1899E+02  0.2083E+02  0.2022E+02
  -6.800  0.1881E+02  0.1936E+02  0.2061E+02
  -6.790  0.2158E+02  0.1808E+02  0.2100E+02
  -6.780  0.2165E+02  0.1661E+02  0.2138E+02
  -6.770  0.1904E+02  0.1972E+02  0.2177E+02
  -6.760  0.1683E+02  0.2127E+02  0.2216E+02
  -6.750  0.1507E+02  0.1892E+02  0.2252E+02
  -6.740  0.1388E+02  0.1667E+02  0.2284E+02
  -6.730  0.1331E+02  0.1498E+02  0.2313E+02
  -6.720  0.1328E+02  0.1383E+02  0.2341E+02
  -6.710  0.1950E+02  0.1330E+02  0.2369E+02
  -6.700  0.2381E+02  0.1351E+02  0.2406E+02
  -6.690  0.2987E+02  0.2195E+02  0.2451E+02
  -6.680  0.2261E+02  0.2651E+02  0.2499E+02
  -6.670  0.3412E+02  0.2481E+02  0.2556E+02
  -6.660  0.3961E+02  0.2562E+02  0.2617E+02
  -6.650  0.3702E+02  0.3311E+02  0.2686E+02
  -6.640  0.3238E+02  0.3926E+02  0.2757E+02
  -6.630  0.2848E+02  0.3688E+02  0.2826E+02
  -6.620  0.3380E+02  0.3225E+02  0.2890E+02
  -6.610  0.4040E+02  0.2971E+02  0.2959E+02
  -6.600  0.4225E+02  0.3617E+02  0.3031E+02
  -6.590  0.4376E+02  0.4397E+02  0.3115E+02
  -6.580  0.4594E+02  0.4724E+02  0.3206E+02
  -6.570  0.4569E+02  0.4939E+02  0.3301E+02
  -6.560  0.4419E+02  0.3950E+02  0.3390E+02
  -6.550  0.4465E+02  0.3716E+02  0.3472E+02
  -6.540  0.4294E+02  0.4393E+02  0.3556E+02
  -6.530  0.4759E+02  0.4304E+02  0.3645E+02
  -6.520  0.5148E+02  0.4363E+02  0.3738E+02
  -6.510  0.4936E+02  0.4699E+02  0.3834E+02
  -6.500  0.4838E+02  0.5015E+02  0.3931E+02
  -6.490  0.4877E+02  0.4866E+02  0.4029E+02
  -6.480  0.5269E+02  0.4706E+02  0.4128E+02
  -6.470  0.5822E+02  0.5002E+02  0.4230E+02
  -6.460  0.7506E+02  0.5699E+02  0.4357E+02
  -6.450  0.6310E+02  0.6737E+02  0.4488E+02
  -6.440  0.5805E+02  0.7057E+02  0.4624E+02
  -6.430  0.5416E+02  0.6776E+02  0.4753E+02
  -6.420  0.5062E+02  0.6039E+02  0.4868E+02
  -6.410  0.7371E+02  0.6331E+02  0.4986E+02
  -6.400  0.8496E+02  0.5462E+02  0.5120E+02
  -6.390  0.5724E+02  0.6637E+02  0.5258E+02
  -6.380  0.5254E+02  0.6135E+02  0.5379E+02
  -6.370  0.4593E+02  0.5353E+02  0.5486E+02
  -6.360  0.4270E+02  0.4914E+02  0.5581E+02
  -6.350  0.4964E+02  0.4161E+02  0.5671E+02
  -6.340  0.5102E+02  0.4108E+02  0.5763E+02
  -6.330  0.5144E+02  0.5586E+02  0.5862E+02
  -6.320  0.6538E+02  0.6037E+02  0.5976E+02
  -6.310  0.9988E+02  0.6413E+02  0.6124E+02
  -6.300  0.1078E+03  0.7536E+02  0.6314E+02
  -6.290  0.8438E+02  0.8358E+02  0.6496E+02
  -6.280  0.7637E+02  0.8001E+02  0.6660E+02
  -6.270  0.6860E+02  0.7651E+02  0.6813E+02
  -6.260  0.5925E+02  0.7675E+02  0.6952E+02
  -6.250  0.8348E+01  0.6975E+02  0.7067E+02
  -6.240  0.0000E+00  0.3986E+02  0.7124E+02
  -6.230  0.0000E+00  0.3138E+02  0.7161E+02
  -6.220  0.0000E+00  0.2735E+02  0.7193E+02
  -6.210  0.0000E+00  0.6658E-02  0.7200E+02
  -6.200  0.0000E+00  0.0000E+00  0.7200E+02
  -6.190  0.0000E+00  0.0000E+00  0.7200E+02
  -6.180  0.0000E+00  0.0000E+00  0.7200E+02
  -6.170  0.0000E+00  0.0000E+00  0.7200E+02
  -6.160  0.0000E+00  0.0000E+00  0.7200E+02
  -6.150  0.0000E+00  0.0000E+00  0.7200E+02
  -6.140  0.0000E+00  0.0000E+00  0.7200E+02
  -6.130  0.0000E+00  0.0000E+00  0.7200E+02
  -6.120  0.0000E+00  0.0000E+00  0.7200E+02
  -6.110  0.0000E+00  0.0000E+00  0.7200E+02
  -6.100  0.0000E+00  0.0000E+00  0.7200E+02
  -6.090  0.0000E+00  0.0000E+00  0.7200E+02
  -6.080  0.0000E+00  0.0000E+00  0.7200E+02
  -6.070  0.0000E+00  0.0000E+00  0.7200E+02
  -6.060  0.0000E+00  0.0000E+00  0.7200E+02
  -6.050  0.0000E+00  0.0000E+00  0.7200E+02
  -6.040  0.0000E+00  0.0000E+00  0.7200E+02
  -6.030  0.0000E+00  0.0000E+00  0.7200E+02
  -6.020  0.0000E+00  0.0000E+00  0.7200E+02
  -6.010  0.0000E+00  0.0000E+00  0.7200E+02
  -6.000  0.0000E+00  0.0000E+00  0.7200E+02
  -5.990  0.0000E+00  0.0000E+00  0.7200E+02
  -5.980  0.0000E+00  0.0000E+00  0.7200E+02
  -5.970  0.0000E+00  0.0000E+00  0.7200E+02
  -5.960  0.0000E+00  0.0000E+00  0.7200E+02
  -5.950  0.0000E+00  0.0000E+00  0.7200E+02
  -5.940  0.0000E+00  0.0000E+00  0.7200E+02
  -5.930  0.0000E+00  0.0000E+00  0.7200E+02
  -5.920  0.0000E+00  0.0000E+00  0.7200E+02
  -5.910  0.0000E+00  0.0000E+00  0.7200E+02
  -5.900  0.0000E+00  0.0000E+00  0.7200E+02
  -5.890  0.0000E+00  0.0000E+00  0.7200E+02
  -5.880  0.0000E+00  0.0000E+00  0.7200E+02
  -5.870  0.0000E+00  0.0000E+00  0.7200E+02
  -5.860  0.0000E+00  0.0000E+00  0.7200E+02
  -5.850  0.0000E+00  0.0000E+00  0.7200E+02
  -5.840  0.0000E+00  0.0000E+00  0.7200E+02
  -5.830  0.0000E+00  0.0000E+00  0.7200E+02
  -5.820  0.0000E+00  0.0000E+00  0.7200E+02
  -5.810  0.0000E+00  0.0000E+00  0.7200E+02
  -5.800  0.0000E+00  0.0000E+00  0.7200E+02
  -5.790  0.0000E+00  0.0000E+00  0.7200E+02
  -5.780  0.0000E+00  0.0000E+00  0.7200E+02
  -5.770  0.0000E+00  0.0000E+00  0.7200E+02
  -5.760  0.0000E+00  0.0000E+00  0.7200E+02
  -5.750  0.0000E+00  0.0000E+00  0.7200E+02
  -5.740  0.0000E+00  0.0000E+00  0.7200E+02
  -5.730  0.0000E+00  0.0000E+00  0.7200E+02
  -5.720  0.0000E+00  0.0000E+00  0.7200E+02
  -5.710  0.0000E+00  0.0000E+00  0.7200E+02
  -5.700  0.0000E+00  0.0000E+00  0.7200E+02
  -5.690  0.0000E+00  0.0000E+00  0.7200E+02
  -5.680  0.0000E+00  0.0000E+00  0.7200E+02
  -5.670  0.0000E+00  0.0000E+00  0.7200E+02
  -5.660  0.0000E+00  0.0000E+00  0.7200E+02
  -5.650  0.0000E+00  0.0000E+00  0.7200E+02
  -5.640  0.0000E+00  0.0000E+00  0.7200E+02
  -5.630  0.0000E+00  0.0000E+00  0.7200E+02
  -5.620  0.0000E+00  0.0000E+00  0.7200E+02
  -5.610  0.0000E+00  0.0000E+00  0.7200E+02
  -5.600  0.0000E+00  0.0000E+00  0.7200E+02
  -5.590  0.0000E+00  0.0000E+00  0.7200E+02
  -5.580  0.0000E+00  0.0000E+00  0.7200E+02
  -5.570  0.0000E+00  0.0000E+00  0.7200E+02
  -5.560  0.0000E+00  0.0000E+00  0.7200E+02
  -5.550  0.0000E+00  0.0000E+00  0.7200E+02
  -5.540  0.0000E+00  0.0000E+00  0.7200E+02
  -5.530  0.0000E+00  0.0000E+00  0.7200E+02
  -5.520  0.0000E+00  0.0000E+00  0.7200E+02
  -5.510  0.0000E+00  0.0000E+00  0.7200E+02
  -5.500  0.0000E+00  0.0000E+00  0.7200E+02
  -5.490  0.0000E+00  0.0000E+00  0.7200E+02
  -5.480  0.0000E+00  0.0000E+00  0.7200E+02
  -5.470  0.0000E+00  0.0000E+00  0.7200E+02
  -5.460  0.0000E+00  0.0000E+00  0.7200E+02
  -5.450  0.0000E+00  0.0000E+00  0.7200E+02
  -5.440  0.0000E+00  0.0000E+00  0.7200E+02
  -5.430  0.0000E+00  0.0000E+00  0.7200E+02
  -5.420  0.0000E+00  0.0000E+00  0.7200E+02
  -5.410  0.0000E+00  0.0000E+00  0.7200E+02
  -5.400  0.0000E+00  0.0000E+00  0.7200E+02
  -5.390  0.0000E+00  0.0000E+00  0.7200E+02
  -5.380  0.0000E+00  0.0000E+00  0.7200E+02
  -5.370  0.0000E+00  0.0000E+00  0.7200E+02
  -5.360  0.0000E+00  0.0000E+00  0.7200E+02
  -5.350  0.0000E+00  0.0000E+00  0.7200E+02
  -5.340  0.0000E+00  0.0000E+00  0.7200E+02
  -5.330  0.0000E+00  0.0000E+00  0.7200E+02
  -5.320  0.0000E+00  0.0000E+00  0.7200E+02
  -5.310  0.0000E+00  0.0000E+00  0.7200E+02
  -5.300  0.0000E+00  0.0000E+00  0.7200E+02
  -5.290  0.0000E+00  0.0000E+00  0.7200E+02
  -5.280  0.0000E+00  0.0000E+00  0.7200E+02
  -5.270  0.0000E+00  0.0000E+00  0.7200E+02
  -5.260  0.0000E+00  0.0000E+00  0.7200E+02
  -5.250  0.0000E+00  0.0000E+00  0.7200E+02
  -5.240  0.0000E+00  0.0000E+00  0.7200E+02
  -5.230  0.0000E+00  0.0000E+00  0.7200E+02
  -5.220  0.0000E+00  0.0000E+00  0.7200E+02
  -5.210  0.0000E+00  0.0000E+00  0.7200E+02
  -5.200  0.0000E+00  0.0000E+00  0.7200E+02
  -5.190  0.0000E+00  0.0000E+00  0.7200E+02
  -5.180  0.0000E+00  0.0000E+00  0.7200E+02
  -5.170  0.0000E+00  0.0000E+00  0.7200E+02
  -5.160  0.0000E+00  0.0000E+00  0.7200E+02
  -5.150  0.0000E+00  0.0000E+00  0.7200E+02
  -5.140  0.0000E+00  0.0000E+00  0.7200E+02
  -5.130  0.0000E+00  0.0000E+00  0.7200E+02
  -5.120  0.0000E+00  0.0000E+00  0.7200E+02
  -5.110  0.0000E+00  0.0000E+00  0.7200E+02
  -5.100  0.0000E+00  0.0000E+00  0.7200E+02
  -5.090  0.0000E+00  0.0000E+00  0.7200E+02
  -5.080  0.0000E+00  0.0000E+00  0.7200E+02
  -5.070  0.0000E+00  0.0000E+00  0.7200E+02
  -5.060  0.0000E+00  0.0000E+00  0.7200E+02
  -5.050  0.0000E+00  0.0000E+00  0.7200E+02
  -5.040  0.0000E+00  0.0000E+00  0.7200E+02
  -5.030  0.0000E+00  0.0000E+00  0.7200E+02
  -5.020  0.0000E+00  0.0000E+00  0.7200E+02
  -5.010  0.0000E+00  0.0000E+00  0.7200E+02
  -5.000  0.0000E+00  0.0000E+00  0.7200E+02
  -4.990  0.0000E+00  0.0000E+00  0.7200E+02
  -4.980  0.0000E+00  0.0000E+00  0.7200E+02
  -4.970  0.0000E+00  0.0000E+00  0.7200E+02
  -4.960  0.0000E+00  0.0000E+00  0.7200E+02
  -4.950  0.0000E+00  0.0000E+00  0.7200E+02
  -4.940  0.0000E+00  0.0000E+00  0.7200E+02
  -4.930  0.0000E+00  0.0000E+00  0.7200E+02
  -4.920  0.0000E+00  0.0000E+00  0.7200E+02
  -4.910  0.0000E+00  0.0000E+00  0.7200E+02
  -4.900  0.0000E+00  0.0000E+00  0.7200E+02
  -4.890  0.0000E+00  0.0000E+00  0.7200E+02
  -4.880  0.0000E+00  0.0000E+00  0.7200E+02
  -4.870  0.0000E+00  0.0000E+00  0.7200E+02
  -4.860  0.0000E+00  0.0000E+00  0.7200E+02
  -4.850  0.0000E+00  0.0000E+00  0.7200E+02
  -4.840  0.0000E+00  0.0000E+00  0.7200E+02
  -4.830  0.0000E+00  0.0000E+00  0.7200E+02
  -4.820  0.0000E+00  0.0000E+00  0.7200E+02
  -4.810  0.0000E+00  0.0000E+00  0.7200E+02
  -4.800  0.0000E+00  0.0000E+00  0.7200E+02
  -4.790  0.0000E+00  0.0000E+00  0.7200E+02
  -4.780  0.0000E+00  0.0000E+00  0.7200E+02
  -4.770  0.0000E+00  0.0000E+00  0.7200E+02
  -4.760  0.0000E+00  0.0000E+00  0.7200E+02
  -4.750  0.0000E+00  0.0000E+00  0.7200E+02
  -4.740  0.0000E+00  0.0000E+00  0.7200E+02
  -4.730  0.0000E+00  0.0000E+00  0.7200E+02
  -4.720  0.0000E+00  0.0000E+00  0.7200E+02
  -4.710  0.0000E+00  0.0000E+00  0.7200E+02
  -4.700  0.0000E+00  0.0000E+00  0.7200E+02
  -4.690  0.0000E+00  0.0000E+00  0.7200E+02
  -4.680  0.0000E+00  0.0000E+00  0.7200E+02
  -4.670  0.0000E+00  0.0000E+00  0.7200E+02
  -4.660  0.0000E+00  0.0000E+00  0.7200E+02
  -4.650  0.0000E+00  0.0000E+00  0.7200E+02
  -4.640  0.0000E+00  0.0000E+00  0.7200E+02
  -4.630  0.0000E+00  0.0000E+00  0.7200E+02
  -4.620  0.0000E+00  0.0000E+00  0.7200E+02
  -4.610  0.0000E+00  0.0000E+00  0.7200E+02
  -4.600  0.0000E+00  0.0000E+00  0.7200E+02
  -4.590  0.0000E+00  0.0000E+00  0.7200E+02
  -4.580  0.0000E+00  0.0000E+00  0.7200E+02
  -4.570  0.0000E+00  0.0000E+00  0.7200E+02
  -4.560  0.0000E+00  0.0000E+00  0.7200E+02
  -4.550  0.0000E+00  0.0000E+00  0.7200E+02
  -4.540  0.0000E+00  0.0000E+00  0.7200E+02
  -4.530  0.0000E+00  0.0000E+00  0.7200E+02
  -4.520  0.0000E+00  0.0000E+00  0.7200E+02
  -4.510  0.0000E+00  0.0000E+00  0.7200E+02
  -4.500  0.0000E+00  0.0000E+00  0.7200E+02
  -4.490  0.0000E+00  0.0000E+00  0.7200E+02
  -4.480  0.0000E+00  0.0000E+00  0.7200E+02
  -4.470  0.0000E+00  0.0000E+00  0.7200E+02
  -4.460  0.0000E+00  0.0000E+00  0.7200E+02
  -4.450  0.0000E+00  0.0000E+00  0.7200E+02
  -4.440  0.0000E+00  0.0000E+00  0.7200E+02
  -4.430  0.0000E+00  0.0000E+00  0.7200E+02
  -4.420  0.0000E+00  0.0000E+00  0.7200E+02
  -4.410  0.0000E+00  0.0000E+00  0.7200E+02
  -4.400  0.0000E+00  0.0000E+00  0.7200E+02
  -4.390  0.0000E+00  0.0000E+00  0.7200E+02
  -4.380  0.0000E+00  0.0000E+00  0.7200E+02
  -4.370  0.0000E+00  0.0000E+00  0.7200E+02
  -4.360  0.0000E+00  0.0000E+00  0.7200E+02
  -4.350  0.0000E+00  0.0000E+00  0.7200E+02
  -4.340  0.0000E+00  0.0000E+00  0.7200E+02
  -4.330  0.0000E+00  0.0000E+00  0.7200E+02
  -4.320  0.0000E+00  0.0000E+00  0.7200E+02
  -4.310  0.0000E+00  0.0000E+00  0.7200E+02
  -4.300  0.0000E+00  0.0000E+00  0.7200E+02
  -4.290  0.0000E+00  0.0000E+00  0.7200E+02
  -4.280  0.0000E+00  0.0000E+00  0.7200E+02
  -4.270  0.0000E+00  0.0000E+00  0.7200E+02
  -4.260  0.0000E+00  0.0000E+00  0.7200E+02
  -4.250  0.0000E+00  0.0000E+00  0.7200E+02
  -4.240  0.0000E+00  0.0000E+00  0.7200E+02
  -4.230  0.0000E+00  0.0000E+00  0.7200E+02
  -4.220  0.0000E+00  0.0000E+00  0.7200E+02
  -4.210  0.0000E+00  0.0000E+00  0.7200E+02
  -4.200  0.0000E+00  0.0000E+00  0.7200E+02
  -4.190  0.0000E+00  0.0000E+00  0.7200E+02
  -4.180  0.0000E+00  0.0000E+00  0.7200E+02
  -4.170  0.0000E+00  0.0000E+00  0.7200E+02
  -4.160  0.0000E+00  0.0000E+00  0.7200E+02
  -4.150  0.0000E+00  0.0000E+00  0.7200E+02
  -4.140  0.0000E+00  0.0000E+00  0.7200E+02
  -4.130  0.0000E+00  0.0000E+00  0.7200E+02
  -4.120  0.0000E+00  0.0000E+00  0.7200E+02
  -4.110  0.0000E+00  0.0000E+00  0.7200E+02
  -4.100  0.0000E+00  0.0000E+00  0.7200E+02
  -4.090  0.0000E+00  0.0000E+00  0.7200E+02
  -4.080  0.0000E+00  0.0000E+00  0.7200E+02
  -4.070  0.0000E+00  0.0000E+00  0.7200E+02
  -4.060  0.0000E+00  0.0000E+00  0.7200E+02
  -4.050  0.0000E+00  0.0000E+00  0.7200E+02
  -4.040  0.0000E+00  0.0000E+00  0.7200E+02
  -4.030  0.0000E+00  0.0000E+00  0.7200E+02
  -4.020  0.0000E+00  0.0000E+00  0.7200E+02
  -4.010  0.0000E+00  0.0000E+00  0.7200E+02
  -4.000  0.0000E+00  0.0000E+00  0.7200E+02
  -3.990  0.0000E+00  0.0000E+00  0.7200E+02
  -3.980  0.0000E+00  0.0000E+00  0.7200E+02
  -3.970  0.0000E+00  0.0000E+00  0.7200E+02
  -3.960  0.0000E+00  0.0000E+00  0.7200E+02
  -3.950  0.0000E+00  0.0000E+00  0.7200E+02
  -3.940  0.0000E+00  0.0000E+00  0.7200E+02
  -3.930  0.0000E+00  0.0000E+00  0.7200E+02
  -3.920  0.0000E+00  0.0000E+00  0.7200E+02
  -3.910  0.0000E+00  0.0000E+00  0.7200E+02
  -3.900  0.0000E+00  0.0000E+00  0.7200E+02
  -3.890  0.0000E+00  0.0000E+00  0.7200E+02
  -3.880  0.0000E+00  0.0000E+00  0.7200E+02
  -3.870  0.0000E+00  0.0000E+00  0.7200E+02
  -3.860  0.0000E+00  0.0000E+00  0.7200E+02
  -3.850  0.0000E+00  0.0000E+00  0.7200E+02
  -3.840  0.0000E+00  0.0000E+00  0.7200E+02
  -3.830  0.0000E+00  0.0000E+00  0.7200E+02
  -3.820  0.0000E+00  0.0000E+00  0.7200E+02
  -3.810  0.0000E+00  0.0000E+00  0.7200E+02
  -3.800  0.0000E+00  0.0000E+00  0.7200E+02
  -3.790  0.0000E+00  0.0000E+00  0.7200E+02
  -3.780  0.0000E+00  0.0000E+00  0.7200E+02
  -3.770  0.0000E+00  0.0000E+00  0.7200E+02
  -3.760  0.0000E+00  0.0000E+00  0.7200E+02
  -3.750  0.0000E+00  0.0000E+00  0.7200E+02
  -3.740  0.0000E+00  0.0000E+00  0.7200E+02
  -3.730  0.0000E+00  0.0000E+00  0.7200E+02
  -3.720  0.0000E+00  0.0000E+00  0.7200E+02
  -3.710  0.0000E+00  0.0000E+00  0.7200E+02
  -3.700  0.0000E+00  0.0000E+00  0.7200E+02
  -3.690  0.0000E+00  0.0000E+00  0.7200E+02
  -3.680  0.0000E+00  0.0000E+00  0.7200E+02
  -3.670  0.0000E+00  0.0000E+00  0.7200E+02
  -3.660  0.0000E+00  0.0000E+00  0.7200E+02
  -3.650  0.0000E+00  0.0000E+00  0.7200E+02
  -3.640  0.0000E+00  0.0000E+00  0.7200E+02
  -3.630  0.0000E+00  0.0000E+00  0.7200E+02
  -3.620  0.0000E+00  0.0000E+00  0.7200E+02
  -3.610  0.0000E+00  0.0000E+00  0.7200E+02
  -3.600  0.0000E+00  0.0000E+00  0.7200E+02
  -3.590  0.0000E+00  0.0000E+00  0.7200E+02
  -3.580  0.0000E+00  0.0000E+00  0.7200E+02
  -3.570  0.0000E+00  0.0000E+00  0.7200E+02
  -3.560  0.0000E+00  0.0000E+00  0.7200E+02
  -3.550  0.0000E+00  0.0000E+00  0.7200E+02
  -3.540  0.0000E+00  0.0000E+00  0.7200E+02
  -3.530  0.0000E+00  0.0000E+00  0.7200E+02
  -3.520  0.0000E+00  0.0000E+00  0.7200E+02
  -3.510  0.0000E+00  0.0000E+00  0.7200E+02
  -3.500  0.0000E+00  0.0000E+00  0.7200E+02
  -3.490  0.0000E+00  0.0000E+00  0.7200E+02
  -3.480  0.0000E+00  0.0000E+00  0.7200E+02
  -3.470  0.0000E+00  0.0000E+00  0.7200E+02
  -3.460  0.0000E+00  0.0000E+00  0.7200E+02
  -3.450  0.0000E+00  0.0000E+00  0.7200E+02
  -3.440  0.0000E+00  0.0000E+00  0.7200E+02
  -3.430  0.0000E+00  0.0000E+00  0.7200E+02
  -3.420  0.0000E+00  0.0000E+00  0.7200E+02
  -3.410  0.0000E+00  0.0000E+00  0.7200E+02
  -3.400  0.0000E+00  0.0000E+00  0.7200E+02
  -3.390  0.0000E+00  0.0000E+00  0.7200E+02
  -3.380  0.0000E+00  0.0000E+00  0.7200E+02
  -3.370  0.0000E+00  0.0000E+00  0.7200E+02
  -3.360  0.0000E+00  0.0000E+00  0.7200E+02
  -3.350  0.0000E+00  0.0000E+00  0.7200E+02
  -3.340  0.0000E+00  0.0000E+00  0.7200E+02
  -3.330  0.0000E+00  0.0000E+00  0.7200E+02
  -3.320  0.0000E+00  0.0000E+00  0.7200E+02
  -3.310  0.0000E+00  0.0000E+00  0.7200E+02
  -3.300  0.0000E+00  0.0000E+00  0.7200E+02
  -3.290  0.0000E+00  0.0000E+00  0.7200E+02
  -3.280  0.0000E+00  0.0000E+00  0.7200E+02
  -3.270  0.0000E+00  0.0000E+00  0.7200E+02
  -3.260  0.0000E+00  0.0000E+00  0.7200E+02
  -3.250  0.0000E+00  0.0000E+00  0.7200E+02
  -3.240  0.0000E+00  0.0000E+00  0.7200E+02
  -3.230  0.0000E+00  0.0000E+00  0.7200E+02
  -3.220  0.0000E+00  0.0000E+00  0.7200E+02
  -3.210  0.0000E+00  0.0000E+00  0.7200E+02
  -3.200  0.0000E+00  0.0000E+00  0.7200E+02
  -3.190  0.0000E+00  0.0000E+00  0.7200E+02
  -3.180  0.0000E+00  0.0000E+00  0.7200E+02
  -3.170  0.0000E+00  0.0000E+00  0.7200E+02
  -3.160  0.0000E+00  0.0000E+00  0.7200E+02
  -3.150  0.0000E+00  0.0000E+00  0.7200E+02
  -3.140  0.0000E+00  0.0000E+00  0.7200E+02
  -3.130  0.0000E+00  0.0000E+00  0.7200E+02
  -3.120  0.0000E+00  0.0000E+00  0.7200E+02
  -3.110  0.0000E+00  0.0000E+00  0.7200E+02
  -3.100  0.0000E+00  0.0000E+00  0.7200E+02
  -3.090  0.0000E+00  0.0000E+00  0.7200E+02
  -3.080  0.0000E+00  0.0000E+00  0.7200E+02
  -3.070  0.0000E+00  0.0000E+00  0.7200E+02
  -3.060  0.0000E+00  0.0000E+00  0.7200E+02
  -3.050  0.0000E+00  0.0000E+00  0.7200E+02
  -3.040  0.0000E+00  0.0000E+00  0.7200E+02
  -3.030  0.0000E+00  0.0000E+00  0.7200E+02
  -3.020  0.0000E+00  0.0000E+00  0.7200E+02
  -3.010  0.0000E+00  0.0000E+00  0.7200E+02
  -3.000  0.0000E+00  0.0000E+00  0.7200E+02
  -2.990  0.0000E+00  0.0000E+00  0.7200E+02
  -2.980  0.0000E+00  0.0000E+00  0.7200E+02
  -2.970  0.0000E+00  0.0000E+00  0.7200E+02
  -2.960  0.0000E+00  0.0000E+00  0.7200E+02
  -2.950  0.0000E+00  0.0000E+00  0.7200E+02
  -2.940  0.0000E+00  0.0000E+00  0.7200E+02
  -2.930  0.0000E+00  0.0000E+00  0.7200E+02
  -2.920  0.0000E+00  0.0000E+00  0.7200E+02
  -2.910  0.0000E+00  0.0000E+00  0.7200E+02
  -2.900  0.0000E+00  0.0000E+00  0.7200E+02
  -2.890  0.0000E+00  0.0000E+00  0.7200E+02
  -2.880  0.0000E+00  0.0000E+00  0.7200E+02
  -2.870  0.0000E+00  0.0000E+00  0.7200E+02
  -2.860  0.0000E+00  0.0000E+00  0.7200E+02
  -2.850  0.0000E+00  0.0000E+00  0.7200E+02
  -2.840  0.0000E+00  0.0000E+00  0.7200E+02
  -2.830  0.0000E+00  0.0000E+00  0.7200E+02
  -2.820  0.0000E+00  0.0000E+00  0.7200E+02
  -2.810  0.0000E+00  0.0000E+00  0.7200E+02
  -2.800  0.0000E+00  0.0000E+00  0.7200E+02
  -2.790  0.0000E+00  0.0000E+00  0.7200E+02
  -2.780  0.0000E+00  0.0000E+00  0.7200E+02
  -2.770  0.0000E+00  0.0000E+00  0.7200E+02
  -2.760  0.0000E+00  0.0000E+00  0.7200E+02
  -2.750  0.0000E+00  0.0000E+00  0.7200E+02
  -2.740  0.0000E+00  0.0000E+00  0.7200E+02
  -2.730  0.0000E+00  0.0000E+00  0.7200E+02
  -2.720  0.0000E+00  0.0000E+00  0.7200E+02
  -2.710  0.0000E+00  0.0000E+00  0.7200E+02
  -2.700  0.0000E+00  0.0000E+00  0.7200E+02
  -2.690  0.0000E+00  0.0000E+00  0.7200E+02
  -2.680  0.0000E+00  0.0000E+00  0.7200E+02
  -2.670  0.0000E+00  0.0000E+00  0.7200E+02
  -2.660  0.0000E+00  0.0000E+00  0.7200E+02
  -2.650  0.0000E+00  0.0000E+00  0.7200E+02
  -2.640  0.0000E+00  0.0000E+00  0.7200E+02
  -2.630  0.0000E+00  0.0000E+00  0.7200E+02
  -2.620  0.0000E+00  0.0000E+00  0.7200E+02
  -2.610  0.0000E+00  0.0000E+00  0.7200E+02
  -2.600  0.0000E+00  0.0000E+00  0.7200E+02
  -2.590  0.0000E+00  0.0000E+00  0.7200E+02
  -2.580  0.0000E+00  0.0000E+00  0.7200E+02
  -2.570  0.0000E+00  0.0000E+00  0.7200E+02
  -2.560  0.0000E+00  0.0000E+00  0.7200E+02
  -2.550  0.0000E+00  0.0000E+00  0.7200E+02
  -2.540  0.0000E+00  0.0000E+00  0.7200E+02
  -2.530  0.0000E+00  0.0000E+00  0.7200E+02
  -2.520  0.0000E+00  0.0000E+00  0.7200E+02
  -2.510  0.0000E+00  0.0000E+00  0.7200E+02
  -2.500  0.0000E+00  0.0000E+00  0.7200E+02
  -2.490  0.0000E+00  0.0000E+00  0.7200E+02
  -2.480  0.0000E+00  0.0000E+00  0.7200E+02
  -2.470  0.0000E+00  0.0000E+00  0.7200E+02
  -2.460  0.0000E+00  0.0000E+00  0.7200E+02
  -2.450  0.0000E+00  0.0000E+00  0.7200E+02
  -2.440  0.0000E+00  0.0000E+00  0.7200E+02
  -2.430  0.0000E+00  0.0000E+00  0.7200E+02
  -2.420  0.0000E+00  0.0000E+00  0.7200E+02
  -2.410  0.0000E+00  0.0000E+00  0.7200E+02
  -2.400  0.0000E+00  0.0000E+00  0.7200E+02
  -2.390  0.0000E+00  0.0000E+00  0.7200E+02
  -2.380  0.0000E+00  0.0000E+00  0.7200E+02
  -2.370  0.0000E+00  0.0000E+00  0.7200E+02
  -2.360  0.0000E+00  0.0000E+00  0.7200E+02
  -2.350  0.0000E+00  0.0000E+00  0.7200E+02
  -2.340  0.0000E+00  0.0000E+00  0.7200E+02
  -2.330  0.0000E+00  0.0000E+00  0.7200E+02
  -2.320  0.0000E+00  0.0000E+00  0.7200E+02
  -2.310  0.0000E+00  0.0000E+00  0.7200E+02
  -2.300  0.0000E+00  0.0000E+00  0.7200E+02
  -2.290  0.0000E+00  0.0000E+00  0.7200E+02
  -2.280  0.0000E+00  0.0000E+00  0.7200E+02
  -2.270  0.0000E+00  0.0000E+00  0.7200E+02
  -2.260  0.0000E+00  0.0000E+00  0.7200E+02
  -2.250  0.0000E+00  0.0000E+00  0.7200E+02
  -2.240  0.0000E+00  0.0000E+00  0.7200E+02
  -2.230  0.0000E+00  0.0000E+00  0.7200E+02
  -2.220  0.0000E+00  0.0000E+00  0.7200E+02
  -2.210  0.0000E+00  0.0000E+00  0.7200E+02
  -2.200  0.0000E+00  0.0000E+00  0.7200E+02
  -2.190  0.0000E+00  0.0000E+00  0.7200E+02
  -2.180  0.0000E+00  0.0000E+00  0.7200E+02
  -2.170  0.0000E+00  0.0000E+00  0.7200E+02
  -2.160  0.0000E+00  0.0000E+00  0.7200E+02
  -2.150  0.0000E+00  0.0000E+00  0.7200E+02
  -2.140  0.0000E+00  0.0000E+00  0.7200E+02
  -2.130  0.0000E+00  0.0000E+00  0.7200E+02
  -2.120  0.0000E+00  0.0000E+00  0.7200E+02
  -2.110  0.0000E+00  0.0000E+00  0.7200E+02
  -2.100  0.0000E+00  0.0000E+00  0.7200E+02
  -2.090  0.0000E+00  0.0000E+00  0.7200E+02
  -2.080  0.0000E+00  0.0000E+00  0.7200E+02
  -2.070  0.0000E+00  0.0000E+00  0.7200E+02
  -2.060  0.0000E+00  0.0000E+00  0.7200E+02
  -2.050  0.0000E+00  0.0000E+00  0.7200E+02
  -2.040  0.0000E+00  0.0000E+00  0.7200E+02
  -2.030  0.0000E+00  0.0000E+00  0.7200E+02
  -2.020  0.0000E+00  0.0000E+00  0.7200E+02
  -2.010  0.0000E+00  0.0000E+00  0.7200E+02
  -2.000  0.0000E+00  0.0000E+00  0.7200E+02
  -1.990  0.0000E+00  0.0000E+00  0.7200E+02
  -1.980  0.0000E+00  0.0000E+00  0.7200E+02
  -1.970  0.0000E+00  0.0000E+00  0.7200E+02
  -1.960  0.0000E+00  0.0000E+00  0.7200E+02
  -1.950  0.0000E+00  0.0000E+00  0.7200E+02
  -1.940  0.0000E+00  0.0000E+00  0.7200E+02
  -1.930  0.0000E+00  0.0000E+00  0.7200E+02
  -1.920  0.0000E+00  0.0000E+00  0.7200E+02
  -1.910  0.0000E+00  0.0000E+00  0.7200E+02
  -1.900  0.0000E+00  0.0000E+00  0.7200E+02
  -1.890  0.0000E+00  0.0000E+00  0.7200E+02
  -1.880  0.0000E+00  0.0000E+00  0.7200E+02
  -1.870  0.0000E+00  0.0000E+00  0.7200E+02
  -1.860  0.0000E+00  0.0000E+00  0.7200E+02
  -1.850  0.0000E+00  0.0000E+00  0.7200E+02
  -1.840  0.0000E+00  0.0000E+00  0.7200E+02
  -1.830  0.0000E+00  0.0000E+00  0.7200E+02
  -1.820  0.0000E+00  0.0000E+00  0.7200E+02
  -1.810  0.0000E+00  0.0000E+00  0.7200E+02
  -1.800  0.0000E+00  0.0000E+00  0.7200E+02
  -1.790  0.0000E+00  0.0000E+00  0.7200E+02
  -1.780  0.0000E+00  0.0000E+00  0.7200E+02
  -1.770  0.0000E+00  0.0000E+00  0.7200E+02
  -1.760  0.0000E+00  0.0000E+00  0.7200E+02
  -1.750  0.0000E+00  0.0000E+00  0.7200E+02
  -1.740  0.0000E+00  0.0000E+00  0.7200E+02
  -1.730  0.0000E+00  0.0000E+00  0.7200E+02
  -1.720  0.0000E+00  0.0000E+00  0.7200E+02
  -1.710  0.0000E+00  0.0000E+00  0.7200E+02
  -1.700  0.0000E+00  0.0000E+00  0.7200E+02
  -1.690  0.0000E+00  0.0000E+00  0.7200E+02
  -1.680  0.0000E+00  0.0000E+00  0.7200E+02
  -1.670  0.0000E+00  0.0000E+00  0.7200E+02
  -1.660  0.0000E+00  0.0000E+00  0.7200E+02
  -1.650  0.0000E+00  0.0000E+00  0.7200E+02
  -1.640  0.0000E+00  0.0000E+00  0.7200E+02
  -1.630  0.0000E+00  0.0000E+00  0.7200E+02
  -1.620  0.0000E+00  0.0000E+00  0.7200E+02
  -1.610  0.0000E+00  0.0000E+00  0.7200E+02
  -1.600  0.0000E+00  0.0000E+00  0.7200E+02
  -1.590  0.0000E+00  0.0000E+00  0.7200E+02
  -1.580  0.0000E+00  0.0000E+00  0.7200E+02
  -1.570  0.0000E+00  0.0000E+00  0.7200E+02
  -1.560  0.0000E+00  0.0000E+00  0.7200E+02
  -1.550  0.0000E+00  0.0000E+00  0.7200E+02
  -1.540  0.0000E+00  0.0000E+00  0.7200E+02
  -1.530  0.0000E+00  0.0000E+00  0.7200E+02
  -1.520  0.0000E+00  0.0000E+00  0.7200E+02
  -1.510  0.0000E+00  0.0000E+00  0.7200E+02
  -1.500  0.0000E+00  0.0000E+00  0.7200E+02
  -1.490  0.0000E+00  0.0000E+00  0.7200E+02
  -1.480  0.0000E+00  0.0000E+00  0.7200E+02
  -1.470  0.0000E+00  0.0000E+00  0.7200E+02
  -1.460  0.0000E+00  0.0000E+00  0.7200E+02
  -1.450  0.0000E+00  0.0000E+00  0.7200E+02
  -1.440  0.0000E+00  0.0000E+00  0.7200E+02
  -1.430  0.0000E+00  0.0000E+00  0.7200E+02
  -1.420  0.0000E+00  0.0000E+00  0.7200E+02
  -1.410  0.0000E+00  0.0000E+00  0.7200E+02
  -1.400  0.0000E+00  0.0000E+00  0.7200E+02
  -1.390  0.0000E+00  0.0000E+00  0.7200E+02
  -1.380  0.0000E+00  0.0000E+00  0.7200E+02
  -1.370  0.0000E+00  0.0000E+00  0.7200E+02
  -1.360  0.0000E+00  0.0000E+00  0.7200E+02
  -1.350  0.0000E+00  0.0000E+00  0.7200E+02
  -1.340  0.0000E+00  0.0000E+00  0.7200E+02
  -1.330  0.0000E+00  0.0000E+00  0.7200E+02
  -1.320  0.0000E+00  0.0000E+00  0.7200E+02
  -1.310  0.0000E+00  0.0000E+00  0.7200E+02
  -1.300  0.0000E+00  0.0000E+00  0.7200E+02
  -1.290  0.0000E+00  0.0000E+00  0.7200E+02
  -1.280  0.0000E+00  0.0000E+00  0.7200E+02
  -1.270  0.0000E+00  0.0000E+00  0.7200E+02
  -1.260  0.0000E+00  0.0000E+00  0.7200E+02
  -1.250  0.0000E+00  0.0000E+00  0.7200E+02
  -1.240  0.0000E+00  0.0000E+00  0.7200E+02
  -1.230  0.0000E+00  0.0000E+00  0.7200E+02
  -1.220  0.0000E+00  0.0000E+00  0.7200E+02
  -1.210  0.0000E+00  0.0000E+00  0.7200E+02
  -1.200  0.0000E+00  0.0000E+00  0.7200E+02
  -1.190  0.0000E+00  0.0000E+00  0.7200E+02
  -1.180  0.0000E+00  0.0000E+00  0.7200E+02
  -1.170  0.0000E+00  0.0000E+00  0.7200E+02
  -1.160  0.0000E+00  0.0000E+00  0.7200E+02
  -1.150  0.0000E+00  0.0000E+00  0.7200E+02
  -1.140  0.0000E+00  0.0000E+00  0.7200E+02
  -1.130  0.0000E+00  0.0000E+00  0.7200E+02
  -1.120  0.0000E+00  0.0000E+00  0.7200E+02
  -1.110  0.0000E+00  0.0000E+00  0.7200E+02
  -1.100  0.0000E+00  0.0000E+00  0.7200E+02
  -1.090  0.0000E+00  0.0000E+00  0.7200E+02
  -1.080  0.0000E+00  0.0000E+00  0.7200E+02
  -1.070  0.0000E+00  0.0000E+00  0.7200E+02
  -1.060  0.0000E+00  0.0000E+00  0.7200E+02
  -1.050  0.0000E+00  0.0000E+00  0.7200E+02
  -1.040  0.0000E+00  0.0000E+00  0.7200E+02
  -1.030  0.0000E+00  0.0000E+00  0.7200E+02
  -1.020  0.0000E+00  0.0000E+00  0.7200E+02
  -1.010  0.0000E+00  0.0000E+00  0.7200E+02
  -1.000  0.0000E+00  0.0000E+00  0.7200E+02
  -0.990  0.0000E+00  0.0000E+00  0.7200E+02
  -0.980  0.0000E+00  0.0000E+00  0.7200E+02
  -0.970  0.0000E+00  0.0000E+00  0.7200E+02
  -0.960  0.0000E+00  0.0000E+00  0.7200E+02
  -0.950  0.0000E+00  0.0000E+00  0.7200E+02
  -0.940  0.0000E+00  0.0000E+00  0.7200E+02
  -0.930  0.0000E+00  0.0000E+00  0.7200E+02
  -0.920  0.0000E+00  0.0000E+00  0.7200E+02
  -0.910  0.0000E+00  0.0000E+00  0.7200E+02
  -0.900  0.0000E+00  0.0000E+00  0.7200E+02
  -0.890  0.0000E+00  0.0000E+00  0.7200E+02
  -0.880  0.0000E+00  0.0000E+00  0.7200E+02
  -0.870  0.0000E+00  0.0000E+00  0.7200E+02
  -0.860  0.0000E+00  0.0000E+00  0.7200E+02
  -0.850  0.0000E+00  0.0000E+00  0.7200E+02
  -0.840  0.0000E+00  0.0000E+00  0.7200E+02
  -0.830  0.0000E+00  0.0000E+00  0.7200E+02
  -0.820  0.0000E+00  0.0000E+00  0.7200E+02
  -0.810  0.0000E+00  0.0000E+00  0.7200E+02
  -0.800  0.0000E+00  0.0000E+00  0.7200E+02
  -0.790  0.0000E+00  0.0000E+00  0.7200E+02
  -0.780  0.0000E+00  0.0000E+00  0.7200E+02
  -0.770  0.0000E+00  0.0000E+00  0.7200E+02
  -0.760  0.0000E+00  0.0000E+00  0.7200E+02
  -0.750  0.0000E+00  0.0000E+00  0.7200E+02
  -0.740  0.0000E+00  0.0000E+00  0.7200E+02
  -0.730  0.0000E+00  0.0000E+00  0.7200E+02
  -0.720  0.0000E+00  0.0000E+00  0.7200E+02
  -0.710  0.0000E+00  0.0000E+00  0.7200E+02
  -0.700  0.6771E+00  0.0000E+00  0.7200E+02
  -0.690  0.2395E+02  0.1632E+02  0.7217E+02
  -0.680  0.7604E+02  0.6287E+02  0.7300E+02
  -0.670  0.1096E+03  0.9789E+02  0.7476E+02
  -0.660  0.1237E+03  0.1158E+03  0.7703E+02
  -0.650  0.1495E+03  0.1324E+03  0.7959E+02
  -0.640  0.1759E+03  0.1797E+03  0.8287E+02
  -0.630  0.1832E+03  0.1884E+03  0.8653E+02
  -0.620  0.2000E+03  0.2135E+03  0.9060E+02
  -0.610  0.1693E+03  0.1759E+03  0.9443E+02
  -0.600  0.1625E+03  0.1358E+03  0.9741E+02
  -0.590  0.2151E+03  0.2958E+03  0.1015E+03
  -0.580  0.2850E+03  0.2570E+03  0.1061E+03
  -0.570  0.3487E+03  0.3919E+03  0.1128E+03
  -0.560  0.3880E+03  0.3762E+03  0.1201E+03
  -0.550  0.6140E+03  0.4710E+03  0.1288E+03
  -0.540  0.6996E+03  0.7369E+03  0.1420E+03
  -0.530  0.3897E+03  0.4177E+03  0.1533E+03
  -0.520  0.3093E+03  0.2792E+03  0.1607E+03
  -0.510  0.2401E+03  0.2556E+03  0.1663E+03
  -0.500  0.2045E+03  0.1831E+03  0.1708E+03
  -0.490  0.2326E+03  0.1960E+03  0.1748E+03
  -0.480  0.2231E+03  0.1953E+03  0.1791E+03
  -0.470  0.1437E+03  0.2291E+03  0.1834E+03
  -0.460  0.2261E+03  0.2132E+03  0.1871E+03
  -0.450  0.2248E+03  0.2402E+03  0.1918E+03
  -0.440  0.1376E+03  0.1446E+03  0.1955E+03
  -0.430  0.2383E+03  0.1956E+03  0.1987E+03
  -0.420  0.1925E+03  0.1609E+03  0.2032E+03
  -0.410  0.1304E+03  0.1549E+03  0.2063E+03
  -0.400  0.1724E+03  0.1531E+03  0.2090E+03
  -0.390  0.1548E+03  0.1157E+03  0.2119E+03
  -0.380  0.1854E+03  0.1763E+03  0.2154E+03
  -0.370  0.1313E+03  0.1578E+03  0.2188E+03
  -0.360  0.1322E+03  0.1273E+03  0.2214E+03
  -0.350  0.1376E+03  0.1447E+03  0.2242E+03
  -0.340  0.1238E+03  0.1245E+03  0.2268E+03
  -0.330  0.7996E+02  0.9528E+02  0.2290E+03
  -0.320  0.7774E+02  0.7022E+02  0.2305E+03
  -0.310  0.1109E+03  0.8393E+02  0.2322E+03
  -0.300  0.1240E+03  0.1284E+03  0.2346E+03
  -0.290  0.1268E+03  0.1240E+03  0.2371E+03
  -0.280  0.1147E+03  0.1136E+03  0.2396E+03
  -0.270  0.1274E+03  0.1182E+03  0.2419E+03
  -0.260  0.1184E+03  0.1090E+03  0.2443E+03
  -0.250  0.1413E+03  0.1439E+03  0.2469E+03
  -0.240  0.1376E+03  0.1343E+03  0.2497E+03
  -0.230  0.1893E+03  0.1670E+03  0.2529E+03
  -0.220  0.1170E+03  0.1285E+03  0.2560E+03
  -0.210  0.1521E+03  0.1490E+03  0.2583E+03
  -0.200  0.4222E+03  0.3844E+03  0.2641E+03
  -0.190  0.3836E+03  0.3946E+03  0.2726E+03
  -0.180  0.6037E+03  0.4431E+03  0.2805E+03
  -0.170  0.7059E+03  0.6437E+03  0.2922E+03
  -0.160  0.6191E+03  0.6121E+03  0.3049E+03
  -0.150  0.5853E+03  0.4543E+03  0.3167E+03
  -0.140  0.5137E+03  0.4103E+03  0.3272E+03
  -0.130  0.2544E+03  0.5576E+03  0.3377E+03
  -0.120  0.2461E+03  0.2197E+03  0.3427E+03
  -0.110  0.1103E+03  0.1312E+03  0.3468E+03
  -0.100  0.8040E+02  0.8411E+02  0.3487E+03
  -0.090  0.7115E+02  0.7036E+02  0.3502E+03
  -0.080  0.8160E+02  0.7360E+02  0.3516E+03
  -0.070  0.7906E+02  0.8441E+02  0.3533E+03
  -0.060  0.7749E+02  0.7275E+02  0.3548E+03
  -0.050  0.7217E+02  0.7347E+02  0.3563E+03
  -0.040  0.5801E+02  0.6622E+02  0.3577E+03
  -0.030  0.4435E+02  0.5015E+02  0.3587E+03
  -0.020  0.4748E+02  0.4214E+02  0.3596E+03
  -0.010  0.7448E+02  0.6548E+02  0.3607E+03
   0.000  0.8455E+02  0.8480E+02  0.3624E+03
   0.010  0.4715E+02  0.8947E+02  0.3638E+03
   0.020  0.4632E+02  0.3459E+02  0.3647E+03
   0.030  0.7289E+02  0.7133E+02  0.3659E+03
   0.040  0.6892E+02  0.8282E+02  0.3674E+03
   0.050  0.8985E+02  0.8566E+02  0.3690E+03
   0.060  0.7130E+02  0.8122E+02  0.3708E+03
   0.070  0.5451E+02  0.5934E+02  0.3720E+03
   0.080  0.4263E+02  0.4687E+02  0.3731E+03
   0.090  0.4268E+02  0.3721E+02  0.3739E+03
   0.100  0.6100E+02  0.5818E+02  0.3749E+03
   0.110  0.7330E+02  0.6922E+02  0.3762E+03
   0.120  0.9101E+02  0.9584E+02  0.3780E+03
   0.130  0.5555E+02  0.7033E+02  0.3796E+03
   0.140  0.3372E+02  0.3936E+02  0.3805E+03
   0.150  0.1998E+02  0.2310E+02  0.3811E+03
   0.160  0.1368E+02  0.1469E+02  0.3814E+03
   0.170  0.1626E+02  0.1186E+02  0.3817E+03
   0.180  0.4885E+01  0.5787E+01  0.3819E+03
   0.190  0.1818E+01  0.2359E+01  0.3820E+03
   0.200  0.2501E+00  0.4549E+00  0.3820E+03
   0.210  0.0000E+00  0.1758E-02  0.3820E+03
   0.220  0.0000E+00  0.0000E+00  0.3820E+03
   0.230  0.0000E+00  0.0000E+00  0.3820E+03
   0.240  0.0000E+00  0.0000E+00  0.3820E+03
   0.250  0.0000E+00  0.0000E+00  0.3820E+03
   0.260  0.0000E+00  0.0000E+00  0.3820E+03
   0.270  0.0000E+00  0.0000E+00  0.3820E+03
   0.280  0.0000E+00  0.0000E+00  0.3820E+03
   0.290  0.0000E+00  0.0000E+00  0.3820E+03
   0.300  0.0000E+00  0.0000E+00  0.3820E+03
   0.310  0.0000E+00  0.0000E+00  0.3820E+03
   0.320  0.0000E+00  0.0000E+00  0.3820E+03
   0.330  0.0000E+00  0.0000E+00  0.3820E+03
   0.340  0.0000E+00  0.0000E+00  0.3820E+03
   0.350  0.4859E-06  0.0000E+00  0.3820E+03
   0.360  0.7847E-03  0.6050E-05  0.3820E+03
   0.370  0.7155E-02  0.1070E-02  0.3820E+03
   0.380  0.2490E-01  0.8120E-02  0.3820E+03
   0.390  0.5467E-01  0.2654E-01  0.3820E+03
   0.400  0.9714E-01  0.5677E-01  0.3820E+03
   0.410  0.1528E+00  0.9909E-01  0.3820E+03
   0.420  0.2217E+00  0.1543E+00  0.3820E+03
   0.430  0.3038E+00  0.2226E+00  0.3820E+03
   0.440  0.3991E+00  0.3040E+00  0.3820E+03
   0.450  0.5076E+00  0.3984E+00  0.3820E+03
   0.460  0.6293E+00  0.5059E+00  0.3820E+03
   0.470  0.7642E+00  0.6264E+00  0.3820E+03
   0.480  0.9159E+00  0.7600E+00  0.3821E+03
   0.490  0.1197E+01  0.9115E+00  0.3821E+03
   0.500  0.1751E+01  0.1201E+01  0.3821E+03
   0.510  0.2527E+01  0.1745E+01  0.3821E+03
   0.520  0.3424E+01  0.2470E+01  0.3822E+03
   0.530  0.4034E+01  0.3376E+01  0.3823E+03
   0.540  0.4351E+01  0.4010E+01  0.3823E+03
   0.550  0.4381E+01  0.4343E+01  0.3824E+03
   0.560  0.4124E+01  0.4380E+01  0.3825E+03
   0.570  0.3694E+01  0.4122E+01  0.3826E+03
   0.580  0.3662E+01  0.3682E+01  0.3827E+03
   0.590  0.3899E+01  0.3640E+01  0.3827E+03
   0.600  0.4142E+01  0.3875E+01  0.3828E+03
   0.610  0.4401E+01  0.4114E+01  0.3829E+03
   0.620  0.4675E+01  0.4370E+01  0.3830E+03
   0.630  0.4963E+01  0.4640E+01  0.3831E+03
   0.640  0.5268E+01  0.4924E+01  0.3832E+03
   0.650  0.5588E+01  0.5226E+01  0.3833E+03
   0.660  0.5924E+01  0.5543E+01  0.3834E+03
   0.670  0.6270E+01  0.5876E+01  0.3835E+03
   0.680  0.6590E+01  0.6218E+01  0.3836E+03
   0.690  0.6993E+01  0.6536E+01  0.3838E+03
   0.700  0.7848E+01  0.6931E+01  0.3839E+03
   0.710  0.9220E+01  0.7823E+01  0.3841E+03
   0.720  0.1078E+02  0.9259E+01  0.3843E+03
   0.730  0.1155E+02  0.1063E+02  0.3845E+03
   0.740  0.1233E+02  0.1140E+02  0.3847E+03
   0.750  0.1263E+02  0.1218E+02  0.3849E+03
   0.760  0.1264E+02  0.1258E+02  0.3852E+03
   0.770  0.1310E+02  0.1248E+02  0.3854E+03
   0.780  0.1325E+02  0.1286E+02  0.3857E+03
   0.790  0.1260E+02  0.1302E+02  0.3860E+03
   0.800  0.1261E+02  0.1223E+02  0.3862E+03
   0.810  0.1281E+02  0.1236E+02  0.3865E+03
   0.820  0.1298E+02  0.1260E+02  0.3867E+03
   0.830  0.1311E+02  0.1281E+02  0.3870E+03
   0.840  0.1321E+02  0.1298E+02  0.3872E+03
   0.850  0.1329E+02  0.1311E+02  0.3875E+03
   0.860  0.1336E+02  0.1322E+02  0.3878E+03
   0.870  0.1340E+02  0.1330E+02  0.3880E+03
   0.880  0.1343E+02  0.1337E+02  0.3883E+03
   0.890  0.1344E+02  0.1342E+02  0.3886E+03
   0.900  0.1343E+02  0.1346E+02  0.3888E+03
   0.910  0.1398E+02  0.1356E+02  0.3891E+03
   0.920  0.1573E+02  0.1465E+02  0.3894E+03
   0.930  0.1768E+02  0.1607E+02  0.3897E+03
   0.940  0.1897E+02  0.1774E+02  0.3901E+03
   0.950  0.1980E+02  0.1887E+02  0.3905E+03
   0.960  0.1964E+02  0.1959E+02  0.3908E+03
   0.970  0.2013E+02  0.1987E+02  0.3912E+03
   0.980  0.2314E+02  0.1957E+02  0.3916E+03
   0.990  0.2845E+02  0.2162E+02  0.3921E+03
   1.000  0.3189E+02  0.2722E+02  0.3926E+03
   1.010  0.3220E+02  0.2975E+02  0.3933E+03
   1.020  0.3294E+02  0.3308E+02  0.3939E+03
   1.030  0.3407E+02  0.3455E+02  0.3946E+03
   1.040  0.4501E+02  0.3792E+02  0.3953E+03
   1.050  0.7409E+02  0.4770E+02  0.3963E+03
   1.060  0.5492E+02  0.6977E+02  0.3975E+03
   1.070  0.6401E+02  0.5790E+02  0.3987E+03
   1.080  0.6996E+02  0.6606E+02  0.4000E+03
   1.090  0.5870E+02  0.7869E+02  0.4014E+03
   1.100  0.4689E+02  0.4323E+02  0.4025E+03
   1.110  0.3828E+02  0.4109E+02  0.4034E+03
   1.120  0.3443E+02  0.3819E+02  0.4041E+03
   1.130  0.2999E+02  0.3298E+02  0.4048E+03
   1.140  0.1568E+02  0.3035E+02  0.4054E+03
   1.150  0.5812E+01  0.2676E+02  0.4058E+03
   1.160  0.9238E+01  0.1114E+02  0.4061E+03
   1.170  0.1635E+02  0.9717E+01  0.4063E+03
   1.180  0.2555E+02  0.1649E+02  0.4067E+03
   1.190  0.3230E+02  0.2402E+02  0.4072E+03
   1.200  0.3437E+02  0.2869E+02  0.4078E+03
   1.210  0.3225E+02  0.3001E+02  0.4084E+03
   1.220  0.2996E+02  0.2848E+02  0.4090E+03
   1.230  0.3085E+02  0.2629E+02  0.4096E+03
   1.240  0.3124E+02  0.2709E+02  0.4101E+03
   1.250  0.3077E+02  0.2836E+02  0.4107E+03
   1.260  0.2923E+02  0.2907E+02  0.4113E+03
   1.270  0.2697E+02  0.2891E+02  0.4119E+03
   1.280  0.2420E+02  0.2795E+02  0.4124E+03
   1.290  0.2344E+02  0.2614E+02  0.4129E+03
   1.300  0.2344E+02  0.2407E+02  0.4134E+03
   1.310  0.2396E+02  0.2217E+02  0.4139E+03
   1.320  0.2500E+02  0.2102E+02  0.4144E+03
   1.330  0.2680E+02  0.1981E+02  0.4148E+03
   1.340  0.2497E+02  0.2000E+02  0.4153E+03
   1.350  0.2087E+02  0.2652E+02  0.4157E+03
   1.360  0.1755E+02  0.2400E+02  0.4162E+03
   1.370  0.1551E+02  0.2399E+02  0.4166E+03
   1.380  0.1413E+02  0.2098E+02  0.4170E+03
   1.390  0.1314E+02  0.1817E+02  0.4173E+03
   1.400  0.1244E+02  0.1563E+02  0.4176E+03
   1.410  0.1193E+02  0.1385E+02  0.4179E+03
   1.420  0.1176E+02  0.1269E+02  0.4181E+03
   1.430  0.1195E+02  0.1207E+02  0.4183E+03
   1.440  0.1222E+02  0.1188E+02  0.4186E+03
   1.450  0.1294E+02  0.1197E+02  0.4188E+03
   1.460  0.1404E+02  0.1247E+02  0.4191E+03
   1.470  0.1504E+02  0.1318E+02  0.4194E+03
   1.480  0.1581E+02  0.1378E+02  0.4197E+03
   1.490  0.1636E+02  0.1424E+02  0.4200E+03
   1.500  0.1659E+02  0.1456E+02  0.4203E+03
   1.510  0.1650E+02  0.1474E+02  0.4206E+03
   1.520  0.1609E+02  0.1477E+02  0.4209E+03
   1.530  0.1532E+02  0.1466E+02  0.4212E+03
   1.540  0.1420E+02  0.1444E+02  0.4215E+03
   1.550  0.1300E+02  0.1411E+02  0.4218E+03
   1.560  0.1222E+02  0.1363E+02  0.4220E+03
   1.570  0.1174E+02  0.1298E+02  0.4223E+03
   1.580  0.1170E+02  0.1217E+02  0.4225E+03
   1.590  0.1175E+02  0.1166E+02  0.4228E+03
   1.600  0.1175E+02  0.1140E+02  0.4230E+03
   1.610  0.1172E+02  0.1122E+02  0.4232E+03
   1.620  0.1165E+02  0.1105E+02  0.4235E+03
   1.630  0.1230E+02  0.1104E+02  0.4237E+03
   1.640  0.1085E+02  0.1104E+02  0.4239E+03
   1.650  0.1110E+02  0.1102E+02  0.4241E+03
   1.660  0.1026E+02  0.1139E+02  0.4244E+03
   1.670  0.9188E+01  0.1306E+02  0.4246E+03
   1.680  0.8314E+01  0.1250E+02  0.4248E+03
   1.690  0.8128E+01  0.1086E+02  0.4250E+03
   1.700  0.8118E+01  0.9866E+01  0.4252E+03
   1.710  0.8123E+01  0.9364E+01  0.4254E+03
   1.720  0.8357E+01  0.9320E+01  0.4255E+03
   1.730  0.9682E+01  0.9275E+01  0.4257E+03
   1.740  0.9100E+01  0.9071E+01  0.4259E+03
   1.750  0.6283E+01  0.9198E+01  0.4261E+03
   1.760  0.4958E+01  0.1020E+02  0.4262E+03
   1.770  0.5251E+01  0.6142E+01  0.4264E+03
   1.780  0.5616E+01  0.5002E+01  0.4265E+03
   1.790  0.6025E+01  0.5236E+01  0.4266E+03
   1.800  0.6515E+01  0.5495E+01  0.4267E+03
   1.810  0.7087E+01  0.5807E+01  0.4268E+03
   1.820  0.7912E+01  0.6189E+01  0.4270E+03
   1.830  0.8785E+01  0.6658E+01  0.4271E+03
   1.840  0.9587E+01  0.7120E+01  0.4273E+03
   1.850  0.1030E+02  0.7553E+01  0.4274E+03
   1.860  0.1110E+02  0.7956E+01  0.4276E+03
   1.870  0.1176E+02  0.8329E+01  0.4278E+03
   1.880  0.1218E+02  0.8678E+01  0.4280E+03
   1.890  0.1237E+02  0.9030E+01  0.4282E+03
   1.900  0.1234E+02  0.9493E+01  0.4284E+03
   1.910  0.1209E+02  0.9951E+01  0.4287E+03
   1.920  0.1174E+02  0.1026E+02  0.4289E+03
   1.930  0.1135E+02  0.1043E+02  0.4291E+03
   1.940  0.1087E+02  0.1044E+02  0.4293E+03
   1.950  0.1035E+02  0.1030E+02  0.4295E+03
   1.960  0.9864E+01  0.1002E+02  0.4297E+03
   1.970  0.9461E+01  0.9613E+01  0.4299E+03
   1.980  0.9107E+01  0.9186E+01  0.4301E+03
   1.990  0.8818E+01  0.8868E+01  0.4303E+03
   2.000  0.8554E+01  0.8571E+01  0.4305E+03
   2.010  0.8424E+01  0.8309E+01  0.4306E+03
   2.020  0.8333E+01  0.8083E+01  0.4308E+03
   2.030  0.8243E+01  0.7899E+01  0.4310E+03
   2.040  0.8147E+01  0.7761E+01  0.4311E+03
   2.050  0.8129E+01  0.7650E+01  0.4313E+03
   2.060  0.8313E+01  0.7549E+01  0.4314E+03
   2.070  0.8614E+01  0.7482E+01  0.4316E+03
   2.080  0.8730E+01  0.7444E+01  0.4318E+03
   2.090  0.8630E+01  0.7437E+01  0.4319E+03
   2.100  0.8310E+01  0.7458E+01  0.4321E+03
   2.110  0.7773E+01  0.7506E+01  0.4322E+03
   2.120  0.7060E+01  0.7562E+01  0.4324E+03
   2.130  0.6242E+01  0.7607E+01  0.4325E+03
   2.140  0.5591E+01  0.7665E+01  0.4327E+03
   2.150  0.5601E+01  0.7749E+01  0.4328E+03
   2.160  0.5697E+01  0.7776E+01  0.4329E+03
   2.170  0.5384E+01  0.7747E+01  0.4331E+03
   2.180  0.4952E+01  0.7665E+01  0.4332E+03
   2.190  0.5934E+01  0.7505E+01  0.4333E+03
   2.200  0.7592E+01  0.7241E+01  0.4335E+03
   2.210  0.7292E+01  0.6595E+01  0.4336E+03
   2.220  0.7383E+01  0.6156E+01  0.4337E+03
   2.230  0.7745E+01  0.7919E+01  0.4339E+03
   2.240  0.8026E+01  0.6645E+01  0.4340E+03
   2.250  0.8319E+01  0.6128E+01  0.4342E+03
   2.260  0.8586E+01  0.6089E+01  0.4343E+03
   2.270  0.8776E+01  0.6127E+01  0.4345E+03
   2.280  0.8874E+01  0.6139E+01  0.4346E+03
   2.290  0.8839E+01  0.6159E+01  0.4348E+03
   2.300  0.8668E+01  0.6188E+01  0.4349E+03
   2.310  0.8431E+01  0.6212E+01  0.4351E+03
   2.320  0.8110E+01  0.6228E+01  0.4352E+03
   2.330  0.7667E+01  0.6216E+01  0.4354E+03
   2.340  0.7183E+01  0.6193E+01  0.4355E+03
   2.350  0.6989E+01  0.6218E+01  0.4356E+03
   2.360  0.6931E+01  0.6279E+01  0.4358E+03
   2.370  0.6861E+01  0.6323E+01  0.4359E+03
   2.380  0.6757E+01  0.6353E+01  0.4360E+03
   2.390  0.6612E+01  0.6367E+01  0.4362E+03
   2.400  0.6433E+01  0.6366E+01  0.4363E+03
   2.410  0.6219E+01  0.6349E+01  0.4364E+03
   2.420  0.5970E+01  0.6317E+01  0.4365E+03
   2.430  0.5802E+01  0.6266E+01  0.4367E+03
   2.440  0.6531E+01  0.6201E+01  0.4368E+03
   2.450  0.6922E+01  0.6135E+01  0.4369E+03
   2.460  0.7237E+01  0.6515E+01  0.4370E+03
   2.470  0.7486E+01  0.7278E+01  0.4372E+03
   2.480  0.7070E+01  0.7742E+01  0.4373E+03
   2.490  0.8756E+01  0.7987E+01  0.4375E+03
   2.500  0.8045E+01  0.8184E+01  0.4377E+03
   2.510  0.8517E+01  0.8554E+01  0.4378E+03
   2.520  0.9494E+01  0.8960E+01  0.4380E+03
   2.530  0.1077E+02  0.9373E+01  0.4382E+03
   2.540  0.1249E+02  0.9857E+01  0.4384E+03
   2.550  0.1408E+02  0.1039E+02  0.4386E+03
   2.560  0.1554E+02  0.1078E+02  0.4389E+03
   2.570  0.1692E+02  0.1119E+02  0.4392E+03
   2.580  0.1942E+02  0.1159E+02  0.4395E+03
   2.590  0.2054E+02  0.1202E+02  0.4398E+03
   2.600  0.1974E+02  0.1246E+02  0.4401E+03
   2.610  0.2169E+02  0.1286E+02  0.4404E+03
   2.620  0.2342E+02  0.1324E+02  0.4408E+03
   2.630  0.2178E+02  0.1414E+02  0.4412E+03
   2.640  0.2534E+02  0.1503E+02  0.4415E+03
   2.650  0.2758E+02  0.1589E+02  0.4419E+03
   2.660  0.2697E+02  0.1641E+02  0.4424E+03
   2.670  0.2615E+02  0.1752E+02  0.4428E+03
   2.680  0.2580E+02  0.1964E+02  0.4433E+03
   2.690  0.2423E+02  0.2230E+02  0.4437E+03
   2.700  0.2184E+02  0.2489E+02  0.4442E+03
   2.710  0.2148E+02  0.2661E+02  0.4447E+03
   2.720  0.2284E+02  0.2702E+02  0.4451E+03
   2.730  0.2716E+02  0.2904E+02  0.4457E+03
   2.740  0.2993E+02  0.3207E+02  0.4463E+03
   2.750  0.3375E+02  0.3486E+02  0.4469E+03
   2.760  0.3263E+02  0.4358E+02  0.4477E+03
   2.770  0.2731E+02  0.4339E+02  0.4484E+03
   2.780  0.2401E+02  0.2643E+02  0.4490E+03
   2.790  0.2555E+02  0.1802E+02  0.4495E+03
   2.800  0.2838E+02  0.1727E+02  0.4499E+03
   2.810  0.2856E+02  0.1616E+02  0.4504E+03
   2.820  0.2420E+02  0.1512E+02  0.4508E+03
   2.830  0.2670E+02  0.1412E+02  0.4512E+03
   2.840  0.1445E+02  0.1564E+02  0.4515E+03
   2.850  0.1444E+02  0.4043E+02  0.4519E+03
   2.860  0.1730E+02  0.3017E+02  0.4524E+03
   2.870  0.2170E+02  0.2591E+02  0.4529E+03
   2.880  0.2909E+02  0.2396E+02  0.4534E+03
   2.890  0.1654E+02  0.1836E+02  0.4539E+03
   2.900  0.2244E+02  0.1726E+02  0.4542E+03
   2.910  0.2555E+02  0.1903E+02  0.4547E+03
   2.920  0.2985E+02  0.1905E+02  0.4551E+03
   2.930  0.3050E+02  0.1936E+02  0.4556E+03
   2.940  0.2818E+02  0.1849E+02  0.4561E+03
   2.950  0.1754E+02  0.1787E+02  0.4565E+03
   2.960  0.1664E+02  0.1893E+02  0.4569E+03
   2.970  0.1614E+02  0.2080E+02  0.4572E+03
   2.980  0.1697E+02  0.2311E+02  0.4576E+03
   2.990  0.1735E+02  0.2501E+02  0.4580E+03
   3.000  0.1848E+02  0.2558E+02  0.4585E+03
   3.010  0.1824E+02  0.2572E+02  0.4589E+03
   3.020  0.1734E+02  0.2570E+02  0.4594E+03
   3.030  0.1631E+02  0.2533E+02  0.4598E+03
   3.040  0.1595E+02  0.2505E+02  0.4602E+03
   3.050  0.1594E+02  0.2516E+02  0.4606E+03
   3.060  0.1597E+02  0.2444E+02  0.4610E+03
   3.070  0.1643E+02  0.2422E+02  0.4614E+03
   3.080  0.1801E+02  0.2356E+02  0.4618E+03
   3.090  0.1916E+02  0.2399E+02  0.4623E+03
   3.100  0.2148E+02  0.2499E+02  0.4627E+03
   3.110  0.2227E+02  0.2568E+02  0.4632E+03
   3.120  0.2548E+02  0.2656E+02  0.4637E+03
   3.130  0.2406E+02  0.2541E+02  0.4642E+03
   3.140  0.2551E+02  0.2110E+02  0.4647E+03
   3.150  0.2500E+02  0.1403E+02  0.4651E+03
   3.160  0.2636E+02  0.1255E+02  0.4655E+03
   3.170  0.2750E+02  0.1346E+02  0.4659E+03
   3.180  0.2847E+02  0.1469E+02  0.4663E+03
   3.190  0.2873E+02  0.1545E+02  0.4667E+03
   3.200  0.2895E+02  0.1573E+02  0.4672E+03
   3.210  0.3257E+02  0.1557E+02  0.4676E+03
   3.220  0.3341E+02  0.1531E+02  0.4681E+03
   3.230  0.3164E+02  0.1562E+02  0.4686E+03
   3.240  0.2986E+02  0.1606E+02  0.4691E+03
   3.250  0.2811E+02  0.1838E+02  0.4695E+03
   3.260  0.2553E+02  0.2351E+02  0.4700E+03
   3.270  0.2349E+02  0.2653E+02  0.4705E+03
   3.280  0.2437E+02  0.3146E+02  0.4710E+03
   3.290  0.2575E+02  0.3571E+02  0.4716E+03
   3.300  0.2721E+02  0.3795E+02  0.4723E+03
   3.310  0.2725E+02  0.4021E+02  0.4729E+03
   3.320  0.2695E+02  0.4280E+02  0.4736E+03
   3.330  0.2444E+02  0.3722E+02  0.4742E+03
   3.340  0.2378E+02  0.3403E+02  0.4749E+03
   3.350  0.2388E+02  0.2987E+02  0.4754E+03
   3.360  0.2470E+02  0.2887E+02  0.4759E+03
   3.370  0.2584E+02  0.2978E+02  0.4765E+03
   3.380  0.2774E+02  0.3015E+02  0.4770E+03
   3.390  0.2993E+02  0.3135E+02  0.4776E+03
   3.400  0.3095E+02  0.3249E+02  0.4783E+03
   3.410  0.3168E+02  0.3448E+02  0.4789E+03
   3.420  0.3154E+02  0.3426E+02  0.4796E+03
   3.430  0.3005E+02  0.3290E+02  0.4802E+03
   3.440  0.2908E+02  0.3312E+02  0.4808E+03
   3.450  0.2851E+02  0.3385E+02  0.4815E+03
   3.460  0.2856E+02  0.3398E+02  0.4821E+03
   3.470  0.2902E+02  0.3368E+02  0.4827E+03
   3.480  0.2941E+02  0.3139E+02  0.4833E+03
   3.490  0.2964E+02  0.3043E+02  0.4839E+03
   3.500  0.2971E+02  0.3015E+02  0.4845E+03
   3.510  0.2961E+02  0.3027E+02  0.4851E+03
   3.520  0.2787E+02  0.3026E+02  0.4857E+03
   3.530  0.2833E+02  0.3021E+02  0.4863E+03
   3.540  0.2914E+02  0.2897E+02  0.4869E+03
   3.550  0.2992E+02  0.2926E+02  0.4875E+03
   3.560  0.3109E+02  0.2899E+02  0.4881E+03
   3.570  0.3176E+02  0.2932E+02  0.4887E+03
   3.580  0.3292E+02  0.3004E+02  0.4893E+03
   3.590  0.3480E+02  0.2909E+02  0.4899E+03
   3.600  0.3382E+02  0.3040E+02  0.4906E+03
   3.610  0.3254E+02  0.3090E+02  0.4912E+03
   3.620  0.3157E+02  0.3103E+02  0.4918E+03
   3.630  0.3082E+02  0.3083E+02  0.4925E+03
   3.640  0.3127E+02  0.3023E+02  0.4931E+03
   3.650  0.3212E+02  0.3019E+02  0.4937E+03
   3.660  0.3295E+02  0.3005E+02  0.4943E+03
   3.670  0.3175E+02  0.2954E+02  0.4950E+03
   3.680  0.3040E+02  0.3145E+02  0.4956E+03
   3.690  0.2988E+02  0.3384E+02  0.4962E+03
   3.700  0.2587E+02  0.3414E+02  0.4968E+03
   3.710  0.2620E+02  0.2137E+02  0.4974E+03
   3.720  0.2807E+02  0.2214E+02  0.4978E+03
   3.730  0.2906E+02  0.2258E+02  0.4984E+03
   3.740  0.3016E+02  0.2367E+02  0.4989E+03
   3.750  0.2537E+02  0.2541E+02  0.4994E+03
   3.760  0.2556E+02  0.2698E+02  0.4999E+03
   3.770  0.2743E+02  0.3043E+02  0.5005E+03
   3.780  0.2598E+02  0.3283E+02  0.5011E+03
   3.790  0.2638E+02  0.3325E+02  0.5016E+03
   3.800  0.2515E+02  0.3316E+02  0.5022E+03
   3.810  0.2374E+02  0.3279E+02  0.5028E+03
   3.820  0.2343E+02  0.3118E+02  0.5034E+03
   3.830  0.2816E+02  0.2871E+02  0.5039E+03
   3.840  0.3530E+02  0.3551E+02  0.5046E+03
   3.850  0.4178E+02  0.3226E+02  0.5053E+03
   3.860  0.4572E+02  0.3329E+02  0.5061E+03
   3.870  0.4719E+02  0.3581E+02  0.5069E+03
   3.880  0.4523E+02  0.4057E+02  0.5077E+03
   3.890  0.3892E+02  0.4240E+02  0.5086E+03
   3.900  0.3223E+02  0.4123E+02  0.5093E+03
   3.910  0.2695E+02  0.3612E+02  0.5100E+03
   3.920  0.2643E+02  0.3315E+02  0.5106E+03
   3.930  0.2510E+02  0.3480E+02  0.5112E+03
   3.940  0.2612E+02  0.3290E+02  0.5118E+03
   3.950  0.2688E+02  0.2656E+02  0.5124E+03
   3.960  0.2747E+02  0.2444E+02  0.5129E+03
   3.970  0.2806E+02  0.2444E+02  0.5134E+03
   3.980  0.2873E+02  0.2451E+02  0.5139E+03
   3.990  0.2751E+02  0.2525E+02  0.5145E+03
   4.000  0.3031E+02  0.2373E+02  0.5150E+03
   4.010  0.3205E+02  0.2292E+02  0.5155E+03
   4.020  0.3138E+02  0.2303E+02  0.5161E+03
   4.030  0.2923E+02  0.2316E+02  0.5166E+03
   4.040  0.2807E+02  0.2377E+02  0.5171E+03
   4.050  0.3026E+02  0.2502E+02  0.5177E+03
   4.060  0.2835E+02  0.2636E+02  0.5182E+03
   4.070  0.2553E+02  0.3025E+02  0.5188E+03
   4.080  0.2676E+02  0.3244E+02  0.5194E+03
   4.090  0.2869E+02  0.2946E+02  0.5200E+03
   4.100  0.2983E+02  0.2819E+02  0.5205E+03
   4.110  0.2966E+02  0.2846E+02  0.5211E+03
   4.120  0.3416E+02  0.2875E+02  0.5217E+03
   4.130  0.3087E+02  0.2984E+02  0.5223E+03
   4.140  0.3251E+02  0.3096E+02  0.5229E+03
   4.150  0.3293E+02  0.3210E+02  0.5236E+03
   4.160  0.3049E+02  0.3358E+02  0.5243E+03
   4.170  0.3034E+02  0.3377E+02  0.5249E+03
   4.180  0.2915E+02  0.3239E+02  0.5255E+03
   4.190  0.2820E+02  0.3193E+02  0.5261E+03
   4.200  0.2724E+02  0.3077E+02  0.5267E+03
   4.210  0.2700E+02  0.3059E+02  0.5273E+03
   4.220  0.2804E+02  0.3042E+02  0.5279E+03
   4.230  0.2840E+02  0.2960E+02  0.5285E+03
   4.240  0.2978E+02  0.3043E+02  0.5291E+03
   4.250  0.3229E+02  0.3087E+02  0.5297E+03
   4.260  0.3295E+02  0.3233E+02  0.5303E+03
   4.270  0.3181E+02  0.3576E+02  0.5310E+03
   4.280  0.3190E+02  0.3481E+02  0.5316E+03
   4.290  0.3123E+02  0.3412E+02  0.5323E+03
   4.300  0.3089E+02  0.3315E+02  0.5330E+03
   4.310  0.2783E+02  0.3478E+02  0.5336E+03
   4.320  0.2602E+02  0.3312E+02  0.5342E+03
   4.330  0.2482E+02  0.3469E+02  0.5348E+03
   4.340  0.2658E+02  0.3588E+02  0.5354E+03
   4.350  0.2889E+02  0.3178E+02  0.5360E+03
   4.360  0.3474E+02  0.3043E+02  0.5367E+03
   4.370  0.3722E+02  0.3204E+02  0.5373E+03
   4.380  0.3735E+02  0.2895E+02  0.5380E+03
   4.390  0.3242E+02  0.2979E+02  0.5387E+03
   4.400  0.3006E+02  0.2940E+02  0.5393E+03
   4.410  0.2685E+02  0.2804E+02  0.5398E+03
   4.420  0.2332E+02  0.2686E+02  0.5404E+03
   4.430  0.2423E+02  0.2539E+02  0.5409E+03
   4.440  0.3387E+02  0.2426E+02  0.5414E+03
   4.450  0.3427E+02  0.2426E+02  0.5420E+03
   4.460  0.3255E+02  0.2367E+02  0.5425E+03
   4.470  0.3064E+02  0.2311E+02  0.5431E+03
   4.480  0.2374E+02  0.2248E+02  0.5436E+03
   4.490  0.2351E+02  0.2281E+02  0.5441E+03
   4.500  0.2493E+02  0.2378E+02  0.5445E+03
   4.510  0.3076E+02  0.2617E+02  0.5450E+03
   4.520  0.3691E+02  0.2708E+02  0.5457E+03
   4.530  0.3613E+02  0.3053E+02  0.5464E+03
   4.540  0.3332E+02  0.2546E+02  0.5470E+03
   4.550  0.2206E+02  0.2526E+02  0.5475E+03
   4.560  0.2049E+02  0.2657E+02  0.5480E+03
   4.570  0.2052E+02  0.2715E+02  0.5484E+03
   4.580  0.2049E+02  0.2787E+02  0.5489E+03
   4.590  0.2090E+02  0.2788E+02  0.5494E+03
   4.600  0.2144E+02  0.2705E+02  0.5499E+03
   4.610  0.2212E+02  0.2687E+02  0.5504E+03
   4.620  0.2290E+02  0.2711E+02  0.5509E+03
   4.630  0.2343E+02  0.2678E+02  0.5514E+03
   4.640  0.2532E+02  0.2681E+02  0.5519E+03
   4.650  0.2985E+02  0.2891E+02  0.5524E+03
   4.660  0.3415E+02  0.2898E+02  0.5530E+03
   4.670  0.3571E+02  0.3185E+02  0.5537E+03
   4.680  0.3346E+02  0.3410E+02  0.5544E+03
   4.690  0.3067E+02  0.3304E+02  0.5550E+03
   4.700  0.2755E+02  0.3113E+02  0.5556E+03
   4.710  0.2609E+02  0.3195E+02  0.5562E+03
   4.720  0.2334E+02  0.2928E+02  0.5568E+03
   4.730  0.2312E+02  0.3782E+02  0.5574E+03
   4.740  0.2767E+02  0.2902E+02  0.5579E+03
   4.750  0.3229E+02  0.2877E+02  0.5585E+03
   4.760  0.3282E+02  0.3612E+02  0.5592E+03
   4.770  0.2711E+02  0.2903E+02  0.5598E+03
   4.780  0.2340E+02  0.2256E+02  0.5603E+03
   4.790  0.2221E+02  0.2046E+02  0.5608E+03
   4.800  0.2064E+02  0.1902E+02  0.5612E+03
   4.810  0.1914E+02  0.1783E+02  0.5615E+03
   4.820  0.1816E+02  0.1682E+02  0.5619E+03
   4.830  0.1749E+02  0.1606E+02  0.5622E+03
   4.840  0.1715E+02  0.1554E+02  0.5626E+03
   4.850  0.1697E+02  0.1518E+02  0.5629E+03
   4.860  0.1698E+02  0.1493E+02  0.5632E+03
   4.870  0.1715E+02  0.1484E+02  0.5635E+03
   4.880  0.2240E+02  0.1476E+02  0.5639E+03
   4.890  0.2092E+02  0.1454E+02  0.5642E+03
   4.900  0.2357E+02  0.1415E+02  0.5646E+03
   4.910  0.2222E+02  0.1366E+02  0.5650E+03
   4.920  0.2116E+02  0.1339E+02  0.5653E+03
   4.930  0.2026E+02  0.1345E+02  0.5657E+03
   4.940  0.1891E+02  0.1363E+02  0.5660E+03
   4.950  0.2460E+02  0.1610E+02  0.5664E+03
   4.960  0.2495E+02  0.1448E+02  0.5668E+03
   4.970  0.2249E+02  0.1671E+02  0.5672E+03
   4.980  0.2114E+02  0.1413E+02  0.5676E+03
   4.990  0.1929E+02  0.1443E+02  0.5679E+03
   5.000  0.1639E+02  0.1521E+02  0.5682E+03
   5.010  0.1536E+02  0.1642E+02  0.5685E+03
   5.020  0.1797E+02  0.1793E+02  0.5689E+03
   5.030  0.1994E+02  0.1964E+02  0.5693E+03
   5.040  0.1886E+02  0.1747E+02  0.5696E+03
   5.050  0.1550E+02  0.1572E+02  0.5700E+03
   5.060  0.1364E+02  0.1455E+02  0.5703E+03
   5.070  0.1248E+02  0.1411E+02  0.5705E+03
   5.080  0.1552E+02  0.1338E+02  0.5708E+03
   5.090  0.1199E+02  0.1249E+02  0.5711E+03
   5.100  0.1161E+02  0.1282E+02  0.5713E+03
   5.110  0.1118E+02  0.7792E+01  0.5716E+03
   5.120  0.1053E+02  0.5862E+01  0.5717E+03
   5.130  0.9853E+01  0.6846E+01  0.5719E+03
   5.140  0.9541E+01  0.1004E+02  0.5721E+03
   5.150  0.9241E+01  0.1567E+02  0.5723E+03
   5.160  0.1028E+02  0.1525E+02  0.5725E+03
   5.170  0.1076E+02  0.9548E+01  0.5728E+03
   5.180  0.1086E+02  0.8081E+01  0.5730E+03
   5.190  0.1195E+02  0.7455E+01  0.5732E+03
   5.200  0.1284E+02  0.6959E+01  0.5734E+03
   5.210  0.1477E+02  0.6595E+01  0.5736E+03
   5.220  0.1658E+02  0.6376E+01  0.5738E+03
   5.230  0.1859E+02  0.7616E+01  0.5740E+03
   5.240  0.1710E+02  0.9176E+01  0.5743E+03
   5.250  0.1035E+02  0.1082E+02  0.5745E+03
   5.260  0.7991E+01  0.1248E+02  0.5747E+03
   5.270  0.7029E+01  0.1508E+02  0.5750E+03
   5.280  0.6069E+01  0.1719E+02  0.5752E+03
   5.290  0.5160E+01  0.1769E+02  0.5754E+03
   5.300  0.4307E+01  0.1231E+02  0.5756E+03
   5.310  0.3530E+01  0.9425E+01  0.5758E+03
   5.320  0.3146E+01  0.1041E+02  0.5759E+03
   5.330  0.3300E+01  0.1434E+02  0.5760E+03
   5.340  0.4069E+01  0.2728E+02  0.5763E+03
   5.350  0.5342E+01  0.1818E+02  0.5765E+03
   5.360  0.5856E+01  0.1637E+02  0.5767E+03
   5.370  0.6492E+01  0.1501E+02  0.5770E+03
   5.380  0.7129E+01  0.1444E+02  0.5772E+03
   5.390  0.7731E+01  0.1352E+02  0.5774E+03
   5.400  0.8084E+01  0.1810E+02  0.5776E+03
   5.410  0.9013E+01  0.2025E+02  0.5779E+03
   5.420  0.8239E+01  0.1682E+02  0.5782E+03
   5.430  0.7161E+01  0.1184E+02  0.5784E+03
   5.440  0.5839E+01  0.7784E+01  0.5786E+03
   5.450  0.5195E+01  0.4884E+01  0.5787E+03
   5.460  0.4567E+01  0.3607E+01  0.5788E+03
   5.470  0.3827E+01  0.2270E+01  0.5789E+03
   5.480  0.3685E+01  0.1280E+01  0.5789E+03
   5.490  0.6309E+01  0.7367E+00  0.5790E+03
   5.500  0.7744E+01  0.3429E+00  0.5790E+03
   5.510  0.1045E+02  0.9808E-01  0.5791E+03
   5.520  0.1292E+02  0.2187E-02  0.5793E+03
   5.530  0.1529E+02  0.0000E+00  0.5794E+03
   5.540  0.1794E+02  0.0000E+00  0.5796E+03
   5.550  0.2096E+02  0.0000E+00  0.5798E+03
   5.560  0.2182E+02  0.0000E+00  0.5800E+03
   5.570  0.1870E+02  0.0000E+00  0.5802E+03
   5.580  0.1455E+02  0.0000E+00  0.5803E+03
   5.590  0.1180E+02  0.0000E+00  0.5805E+03
   5.600  0.9213E+01  0.0000E+00  0.5806E+03
   5.610  0.6890E+01  0.0000E+00  0.5807E+03
   5.620  0.5697E+01  0.0000E+00  0.5807E+03
   5.630  0.5386E+01  0.0000E+00  0.5808E+03
   5.640  0.5256E+01  0.0000E+00  0.5808E+03
   5.650  0.4800E+01  0.0000E+00  0.5809E+03
   5.660  0.4069E+01  0.0000E+00  0.5809E+03
   5.670  0.3065E+01  0.0000E+00  0.5810E+03
   5.680  0.1754E+01  0.0000E+00  0.5810E+03
   5.690  0.5800E+00  0.0000E+00  0.5810E+03
   5.700  0.2681E+00  0.0000E+00  0.5810E+03
   5.710  0.8107E-01  0.0000E+00  0.5810E+03
   5.720  0.6009E-02  0.0000E+00  0.5810E+03
   5.730  0.2065E-02  0.0000E+00  0.5810E+03
   5.740  0.6066E-03  0.0000E+00  0.5810E+03
   5.750  0.4441E-04  0.0000E+00  0.5810E+03
   5.760  0.0000E+00  0.0000E+00  0.5810E+03
   5.770  0.0000E+00  0.0000E+00  0.5810E+03
   5.780  0.0000E+00  0.0000E+00  0.5810E+03
   5.790  0.0000E+00  0.0000E+00  0.5810E+03
   5.800  0.0000E+00  0.0000E+00  0.5810E+03
   5.810  0.0000E+00  0.0000E+00  0.5810E+03
   5.820  0.0000E+00  0.0000E+00  0.5810E+03
   5.830  0.0000E+00  0.0000E+00  0.5810E+03
   5.840  0.0000E+00  0.0000E+00  0.5810E+03
   5.850  0.0000E+00  0.0000E+00  0.5810E+03
   5.860  0.0000E+00  0.0000E+00  0.5810E+03
   5.870  0.0000E+00  0.0000E+00  0.5810E+03
   5.880  0.0000E+00  0.0000E+00  0.5810E+03
   5.890  0.0000E+00  0.0000E+00  0.5810E+03
   5.900  0.0000E+00  0.0000E+00  0.5810E+03
   5.910  0.0000E+00  0.0000E+00  0.5810E+03
   5.920  0.0000E+00  0.0000E+00  0.5810E+03
   5.930  0.0000E+00  0.0000E+00  0.5810E+03
   5.940  0.0000E+00  0.0000E+00  0.5810E+03
   5.950  0.0000E+00  0.0000E+00  0.5810E+03
   5.960  0.0000E+00  0.0000E+00  0.5810E+03
   5.970  0.0000E+00  0.0000E+00  0.5810E+03
   5.980  0.0000E+00  0.0000E+00  0.5810E+03
   5.990  0.0000E+00  0.0000E+00  0.5810E+03
   6.000  0.0000E+00  0.0000E+00  0.5810E+03
   6.010  0.0000E+00  0.0000E+00  0.5810E+03
   6.020  0.0000E+00  0.0000E+00  0.5810E+03
   6.030  0.0000E+00  0.0000E+00  0.5810E+03
   6.040  0.0000E+00  0.0000E+00  0.5810E+03
   6.050  0.0000E+00  0.0000E+00  0.5810E+03
   6.060  0.0000E+00  0.0000E+00  0.5810E+03
   6.070  0.0000E+00  0.0000E+00  0.5810E+03
   6.080  0.0000E+00  0.0000E+00  0.5810E+03
   6.090  0.0000E+00  0.0000E+00  0.5810E+03
   6.100  0.0000E+00  0.0000E+00  0.5810E+03
   6.110  0.0000E+00  0.0000E+00  0.5810E+03
   6.120  0.0000E+00  0.0000E+00  0.5810E+03
   6.130  0.0000E+00  0.0000E+00  0.5810E+03
   6.140  0.0000E+00  0.0000E+00  0.5810E+03
   6.150  0.0000E+00  0.0000E+00  0.5810E+03
   6.160  0.0000E+00  0.0000E+00  0.5810E+03
   6.170  0.0000E+00  0.0000E+00  0.5810E+03
   6.180  0.0000E+00  0.0000E+00  0.5810E+03
   6.190  0.0000E+00  0.0000E+00  0.5810E+03
   6.200  0.0000E+00  0.0000E+00  0.5810E+03
   6.210  0.0000E+00  0.0000E+00  0.5810E+03
   6.220  0.0000E+00  0.0000E+00  0.5810E+03
   6.230  0.0000E+00  0.1232E-01  0.5810E+03
   6.240  0.0000E+00  0.6112E+00  0.5810E+03
   6.250  0.0000E+00  0.2633E+01  0.5810E+03
   6.260  0.0000E+00  0.8959E+01  0.5811E+03
   6.270  0.0000E+00  0.1877E+02  0.5812E+03
   6.280  0.0000E+00  0.2562E+02  0.5814E+03
   6.290  0.0000E+00  0.2002E+02  0.5817E+03
   6.300  0.0000E+00  0.1246E+02  0.5818E+03
   6.310  0.0000E+00  0.1732E+02  0.5820E+03
   6.320  0.0000E+00  0.2267E+02  0.5822E+03
   6.330  0.0000E+00  0.2624E+02  0.5824E+03
   6.340  0.0000E+00  0.4301E+02  0.5828E+03
   6.350  0.0000E+00  0.5331E+02  0.5833E+03
   6.360  0.0000E+00  0.3869E+02  0.5838E+03
   6.370  0.0000E+00  0.5151E+01  0.5840E+03
   6.380  0.0000E+00  0.5128E+00  0.5840E+03
   6.390  0.0000E+00  0.5647E-02  0.5840E+03
   6.400  0.0000E+00  0.0000E+00  0.5840E+03
   6.410  0.0000E+00  0.0000E+00  0.5840E+03
   6.420  0.0000E+00  0.0000E+00  0.5840E+03
   6.430  0.0000E+00  0.0000E+00  0.5840E+03
   6.440  0.0000E+00  0.0000E+00  0.5840E+03
   6.450  0.0000E+00  0.0000E+00  0.5840E+03
   6.460  0.0000E+00  0.0000E+00  0.5840E+03
   6.470  0.0000E+00  0.0000E+00  0.5840E+03
   6.480  0.0000E+00  0.0000E+00  0.5840E+03
   6.490  0.0000E+00  0.0000E+00  0.5840E+03
   6.500  0.0000E+00  0.0000E+00  0.5840E+03
   6.510  0.0000E+00  0.0000E+00  0.5840E+03
   6.520  0.0000E+00  0.0000E+00  0.5840E+03
   6.530  0.0000E+00  0.0000E+00  0.5840E+03
   6.540  0.0000E+00  0.0000E+00  0.5840E+03
   6.550  0.0000E+00  0.0000E+00  0.5840E+03
   6.560  0.0000E+00  0.0000E+00  0.5840E+03
   6.570  0.0000E+00  0.0000E+00  0.5840E+03
   6.580  0.0000E+00  0.0000E+00  0.5840E+03
   6.590  0.0000E+00  0.0000E+00  0.5840E+03
   6.600  0.0000E+00  0.0000E+00  0.5840E+03
   6.610  0.0000E+00  0.0000E+00  0.5840E+03
   6.620  0.0000E+00  0.0000E+00  0.5840E+03
   6.630  0.0000E+00  0.0000E+00  0.5840E+03
   6.640  0.0000E+00  0.0000E+00  0.5840E+03
   6.650  0.0000E+00  0.0000E+00  0.5840E+03
   6.660  0.0000E+00  0.0000E+00  0.5840E+03
   6.670  0.0000E+00  0.0000E+00  0.5840E+03
   6.680  0.0000E+00  0.0000E+00  0.5840E+03
   6.690  0.0000E+00  0.0000E+00  0.5840E+03
   6.700  0.0000E+00  0.0000E+00  0.5840E+03
   6.710  0.0000E+00  0.0000E+00  0.5840E+03
   6.720  0.0000E+00  0.0000E+00  0.5840E+03
   6.730  0.0000E+00  0.0000E+00  0.5840E+03
   6.740  0.0000E+00  0.0000E+00  0.5840E+03
   6.750  0.0000E+00  0.0000E+00  0.5840E+03
   6.760  0.0000E+00  0.0000E+00  0.5840E+03
   6.770  0.0000E+00  0.0000E+00  0.5840E+03
   6.780  0.0000E+00  0.0000E+00  0.5840E+03
   6.790  0.0000E+00  0.0000E+00  0.5840E+03
   6.800  0.0000E+00  0.0000E+00  0.5840E+03
   6.810  0.0000E+00  0.0000E+00  0.5840E+03
   6.820  0.0000E+00  0.0000E+00  0.5840E+03
   6.830  0.0000E+00  0.0000E+00  0.5840E+03
   6.840  0.0000E+00  0.0000E+00  0.5840E+03
   6.850  0.0000E+00  0.0000E+00  0.5840E+03
   6.860  0.0000E+00  0.0000E+00  0.5840E+03
   6.870  0.0000E+00  0.0000E+00  0.5840E+03
   6.880  0.0000E+00  0.0000E+00  0.5840E+03
   6.890  0.0000E+00  0.0000E+00  0.5840E+03
   6.900  0.0000E+00  0.0000E+00  0.5840E+03
   6.910  0.0000E+00  0.0000E+00  0.5840E+03
   6.920  0.0000E+00  0.0000E+00  0.5840E+03
   6.930  0.0000E+00  0.0000E+00  0.5840E+03
   6.940  0.0000E+00  0.0000E+00  0.5840E+03
   6.950  0.0000E+00  0.0000E+00  0.5840E+03
   6.960  0.0000E+00  0.0000E+00  0.5840E+03
   6.970  0.0000E+00  0.0000E+00  0.5840E+03
   6.980  0.0000E+00  0.0000E+00  0.5840E+03
   6.990  0.0000E+00  0.0000E+00  0.5840E+03
   7.000  0.0000E+00  0.0000E+00  0.5840E+03
   7.010  0.0000E+00  0.0000E+00  0.5840E+03
   7.020  0.0000E+00  0.0000E+00  0.5840E+03
   7.030  0.0000E+00  0.0000E+00  0.5840E+03
   7.040  0.0000E+00  0.0000E+00  0.5840E+03
   7.050  0.0000E+00  0.0000E+00  0.5840E+03
   7.060  0.0000E+00  0.0000E+00  0.5840E+03
   7.070  0.0000E+00  0.0000E+00  0.5840E+03
   7.080  0.0000E+00  0.0000E+00  0.5840E+03
   7.090  0.0000E+00  0.0000E+00  0.5840E+03
   7.100  0.0000E+00  0.0000E+00  0.5840E+03
   7.110  0.0000E+00  0.0000E+00  0.5840E+03
   7.120  0.0000E+00  0.0000E+00  0.5840E+03
   7.130  0.0000E+00  0.0000E+00  0.5840E+03
   7.140  0.0000E+00  0.0000E+00  0.5840E+03
   7.150  0.0000E+00  0.0000E+00  0.5840E+03
   7.160  0.0000E+00  0.0000E+00  0.5840E+03
   7.170  0.0000E+00  0.0000E+00  0.5840E+03
   7.180  0.0000E+00  0.0000E+00  0.5840E+03
   7.190  0.0000E+00  0.0000E+00  0.5840E+03
   7.200  0.0000E+00  0.0000E+00  0.5840E+03
   7.210  0.0000E+00  0.0000E+00  0.5840E+03
   7.220  0.0000E+00  0.0000E+00  0.5840E+03
   7.230  0.0000E+00  0.0000E+00  0.5840E+03
   7.240  0.0000E+00  0.0000E+00  0.5840E+03
   7.250  0.0000E+00  0.0000E+00  0.5840E+03
   7.260  0.0000E+00  0.0000E+00  0.5840E+03
   7.270  0.0000E+00  0.0000E+00  0.5840E+03
   7.280  0.0000E+00  0.0000E+00  0.5840E+03
   7.290  0.0000E+00  0.0000E+00  0.5840E+03
   7.300  0.0000E+00  0.0000E+00  0.5840E+03
   7.310  0.0000E+00  0.0000E+00  0.5840E+03
   7.320  0.0000E+00  0.0000E+00  0.5840E+03
   7.330  0.0000E+00  0.0000E+00  0.5840E+03
   7.340  0.0000E+00  0.0000E+00  0.5840E+03
   7.350  0.0000E+00  0.0000E+00  0.5840E+03
   7.360  0.0000E+00  0.0000E+00  0.5840E+03
   7.370  0.0000E+00  0.0000E+00  0.5840E+03
   7.380  0.0000E+00  0.0000E+00  0.5840E+03
   7.390  0.0000E+00  0.0000E+00  0.5840E+03
   7.400  0.0000E+00  0.0000E+00  0.5840E+03
   7.410  0.0000E+00  0.0000E+00  0.5840E+03
   7.420  0.0000E+00  0.0000E+00  0.5840E+03
   7.430  0.0000E+00  0.0000E+00  0.5840E+03
   7.440  0.0000E+00  0.0000E+00  0.5840E+03
   7.450  0.0000E+00  0.0000E+00  0.5840E+03
   7.460  0.1059E-04  0.0000E+00  0.5840E+03
   7.470  0.7993E-04  0.1020E-04  0.5840E+03
   7.480  0.2139E-03  0.7765E-04  0.5840E+03
   7.490  0.4406E-03  0.2082E-03  0.5840E+03
   7.500  0.8995E-03  0.4328E-03  0.5840E+03
   7.510  0.1610E-02  0.8847E-03  0.5840E+03
   7.520  0.2571E-02  0.1579E-02  0.5840E+03
   7.530  0.3784E-02  0.2516E-02  0.5840E+03
   7.540  0.5248E-02  0.3696E-02  0.5840E+03
   7.550  0.6963E-02  0.5118E-02  0.5840E+03
   7.560  0.8929E-02  0.6783E-02  0.5840E+03
   7.570  0.1115E-01  0.8690E-02  0.5840E+03
   7.580  0.1362E-01  0.1084E-01  0.5840E+03
   7.590  0.1634E-01  0.1323E-01  0.5840E+03
   7.600  0.1931E-01  0.1587E-01  0.5840E+03
   7.610  0.2253E-01  0.1874E-01  0.5840E+03
   7.620  0.2600E-01  0.2186E-01  0.5840E+03
   7.630  0.2973E-01  0.2523E-01  0.5840E+03
   7.640  0.3371E-01  0.2883E-01  0.5840E+03
   7.650  0.3793E-01  0.3268E-01  0.5840E+03
   7.660  0.4241E-01  0.3677E-01  0.5840E+03
   7.670  0.4714E-01  0.4110E-01  0.5840E+03
   7.680  0.5212E-01  0.4568E-01  0.5840E+03
   7.690  0.5736E-01  0.5050E-01  0.5840E+03
   7.700  0.6284E-01  0.5556E-01  0.5840E+03
   7.710  0.6858E-01  0.6086E-01  0.5840E+03
   7.720  0.7456E-01  0.6641E-01  0.5840E+03
   7.730  0.8080E-01  0.7220E-01  0.5840E+03
   7.740  0.8729E-01  0.7823E-01  0.5840E+03
   7.750  0.9403E-01  0.8450E-01  0.5840E+03
   7.760  0.1010E+00  0.9102E-01  0.5840E+03
   7.770  0.1083E+00  0.9778E-01  0.5840E+03
   7.780  0.1158E+00  0.1048E+00  0.5840E+03
   7.790  0.1235E+00  0.1120E+00  0.5840E+03
   7.800  0.1315E+00  0.1195E+00  0.5840E+03
   7.810  0.1397E+00  0.1272E+00  0.5840E+03
   7.820  0.1482E+00  0.1352E+00  0.5840E+03
   7.830  0.1570E+00  0.1434E+00  0.5840E+03
   7.840  0.1660E+00  0.1519E+00  0.5840E+03
   7.850  0.1753E+00  0.1606E+00  0.5840E+03
   7.860  0.1845E+00  0.1695E+00  0.5840E+03
   7.870  0.1930E+00  0.1787E+00  0.5840E+03
   7.880  0.2025E+00  0.1873E+00  0.5841E+03
   7.890  0.2132E+00  0.1960E+00  0.5841E+03
   7.900  0.2253E+00  0.2059E+00  0.5841E+03
   7.910  0.2398E+00  0.2171E+00  0.5841E+03
   7.920  0.2538E+00  0.2305E+00  0.5841E+03
   7.930  0.2669E+00  0.2451E+00  0.5841E+03
   7.940  0.2794E+00  0.2587E+00  0.5841E+03
   7.950  0.2913E+00  0.2717E+00  0.5841E+03
   7.960  0.3027E+00  0.2840E+00  0.5841E+03
   7.970  0.3137E+00  0.2957E+00  0.5841E+03
   7.980  0.3243E+00  0.3070E+00  0.5841E+03
   7.990  0.3347E+00  0.3180E+00  0.5841E+03
   8.000  0.3449E+00  0.3286E+00  0.5841E+03
   8.010  0.3549E+00  0.3390E+00  0.5841E+03
   8.020  0.3646E+00  0.3492E+00  0.5841E+03
   8.030  0.3742E+00  0.3591E+00  0.5841E+03
   8.040  0.3836E+00  0.3689E+00  0.5841E+03
   8.050  0.3928E+00  0.3785E+00  0.5842E+03
   8.060  0.4018E+00  0.3879E+00  0.5842E+03
   8.070  0.4107E+00  0.3971E+00  0.5842E+03
   8.080  0.4193E+00  0.4062E+00  0.5842E+03
   8.090  0.4278E+00  0.4150E+00  0.5842E+03
   8.100  0.4360E+00  0.4236E+00  0.5842E+03
   8.110  0.4441E+00  0.4321E+00  0.5842E+03
   8.120  0.4520E+00  0.4404E+00  0.5842E+03
   8.130  0.4597E+00  0.4485E+00  0.5842E+03
   8.140  0.4672E+00  0.4564E+00  0.5842E+03
   8.150  0.4733E+00  0.4641E+00  0.5842E+03
   8.160  0.4769E+00  0.4713E+00  0.5842E+03
   8.170  0.4783E+00  0.4762E+00  0.5843E+03
   8.180  0.4775E+00  0.4788E+00  0.5843E+03
   8.190  0.4786E+00  0.4789E+00  0.5843E+03
   8.200  0.4805E+00  0.4785E+00  0.5843E+03
   8.210  0.4836E+00  0.4800E+00  0.5843E+03
   8.220  0.4872E+00  0.4823E+00  0.5843E+03
   8.230  0.4905E+00  0.4859E+00  0.5843E+03
   8.240  0.4935E+00  0.4893E+00  0.5843E+03
   8.250  0.4967E+00  0.4924E+00  0.5843E+03
   8.260  0.5003E+00  0.4955E+00  0.5843E+03
   8.270  0.5044E+00  0.4989E+00  0.5844E+03
   8.280  0.5092E+00  0.5028E+00  0.5844E+03
   8.290  0.5148E+00  0.5072E+00  0.5844E+03
   8.300  0.5213E+00  0.5124E+00  0.5844E+03
   8.310  0.5288E+00  0.5186E+00  0.5844E+03
   8.320  0.5372E+00  0.5257E+00  0.5844E+03
   8.330  0.5468E+00  0.5337E+00  0.5844E+03
   8.340  0.5581E+00  0.5427E+00  0.5844E+03
   8.350  0.5710E+00  0.5534E+00  0.5844E+03
   8.360  0.5846E+00  0.5658E+00  0.5845E+03
   8.370  0.5985E+00  0.5792E+00  0.5845E+03
   8.380  0.6126E+00  0.5931E+00  0.5845E+03
   8.390  0.6268E+00  0.6072E+00  0.5845E+03
   8.400  0.6412E+00  0.6214E+00  0.5845E+03
   8.410  0.6556E+00  0.6359E+00  0.5845E+03
   8.420  0.6700E+00  0.6504E+00  0.5845E+03
   8.430  0.6846E+00  0.6648E+00  0.5845E+03
   8.440  0.6994E+00  0.6794E+00  0.5846E+03
   8.450  0.7146E+00  0.6943E+00  0.5846E+03
   8.460  0.7300E+00  0.7094E+00  0.5846E+03
   8.470  0.7459E+00  0.7249E+00  0.5846E+03
   8.480  0.7621E+00  0.7407E+00  0.5846E+03
   8.490  0.7787E+00  0.7569E+00  0.5846E+03
   8.500  0.7958E+00  0.7734E+00  0.5846E+03
   8.510  0.8134E+00  0.7904E+00  0.5847E+03
   8.520  0.8316E+00  0.8080E+00  0.5847E+03
   8.530  0.8503E+00  0.8261E+00  0.5847E+03
   8.540  0.8696E+00  0.8448E+00  0.5847E+03
   8.550  0.8894E+00  0.8640E+00  0.5847E+03
   8.560  0.9098E+00  0.8838E+00  0.5847E+03
   8.570  0.9308E+00  0.9041E+00  0.5848E+03
   8.580  0.9522E+00  0.9250E+00  0.5848E+03
   8.590  0.9743E+00  0.9464E+00  0.5848E+03
   8.600  0.9969E+00  0.9685E+00  0.5848E+03
   8.610  0.1020E+01  0.9910E+00  0.5848E+03
   8.620  0.1044E+01  0.1014E+01  0.5849E+03
   8.630  0.1068E+01  0.1038E+01  0.5849E+03
   8.640  0.1093E+01  0.1062E+01  0.5849E+03
   8.650  0.1118E+01  0.1087E+01  0.5849E+03
   8.660  0.1144E+01  0.1112E+01  0.5849E+03
   8.670  0.1170E+01  0.1138E+01  0.5850E+03
   8.680  0.1197E+01  0.1165E+01  0.5850E+03
   8.690  0.1225E+01  0.1192E+01  0.5850E+03
   8.700  0.1253E+01  0.1219E+01  0.5850E+03
   8.710  0.1282E+01  0.1247E+01  0.5851E+03
   8.720  0.1311E+01  0.1276E+01  0.5851E+03
   8.730  0.1338E+01  0.1305E+01  0.5851E+03
   8.740  0.1361E+01  0.1335E+01  0.5851E+03
   8.750  0.1378E+01  0.1363E+01  0.5852E+03
   8.760  0.1400E+01  0.1385E+01  0.5852E+03
   8.770  0.1442E+01  0.1407E+01  0.5852E+03
   8.780  0.1503E+01  0.1447E+01  0.5853E+03
   8.790  0.1579E+01  0.1508E+01  0.5853E+03
   8.800  0.1672E+01  0.1589E+01  0.5853E+03
   8.810  0.1784E+01  0.1686E+01  0.5853E+03
   8.820  0.1912E+01  0.1799E+01  0.5854E+03
   8.830  0.2067E+01  0.1929E+01  0.5854E+03
   8.840  0.2264E+01  0.2076E+01  0.5855E+03
   8.850  0.2501E+01  0.2263E+01  0.5855E+03
   8.860  0.3023E+01  0.2491E+01  0.5856E+03
   8.870  0.4244E+01  0.2904E+01  0.5856E+03
   8.880  0.6665E+01  0.3713E+01  0.5857E+03
   8.890  0.6080E+01  0.7161E+01  0.5858E+03
   8.900  0.6079E+01  0.6173E+01  0.5860E+03
   8.910  0.6567E+01  0.6136E+01  0.5861E+03
   8.920  0.6885E+01  0.6657E+01  0.5862E+03
   8.930  0.7163E+01  0.7015E+01  0.5864E+03
   8.940  0.7340E+01  0.7312E+01  0.5865E+03
   8.950  0.7404E+01  0.7469E+01  0.5866E+03
   8.960  0.7449E+01  0.7533E+01  0.5868E+03
   8.970  0.7467E+01  0.7570E+01  0.5869E+03
   8.980  0.7453E+01  0.7579E+01  0.5871E+03
   8.990  0.7409E+01  0.7553E+01  0.5872E+03
   9.000  0.7471E+01  0.7497E+01  0.5874E+03
   9.010  0.7531E+01  0.7531E+01  0.5875E+03
   9.020  0.7372E+01  0.7557E+01  0.5877E+03
   9.030  0.7126E+01  0.7365E+01  0.5878E+03
   9.040  0.6822E+01  0.7080E+01  0.5880E+03
   9.050  0.6504E+01  0.6744E+01  0.5881E+03
   9.060  0.7192E+01  0.6411E+01  0.5883E+03
   9.070  0.7054E+01  0.7144E+01  0.5884E+03
   9.080  0.5453E+01  0.6812E+01  0.5885E+03
   9.090  0.5517E+01  0.5376E+01  0.5886E+03
   9.100  0.5807E+01  0.5511E+01  0.5888E+03
   9.110  0.6090E+01  0.5800E+01  0.5889E+03
   9.120  0.6330E+01  0.6070E+01  0.5890E+03
   9.130  0.6522E+01  0.6276E+01  0.5891E+03
   9.140  0.6693E+01  0.6458E+01  0.5892E+03
   9.150  0.6943E+01  0.6615E+01  0.5894E+03
   9.160  0.7219E+01  0.6863E+01  0.5895E+03
   9.170  0.7493E+01  0.7140E+01  0.5897E+03
   9.180  0.7787E+01  0.7413E+01  0.5898E+03
   9.190  0.8097E+01  0.7702E+01  0.5900E+03
   9.200  0.8422E+01  0.8008E+01  0.5901E+03
   9.210  0.8758E+01  0.8329E+01  0.5903E+03
   9.220  0.9094E+01  0.8663E+01  0.5905E+03
   9.230  0.9401E+01  0.9001E+01  0.5906E+03
   9.240  0.9768E+01  0.9330E+01  0.5908E+03
   9.250  0.1013E+02  0.9669E+01  0.5910E+03
   9.260  0.1048E+02  0.1005E+02  0.5912E+03
   9.270  0.1085E+02  0.1041E+02  0.5914E+03
   9.280  0.1123E+02  0.1078E+02  0.5917E+03
   9.290  0.1164E+02  0.1115E+02  0.5919E+03
   9.300  0.1206E+02  0.1155E+02  0.5921E+03
   9.310  0.1250E+02  0.1197E+02  0.5924E+03
   9.320  0.1294E+02  0.1240E+02  0.5926E+03
   9.330  0.1335E+02  0.1285E+02  0.5929E+03
   9.340  0.1381E+02  0.1326E+02  0.5931E+03
   9.350  0.1452E+02  0.1370E+02  0.5934E+03
   9.360  0.1520E+02  0.1427E+02  0.5937E+03
   9.370  0.1592E+02  0.1506E+02  0.5940E+03
   9.380  0.1653E+02  0.1582E+02  0.5943E+03
   9.390  0.1693E+02  0.1658E+02  0.5946E+03
   9.400  0.1715E+02  0.1711E+02  0.5950E+03
   9.410  0.1709E+02  0.1740E+02  0.5953E+03
   9.420  0.1690E+02  0.1737E+02  0.5957E+03
   9.430  0.1687E+02  0.1710E+02  0.5960E+03
   9.440  0.1705E+02  0.1701E+02  0.5963E+03
   9.450  0.1735E+02  0.1721E+02  0.5967E+03
   9.460  0.1678E+02  0.1764E+02  0.5970E+03
   9.470  0.1580E+02  0.1690E+02  0.5974E+03
   9.480  0.1544E+02  0.1591E+02  0.5977E+03
   9.490  0.1540E+02  0.1696E+02  0.5980E+03
   9.500  0.1630E+02  0.1535E+02  0.5984E+03
   9.510  0.1814E+02  0.1565E+02  0.5987E+03
   9.520  0.1857E+02  0.1754E+02  0.5990E+03
   9.530  0.1759E+02  0.1814E+02  0.5994E+03
   9.540  0.1698E+02  0.1737E+02  0.5997E+03
   9.550  0.1666E+02  0.1649E+02  0.6001E+03
   9.560  0.1648E+02  0.1681E+02  0.6004E+03
   9.570  0.1581E+02  0.1703E+02  0.6007E+03
   9.580  0.1482E+02  0.1571E+02  0.6011E+03
   9.590  0.1501E+02  0.1529E+02  0.6014E+03
   9.600  0.1512E+02  0.1539E+02  0.6017E+03
   9.610  0.1503E+02  0.1550E+02  0.6020E+03
   9.620  0.1534E+02  0.1544E+02  0.6023E+03
   9.630  0.1567E+02  0.1523E+02  0.6026E+03
   9.640  0.1587E+02  0.1543E+02  0.6029E+03
   9.650  0.1569E+02  0.1580E+02  0.6032E+03
   9.660  0.1489E+02  0.1587E+02  0.6035E+03
   9.670  0.1364E+02  0.1515E+02  0.6038E+03
   9.680  0.1275E+02  0.1364E+02  0.6041E+03
   9.690  0.1301E+02  0.1248E+02  0.6044E+03
   9.700  0.1442E+02  0.1284E+02  0.6046E+03
   9.710  0.1548E+02  0.1398E+02  0.6049E+03
   9.720  0.1645E+02  0.1525E+02  0.6052E+03
   9.730  0.1737E+02  0.1619E+02  0.6055E+03
   9.740  0.1830E+02  0.1720E+02  0.6059E+03
   9.750  0.1925E+02  0.1814E+02  0.6062E+03
   9.760  0.2005E+02  0.1899E+02  0.6066E+03
   9.770  0.2004E+02  0.1958E+02  0.6070E+03
   9.780  0.1945E+02  0.1954E+02  0.6074E+03
   9.790  0.1879E+02  0.1930E+02  0.6078E+03
   9.800  0.1869E+02  0.1888E+02  0.6082E+03
   9.810  0.1882E+02  0.1855E+02  0.6086E+03
   9.820  0.1911E+02  0.1861E+02  0.6089E+03
   9.830  0.1955E+02  0.1898E+02  0.6093E+03
   9.840  0.2062E+02  0.1966E+02  0.6097E+03
   9.850  0.2797E+02  0.2217E+02  0.6101E+03
   9.860  0.3502E+02  0.2901E+02  0.6107E+03
   9.870  0.4419E+02  0.3623E+02  0.6114E+03
   9.880  0.4573E+02  0.4400E+02  0.6123E+03
   9.890  0.4697E+02  0.4547E+02  0.6132E+03
   9.900  0.4945E+02  0.4540E+02  0.6141E+03
   9.910  0.4225E+02  0.4531E+02  0.6150E+03
   9.920  0.4177E+02  0.4577E+02  0.6159E+03
   9.930  0.3219E+02  0.4258E+02  0.6168E+03
   9.940  0.3284E+02  0.3303E+02  0.6175E+03
   9.950  0.3307E+02  0.3313E+02  0.6181E+03
   9.960  0.3028E+02  0.3259E+02  0.6188E+03
   9.970  0.2861E+02  0.2997E+02  0.6194E+03
   9.980  0.2863E+02  0.2836E+02  0.6200E+03
   9.990  0.2924E+02  0.2806E+02  0.6205E+03
  10.000  0.3003E+02  0.2827E+02  0.6211E+03
  10.010  0.3072E+02  0.2914E+02  0.6217E+03
  10.020  0.3139E+02  0.3014E+02  0.6223E+03
  10.030  0.3185E+02  0.3114E+02  0.6229E+03
  10.040  0.3210E+02  0.3186E+02  0.6236E+03
  10.050  0.3225E+02  0.3241E+02  0.6242E+03
  10.060  0.3225E+02  0.3262E+02  0.6248E+03
  10.070  0.3253E+02  0.3251E+02  0.6255E+03
  10.080  0.3275E+02  0.3270E+02  0.6262E+03
  10.090  0.3330E+02  0.3327E+02  0.6268E+03
  10.100  0.3284E+02  0.3317E+02  0.6275E+03
  10.110  0.4277E+02  0.3441E+02  0.6282E+03
  10.120  0.3139E+02  0.3817E+02  0.6289E+03
  10.130  0.2919E+02  0.3128E+02  0.6296E+03
  10.140  0.2805E+02  0.2937E+02  0.6302E+03
  10.150  0.2804E+02  0.2812E+02  0.6307E+03
  10.160  0.2803E+02  0.2806E+02  0.6313E+03
  10.170  0.2767E+02  0.2763E+02  0.6319E+03
  10.180  0.2636E+02  0.2697E+02  0.6324E+03
  10.190  0.2457E+02  0.2587E+02  0.6329E+03
  10.200  0.2238E+02  0.2420E+02  0.6334E+03
  10.210  0.2049E+02  0.2155E+02  0.6338E+03
  10.220  0.2010E+02  0.2063E+02  0.6343E+03
  10.230  0.1970E+02  0.2038E+02  0.6347E+03
  10.240  0.1943E+02  0.2007E+02  0.6351E+03
  10.250  0.1911E+02  0.1980E+02  0.6355E+03
  10.260  0.1886E+02  0.1949E+02  0.6358E+03
  10.270  0.1870E+02  0.1917E+02  0.6362E+03
  10.280  0.1863E+02  0.1891E+02  0.6366E+03
  10.290  0.1865E+02  0.1878E+02  0.6370E+03
  10.300  0.1874E+02  0.1880E+02  0.6373E+03
  10.310  0.1860E+02  0.1899E+02  0.6377E+03
  10.320  0.2116E+02  0.1939E+02  0.6381E+03
  10.330  0.2940E+02  0.2333E+02  0.6386E+03
  10.340  0.3399E+02  0.3153E+02  0.6392E+03
  10.350  0.3271E+02  0.3375E+02  0.6398E+03
  10.360  0.3075E+02  0.3238E+02  0.6405E+03
  10.370  0.3000E+02  0.3150E+02  0.6411E+03
  10.380  0.2994E+02  0.2652E+02  0.6417E+03
  10.390  0.2579E+02  0.2723E+02  0.6422E+03
  10.400  0.2303E+02  0.2551E+02  0.6428E+03
  10.410  0.1956E+02  0.2368E+02  0.6432E+03
  10.420  0.1714E+02  0.2011E+02  0.6436E+03
  10.430  0.1590E+02  0.1758E+02  0.6440E+03
  10.440  0.1563E+02  0.1641E+02  0.6443E+03
  10.450  0.1596E+02  0.1603E+02  0.6446E+03
  10.460  0.1661E+02  0.1621E+02  0.6449E+03
  10.470  0.1709E+02  0.1667E+02  0.6453E+03
  10.480  0.1701E+02  0.1703E+02  0.6456E+03
  10.490  0.1664E+02  0.1703E+02  0.6460E+03
  10.500  0.1604E+02  0.1690E+02  0.6463E+03
  10.510  0.1579E+02  0.1650E+02  0.6466E+03
  10.520  0.1549E+02  0.1604E+02  0.6469E+03
  10.530  0.1502E+02  0.1553E+02  0.6472E+03
  10.540  0.1455E+02  0.1496E+02  0.6475E+03
  10.550  0.1421E+02  0.1446E+02  0.6478E+03
  10.560  0.1398E+02  0.1408E+02  0.6481E+03
  10.570  0.1387E+02  0.1376E+02  0.6484E+03
  10.580  0.1403E+02  0.1346E+02  0.6487E+03
  10.590  0.1441E+02  0.1365E+02  0.6489E+03
  10.600  0.1468E+02  0.1401E+02  0.6492E+03
  10.610  0.1498E+02  0.1423E+02  0.6495E+03
  10.620  0.1531E+02  0.1448E+02  0.6498E+03
  10.630  0.1567E+02  0.1473E+02  0.6501E+03
  10.640  0.1685E+02  0.1501E+02  0.6504E+03
  10.650  0.1768E+02  0.1533E+02  0.6507E+03
  10.660  0.1863E+02  0.1641E+02  0.6511E+03
  10.670  0.1921E+02  0.1811E+02  0.6514E+03
  10.680  0.1943E+02  0.2002E+02  0.6518E+03
  10.690  0.1905E+02  0.2006E+02  0.6522E+03
  10.700  0.1833E+02  0.1933E+02  0.6526E+03
  10.710  0.1746E+02  0.1807E+02  0.6530E+03
  10.720  0.1721E+02  0.1644E+02  0.6533E+03
  10.730  0.1741E+02  0.1514E+02  0.6536E+03
  10.740  0.1920E+02  0.1594E+02  0.6540E+03
  10.750  0.2000E+02  0.1742E+02  0.6543E+03
  10.760  0.1932E+02  0.1951E+02  0.6547E+03
  10.770  0.1804E+02  0.1997E+02  0.6551E+03
  10.780  0.1645E+02  0.1924E+02  0.6555E+03
  10.790  0.1508E+02  0.1790E+02  0.6558E+03
  10.800  0.1336E+02  0.1639E+02  0.6561E+03
  10.810  0.1239E+02  0.1454E+02  0.6564E+03
  10.820  0.1103E+02  0.1304E+02  0.6567E+03
  10.830  0.8594E+01  0.1192E+02  0.6569E+03
  10.840  0.7137E+01  0.1037E+02  0.6571E+03
  10.850  0.6821E+01  0.8748E+01  0.6573E+03
  10.860  0.6595E+01  0.7424E+01  0.6574E+03
  10.870  0.1004E+02  0.6807E+01  0.6576E+03
  10.880  0.1312E+02  0.8987E+01  0.6578E+03
  10.890  0.1294E+02  0.1110E+02  0.6580E+03
  10.900  0.1335E+02  0.1143E+02  0.6582E+03
  10.910  0.1362E+02  0.1199E+02  0.6585E+03
  10.920  0.1364E+02  0.1271E+02  0.6587E+03
  10.930  0.1329E+02  0.1360E+02  0.6590E+03
  10.940  0.1234E+02  0.1435E+02  0.6593E+03
  10.950  0.1505E+02  0.1366E+02  0.6596E+03
  10.960  0.8942E+01  0.1231E+02  0.6598E+03
  10.970  0.8931E+01  0.1803E+02  0.6600E+03
  10.980  0.9651E+01  0.9366E+01  0.6602E+03
  10.990  0.1091E+02  0.9632E+01  0.6604E+03
  11.000  0.1223E+02  0.1081E+02  0.6607E+03
  11.010  0.1379E+02  0.1208E+02  0.6609E+03
  11.020  0.1613E+02  0.1348E+02  0.6612E+03
  11.030  0.1839E+02  0.1548E+02  0.6615E+03
  11.040  0.2365E+02  0.1778E+02  0.6619E+03
  11.050  0.2386E+02  0.2083E+02  0.6623E+03
  11.060  0.2200E+02  0.2138E+02  0.6628E+03
  11.070  0.2100E+02  0.2119E+02  0.6632E+03
  11.080  0.1787E+02  0.2097E+02  0.6636E+03
  11.090  0.1709E+02  0.1881E+02  0.6640E+03
  11.100  0.1553E+02  0.1710E+02  0.6643E+03
  11.110  0.1372E+02  0.1590E+02  0.6646E+03
  11.120  0.1186E+02  0.1404E+02  0.6649E+03
  11.130  0.1009E+02  0.1242E+02  0.6651E+03
  11.140  0.8458E+01  0.1086E+02  0.6653E+03
  11.150  0.7584E+01  0.9397E+01  0.6655E+03
  11.160  0.7439E+01  0.8117E+01  0.6657E+03
  11.170  0.7382E+01  0.7439E+01  0.6658E+03
  11.180  0.7349E+01  0.7169E+01  0.6660E+03
  11.190  0.7356E+01  0.7111E+01  0.6661E+03
  11.200  0.6745E+01  0.7085E+01  0.6663E+03
  11.210  0.6995E+01  0.7073E+01  0.6664E+03
  11.220  0.7199E+01  0.7095E+01  0.6666E+03
  11.230  0.7204E+01  0.6589E+01  0.6667E+03
  11.240  0.7168E+01  0.6730E+01  0.6668E+03
  11.250  0.7151E+01  0.7098E+01  0.6670E+03
  11.260  0.7841E+01  0.7304E+01  0.6671E+03
  11.270  0.8685E+01  0.7300E+01  0.6673E+03
  11.280  0.9434E+01  0.7313E+01  0.6674E+03
  11.290  0.1008E+02  0.7350E+01  0.6676E+03
  11.300  0.1066E+02  0.8127E+01  0.6678E+03
  11.310  0.1133E+02  0.9700E+01  0.6680E+03
  11.320  0.1178E+02  0.1197E+02  0.6682E+03
  11.330  0.1185E+02  0.1270E+02  0.6685E+03
  11.340  0.1210E+02  0.1311E+02  0.6687E+03
  11.350  0.1267E+02  0.1349E+02  0.6690E+03
  11.360  0.1366E+02  0.1387E+02  0.6692E+03
  11.370  0.1485E+02  0.1478E+02  0.6695E+03
  11.380  0.1630E+02  0.1586E+02  0.6698E+03
  11.390  0.1814E+02  0.1727E+02  0.6702E+03
  11.400  0.2013E+02  0.1906E+02  0.6705E+03
  11.410  0.2225E+02  0.2095E+02  0.6709E+03
  11.420  0.2451E+02  0.2294E+02  0.6714E+03
  11.430  0.2633E+02  0.2501E+02  0.6719E+03
  11.440  0.2693E+02  0.2667E+02  0.6724E+03
  11.450  0.2794E+02  0.2729E+02  0.6730E+03
  11.460  0.2910E+02  0.2811E+02  0.6735E+03
  11.470  0.2979E+02  0.2925E+02  0.6741E+03
  11.480  0.2960E+02  0.2985E+02  0.6747E+03
  11.490  0.2894E+02  0.2946E+02  0.6753E+03
  11.500  0.2743E+02  0.2881E+02  0.6759E+03
  11.510  0.2594E+02  0.2737E+02  0.6764E+03
  11.520  0.2517E+02  0.2568E+02  0.6769E+03
  11.530  0.2369E+02  0.2460E+02  0.6774E+03
  11.540  0.2198E+02  0.2294E+02  0.6779E+03
  11.550  0.2366E+02  0.2246E+02  0.6784E+03
  11.560  0.2013E+02  0.2287E+02  0.6788E+03
  11.570  0.2075E+02  0.2041E+02  0.6792E+03
  11.580  0.2156E+02  0.2009E+02  0.6796E+03
  11.590  0.2215E+02  0.2047E+02  0.6800E+03
  11.600  0.2344E+02  0.2125E+02  0.6805E+03
  11.610  0.2445E+02  0.2180E+02  0.6809E+03
  11.620  0.2494E+02  0.2288E+02  0.6814E+03
  11.630  0.2464E+02  0.2456E+02  0.6819E+03
  11.640  0.2626E+02  0.2447E+02  0.6824E+03
  11.650  0.2645E+02  0.2591E+02  0.6829E+03
  11.660  0.2667E+02  0.2701E+02  0.6835E+03
  11.670  0.2870E+02  0.2723E+02  0.6840E+03
  11.680  0.2975E+02  0.2891E+02  0.6846E+03
  11.690  0.2826E+02  0.2925E+02  0.6852E+03
  11.700  0.2661E+02  0.2632E+02  0.6857E+03
  11.710  0.2671E+02  0.2382E+02  0.6862E+03
  11.720  0.2610E+02  0.2452E+02  0.6867E+03
  11.730  0.2471E+02  0.2901E+02  0.6873E+03
  11.740  0.2315E+02  0.2501E+02  0.6878E+03
  11.750  0.2229E+02  0.2395E+02  0.6882E+03
  11.760  0.2208E+02  0.2338E+02  0.6887E+03
  11.770  0.2212E+02  0.2255E+02  0.6892E+03
  11.780  0.2554E+02  0.2258E+02  0.6896E+03
  11.790  0.2506E+02  0.2422E+02  0.6901E+03
  11.800  0.2442E+02  0.2731E+02  0.6906E+03
  11.810  0.2372E+02  0.2472E+02  0.6911E+03
  11.820  0.2289E+02  0.2415E+02  0.6916E+03
  11.830  0.2192E+02  0.2327E+02  0.6920E+03
  11.840  0.2093E+02  0.2235E+02  0.6925E+03
  11.850  0.2012E+02  0.2133E+02  0.6929E+03
  11.860  0.1935E+02  0.2039E+02  0.6933E+03
  11.870  0.1820E+02  0.1952E+02  0.6937E+03
  11.880  0.1672E+02  0.1846E+02  0.6941E+03
  11.890  0.1507E+02  0.1725E+02  0.6944E+03
  11.900  0.1383E+02  0.1581E+02  0.6947E+03
  11.910  0.1274E+02  0.1431E+02  0.6950E+03
  11.920  0.1171E+02  0.1327E+02  0.6953E+03
  11.930  0.1075E+02  0.1220E+02  0.6955E+03
  11.940  0.9903E+01  0.1121E+02  0.6957E+03
  11.950  0.9367E+01  0.1036E+02  0.6959E+03
  11.960  0.9167E+01  0.9654E+01  0.6961E+03
  11.970  0.9541E+01  0.9760E+01  0.6963E+03
  11.980  0.9046E+01  0.9894E+01  0.6965E+03
  11.990  0.8519E+01  0.9233E+01  0.6967E+03
  12.000  0.7937E+01  0.8695E+01  0.6969E+03
  12.010  0.7298E+01  0.8111E+01  0.6970E+03
  12.020  0.6600E+01  0.7464E+01  0.6972E+03
  12.030  0.5841E+01  0.6755E+01  0.6973E+03
  12.040  0.5020E+01  0.5981E+01  0.6974E+03
  12.050  0.4197E+01  0.5137E+01  0.6975E+03
  12.060  0.3455E+01  0.4262E+01  0.6976E+03
  12.070  0.2827E+01  0.3492E+01  0.6977E+03
  12.080  0.2386E+01  0.2838E+01  0.6977E+03
  12.090  0.2046E+01  0.2412E+01  0.6978E+03
  12.100  0.1752E+01  0.2081E+01  0.6978E+03
  12.110  0.1487E+01  0.1784E+01  0.6979E+03
  12.120  0.1246E+01  0.1514E+01  0.6979E+03
  12.130  0.1027E+01  0.1266E+01  0.6979E+03
  12.140  0.8313E+00  0.1042E+01  0.6979E+03
  12.150  0.6580E+00  0.8410E+00  0.6979E+03
  12.160  0.5074E+00  0.6630E+00  0.6980E+03
  12.170  0.3792E+00  0.5081E+00  0.6980E+03
  12.180  0.2728E+00  0.3763E+00  0.6980E+03
  12.190  0.1879E+00  0.2677E+00  0.6980E+03
  12.200  0.1246E+00  0.1822E+00  0.6980E+03
  12.210  0.8208E-01  0.1197E+00  0.6980E+03
  12.220  0.5820E-01  0.7912E-01  0.6980E+03
  12.230  0.4855E-01  0.5785E-01  0.6980E+03
  12.240  0.4351E-01  0.4933E-01  0.6980E+03
  12.250  0.3969E-01  0.4485E-01  0.6980E+03
  12.260  0.3606E-01  0.4101E-01  0.6980E+03
  12.270  0.3259E-01  0.3734E-01  0.6980E+03
  12.280  0.2930E-01  0.3384E-01  0.6980E+03
  12.290  0.2619E-01  0.3051E-01  0.6980E+03
  12.300  0.2325E-01  0.2736E-01  0.6980E+03
  12.310  0.2049E-01  0.2437E-01  0.6980E+03
  12.320  0.1790E-01  0.2156E-01  0.6980E+03
  12.330  0.1549E-01  0.1893E-01  0.6980E+03
  12.340  0.1325E-01  0.1646E-01  0.6980E+03
  12.350  0.1118E-01  0.1417E-01  0.6980E+03
  12.360  0.9294E-02  0.1205E-01  0.6980E+03
  12.370  0.7581E-02  0.1010E-01  0.6980E+03
  12.380  0.6042E-02  0.8320E-02  0.6980E+03
  12.390  0.4678E-02  0.6715E-02  0.6980E+03
  12.400  0.3489E-02  0.5283E-02  0.6980E+03
  12.410  0.2476E-02  0.4023E-02  0.6980E+03
  12.420  0.1637E-02  0.2936E-02  0.6980E+03
  12.430  0.9733E-03  0.2021E-02  0.6980E+03
  12.440  0.4846E-03  0.1278E-02  0.6980E+03
  12.450  0.1709E-03  0.7069E-03  0.6980E+03
  12.460  0.3028E-04  0.3085E-03  0.6980E+03
  12.470  0.0000E+00  0.8239E-04  0.6980E+03
  12.480  0.0000E+00  0.6437E-05  0.6980E+03
  12.490  0.0000E+00  0.0000E+00  0.6980E+03
  12.500  0.0000E+00  0.0000E+00  0.6980E+03
  12.510  0.0000E+00  0.0000E+00  0.6980E+03
  12.520  0.0000E+00  0.0000E+00  0.6980E+03
  12.530  0.0000E+00  0.0000E+00  0.6980E+03
  12.540  0.0000E+00  0.0000E+00  0.6980E+03
  12.550  0.0000E+00  0.0000E+00  0.6980E+03
  12.560  0.0000E+00  0.0000E+00  0.6980E+03
  12.570  0.0000E+00  0.0000E+00  0.6980E+03
  12.580  0.0000E+00  0.0000E+00  0.6980E+03
  12.590  0.0000E+00  0.0000E+00  0.6980E+03
  12.600  0.0000E+00  0.0000E+00  0.6980E+03
  12.610  0.0000E+00  0.0000E+00  0.6980E+03
  12.620  0.0000E+00  0.0000E+00  0.6980E+03
  12.630  0.0000E+00  0.0000E+00  0.6980E+03
  12.640  0.0000E+00  0.0000E+00  0.6980E+03
  12.650  0.0000E+00  0.0000E+00  0.6980E+03
  12.660  0.0000E+00  0.0000E+00  0.6980E+03
  12.670  0.0000E+00  0.0000E+00  0.6980E+03
  12.680  0.0000E+00  0.0000E+00  0.6980E+03
  12.690  0.0000E+00  0.0000E+00  0.6980E+03
  12.700  0.0000E+00  0.0000E+00  0.6980E+03
  12.710  0.0000E+00  0.0000E+00  0.6980E+03
  12.720  0.0000E+00  0.0000E+00  0.6980E+03
  12.730  0.0000E+00  0.0000E+00  0.6980E+03
  12.740  0.0000E+00  0.0000E+00  0.6980E+03
  12.750  0.0000E+00  0.0000E+00  0.6980E+03
  12.760  0.0000E+00  0.0000E+00  0.6980E+03
  12.770  0.0000E+00  0.0000E+00  0.6980E+03
  12.780  0.0000E+00  0.0000E+00  0.6980E+03
  12.790  0.0000E+00  0.0000E+00  0.6980E+03
  12.800  0.0000E+00  0.0000E+00  0.6980E+03
  12.810  0.0000E+00  0.0000E+00  0.6980E+03
  12.820  0.0000E+00  0.0000E+00  0.6980E+03
  12.830  0.0000E+00  0.0000E+00  0.6980E+03
  12.840  0.0000E+00  0.0000E+00  0.6980E+03
  12.850  0.0000E+00  0.0000E+00  0.6980E+03
  12.860  0.0000E+00  0.0000E+00  0.6980E+03
  12.870  0.0000E+00  0.0000E+00  0.6980E+03
  12.880  0.0000E+00  0.0000E+00  0.6980E+03
  12.890  0.0000E+00  0.0000E+00  0.6980E+03
  12.900  0.0000E+00  0.0000E+00  0.6980E+03
  12.910  0.0000E+00  0.0000E+00  0.6980E+03
  12.920  0.0000E+00  0.0000E+00  0.6980E+03
  12.930  0.0000E+00  0.0000E+00  0.6980E+03
  12.940  0.0000E+00  0.0000E+00  0.6980E+03
  12.950  0.0000E+00  0.0000E+00  0.6980E+03
  12.960  0.0000E+00  0.0000E+00  0.6980E+03
  12.970  0.0000E+00  0.0000E+00  0.6980E+03
  12.980  0.0000E+00  0.0000E+00  0.6980E+03
  12.990  0.0000E+00  0.0000E+00  0.6980E+03
  13.000  0.0000E+00  0.0000E+00  0.6980E+03
  13.010  0.0000E+00  0.0000E+00  0.6980E+03
  13.020  0.0000E+00  0.0000E+00  0.6980E+03
  13.030  0.0000E+00  0.0000E+00  0.6980E+03
  13.040  0.0000E+00  0.0000E+00  0.6980E+03
  13.050  0.0000E+00  0.0000E+00  0.6980E+03
  13.060  0.0000E+00  0.0000E+00  0.6980E+03
  13.070  0.0000E+00  0.0000E+00  0.6980E+03
  13.080  0.0000E+00  0.0000E+00  0.6980E+03
  13.090  0.0000E+00  0.0000E+00  0.6980E+03
  13.100  0.0000E+00  0.0000E+00  0.6980E+03
  13.110  0.0000E+00  0.0000E+00  0.6980E+03
  13.120  0.0000E+00  0.0000E+00  0.6980E+03
  13.130  0.0000E+00  0.0000E+00  0.6980E+03
  13.140  0.0000E+00  0.0000E+00  0.6980E+03
  13.150  0.0000E+00  0.0000E+00  0.6980E+03
  13.160  0.0000E+00  0.0000E+00  0.6980E+03
  13.170  0.0000E+00  0.0000E+00  0.6980E+03
  13.180  0.0000E+00  0.0000E+00  0.6980E+03
  13.190  0.0000E+00  0.0000E+00  0.6980E+03
  13.200  0.0000E+00  0.0000E+00  0.6980E+03
  13.210  0.0000E+00  0.0000E+00  0.6980E+03
  13.220  0.0000E+00  0.0000E+00  0.6980E+03
  13.230  0.0000E+00  0.0000E+00  0.6980E+03
  13.240  0.0000E+00  0.0000E+00  0.6980E+03
  13.250  0.0000E+00  0.0000E+00  0.6980E+03
  13.260  0.0000E+00  0.0000E+00  0.6980E+03
  13.270  0.0000E+00  0.0000E+00  0.6980E+03
  13.280  0.0000E+00  0.0000E+00  0.6980E+03
  13.290  0.0000E+00  0.0000E+00  0.6980E+03
  13.300  0.0000E+00  0.0000E+00  0.6980E+03
  13.310  0.0000E+00  0.0000E+00  0.6980E+03
  13.320  0.0000E+00  0.0000E+00  0.6980E+03
  13.330  0.0000E+00  0.0000E+00  0.6980E+03
  13.340  0.0000E+00  0.0000E+00  0.6980E+03
  13.350  0.0000E+00  0.0000E+00  0.6980E+03
  13.360  0.0000E+00  0.0000E+00  0.6980E+03
  13.370  0.0000E+00  0.0000E+00  0.6980E+03
  13.380  0.0000E+00  0.0000E+00  0.6980E+03
  13.390  0.0000E+00  0.0000E+00  0.6980E+03
  13.400  0.0000E+00  0.0000E+00  0.6980E+03
  13.410  0.0000E+00  0.0000E+00  0.6980E+03
  13.420  0.0000E+00  0.0000E+00  0.6980E+03
  13.430  0.0000E+00  0.0000E+00  0.6980E+03
  13.440  0.0000E+00  0.0000E+00  0.6980E+03
  13.450  0.0000E+00  0.0000E+00  0.6980E+03
  13.460  0.0000E+00  0.0000E+00  0.6980E+03
  13.470  0.0000E+00  0.0000E+00  0.6980E+03
  13.480  0.0000E+00  0.0000E+00  0.6980E+03
  13.490  0.0000E+00  0.0000E+00  0.6980E+03
  13.500  0.0000E+00  0.0000E+00  0.6980E+03
  13.510  0.0000E+00  0.0000E+00  0.6980E+03
  13.520  0.0000E+00  0.0000E+00  0.6980E+03
  13.530  0.0000E+00  0.0000E+00  0.6980E+03
  13.540  0.0000E+00  0.0000E+00  0.6980E+03
  13.550  0.0000E+00  0.0000E+00  0.6980E+03
  13.560  0.0000E+00  0.0000E+00  0.6980E+03
  13.570  0.0000E+00  0.0000E+00  0.6980E+03
  13.580  0.0000E+00  0.0000E+00  0.6980E+03
  13.590  0.0000E+00  0.0000E+00  0.6980E+03
  13.600  0.0000E+00  0.0000E+00  0.6980E+03
  13.610  0.0000E+00  0.0000E+00  0.6980E+03
  13.620  0.0000E+00  0.0000E+00  0.6980E+03
  13.630  0.0000E+00  0.0000E+00  0.6980E+03
  13.640  0.0000E+00  0.0000E+00  0.6980E+03
  13.650  0.0000E+00  0.0000E+00  0.6980E+03
  13.660  0.0000E+00  0.0000E+00  0.6980E+03
  13.670  0.0000E+00  0.0000E+00  0.6980E+03
  13.680  0.0000E+00  0.0000E+00  0.6980E+03
  13.690  0.0000E+00  0.0000E+00  0.6980E+03
  13.700  0.0000E+00  0.0000E+00  0.6980E+03
  13.710  0.0000E+00  0.0000E+00  0.6980E+03
  13.720  0.0000E+00  0.0000E+00  0.6980E+03
  13.730  0.0000E+00  0.0000E+00  0.6980E+03
  13.740  0.0000E+00  0.0000E+00  0.6980E+03
  13.750  0.0000E+00  0.0000E+00  0.6980E+03
  13.760  0.0000E+00  0.0000E+00  0.6980E+03
  13.770  0.0000E+00  0.0000E+00  0.6980E+03
  13.780  0.0000E+00  0.0000E+00  0.6980E+03
  13.790  0.0000E+00  0.0000E+00  0.6980E+03
  13.800  0.0000E+00  0.0000E+00  0.6980E+03
  13.810  0.0000E+00  0.0000E+00  0.6980E+03
  13.820  0.0000E+00  0.0000E+00  0.6980E+03
  13.830  0.0000E+00  0.0000E+00  0.6980E+03
  13.840  0.0000E+00  0.0000E+00  0.6980E+03
  13.850  0.0000E+00  0.0000E+00  0.6980E+03
  13.860  0.0000E+00  0.0000E+00  0.6980E+03
  13.870  0.0000E+00  0.0000E+00  0.6980E+03
  13.880  0.0000E+00  0.0000E+00  0.6980E+03
  13.890  0.0000E+00  0.0000E+00  0.6980E+03
  13.900  0.0000E+00  0.0000E+00  0.6980E+03
  13.910  0.0000E+00  0.0000E+00  0.6980E+03
  13.920  0.0000E+00  0.0000E+00  0.6980E+03
  13.930  0.0000E+00  0.0000E+00  0.6980E+03
  13.940  0.0000E+00  0.0000E+00  0.6980E+03
  13.950  0.0000E+00  0.0000E+00  0.6980E+03
  13.960  0.0000E+00  0.0000E+00  0.6980E+03
  13.970  0.0000E+00  0.0000E+00  0.6980E+03
  13.980  0.0000E+00  0.0000E+00  0.6980E+03
  13.990  0.0000E+00  0.0000E+00  0.6980E+03
  14.000  0.0000E+00  0.0000E+00  0.6980E+03
  14.010  0.0000E+00  0.0000E+00  0.6980E+03
  14.020  0.0000E+00  0.0000E+00  0.6980E+03
  14.030  0.0000E+00  0.0000E+00  0.6980E+03
  14.040  0.0000E+00  0.0000E+00  0.6980E+03
  14.050  0.0000E+00  0.0000E+00  0.6980E+03
  14.060  0.0000E+00  0.0000E+00  0.6980E+03
  14.070  0.0000E+00  0.0000E+00  0.6980E+03
  14.080  0.0000E+00  0.0000E+00  0.6980E+03
  14.090  0.0000E+00  0.0000E+00  0.6980E+03
  14.100  0.0000E+00  0.0000E+00  0.6980E+03
  14.110  0.0000E+00  0.0000E+00  0.6980E+03
  14.120  0.0000E+00  0.0000E+00  0.6980E+03
  14.130  0.0000E+00  0.0000E+00  0.6980E+03
  14.140  0.0000E+00  0.0000E+00  0.6980E+03
  14.150  0.0000E+00  0.0000E+00  0.6980E+03
  14.160  0.0000E+00  0.0000E+00  0.6980E+03
  14.170  0.0000E+00  0.0000E+00  0.6980E+03
  14.180  0.0000E+00  0.0000E+00  0.6980E+03
  14.190  0.0000E+00  0.0000E+00  0.6980E+03
  14.200  0.0000E+00  0.0000E+00  0.6980E+03
  14.210  0.0000E+00  0.0000E+00  0.6980E+03
  14.220  0.0000E+00  0.0000E+00  0.6980E+03
  14.230  0.0000E+00  0.0000E+00  0.6980E+03
  14.240  0.0000E+00  0.0000E+00  0.6980E+03
  14.250  0.0000E+00  0.0000E+00  0.6980E+03
  14.260  0.0000E+00  0.0000E+00  0.6980E+03
  14.270  0.0000E+00  0.0000E+00  0.6980E+03
  14.280  0.0000E+00  0.0000E+00  0.6980E+03
  14.290  0.0000E+00  0.0000E+00  0.6980E+03
  14.300  0.0000E+00  0.0000E+00  0.6980E+03
  14.310  0.0000E+00  0.0000E+00  0.6980E+03
  14.320  0.0000E+00  0.0000E+00  0.6980E+03
  14.330  0.0000E+00  0.0000E+00  0.6980E+03
  14.340  0.0000E+00  0.0000E+00  0.6980E+03
  14.350  0.0000E+00  0.0000E+00  0.6980E+03
  14.360  0.0000E+00  0.0000E+00  0.6980E+03
  14.370  0.0000E+00  0.0000E+00  0.6980E+03
  14.380  0.0000E+00  0.0000E+00  0.6980E+03
  14.390  0.0000E+00  0.0000E+00  0.6980E+03
  14.400  0.0000E+00  0.0000E+00  0.6980E+03
  14.410  0.0000E+00  0.0000E+00  0.6980E+03
  14.420  0.0000E+00  0.0000E+00  0.6980E+03
  14.430  0.0000E+00  0.0000E+00  0.6980E+03
  14.440  0.0000E+00  0.0000E+00  0.6980E+03
  14.450  0.0000E+00  0.0000E+00  0.6980E+03
  14.460  0.0000E+00  0.0000E+00  0.6980E+03
  14.470  0.0000E+00  0.0000E+00  0.6980E+03
  14.480  0.0000E+00  0.0000E+00  0.6980E+03
  14.490  0.0000E+00  0.0000E+00  0.6980E+03
  14.500  0.0000E+00  0.0000E+00  0.6980E+03
  14.510  0.0000E+00  0.0000E+00  0.6980E+03
  14.520  0.0000E+00  0.0000E+00  0.6980E+03
  14.530  0.0000E+00  0.0000E+00  0.6980E+03
  14.540  0.0000E+00  0.0000E+00  0.6980E+03
  14.550  0.0000E+00  0.0000E+00  0.6980E+03
  14.560  0.0000E+00  0.0000E+00  0.6980E+03
  14.570  0.0000E+00  0.0000E+00  0.6980E+03
  14.580  0.0000E+00  0.0000E+00  0.6980E+03
  14.590  0.0000E+00  0.0000E+00  0.6980E+03
  14.600  0.0000E+00  0.0000E+00  0.6980E+03
  14.610  0.0000E+00  0.0000E+00  0.6980E+03
  14.620  0.0000E+00  0.0000E+00  0.6980E+03
  14.630  0.0000E+00  0.0000E+00  0.6980E+03
  14.640  0.0000E+00  0.0000E+00  0.6980E+03
  14.650  0.0000E+00  0.0000E+00  0.6980E+03
  14.660  0.0000E+00  0.0000E+00  0.6980E+03
  14.670  0.0000E+00  0.0000E+00  0.6980E+03
  14.680  0.0000E+00  0.0000E+00  0.6980E+03
  14.690  0.0000E+00  0.0000E+00  0.6980E+03
  14.700  0.0000E+00  0.0000E+00  0.6980E+03
  14.710  0.0000E+00  0.0000E+00  0.6980E+03
  14.720  0.0000E+00  0.0000E+00  0.6980E+03
  14.730  0.0000E+00  0.0000E+00  0.6980E+03
  14.740  0.0000E+00  0.0000E+00  0.6980E+03
  14.750  0.0000E+00  0.0000E+00  0.6980E+03
  14.760  0.0000E+00  0.0000E+00  0.6980E+03
  14.770  0.0000E+00  0.0000E+00  0.6980E+03
  14.780  0.0000E+00  0.0000E+00  0.6980E+03
  14.790  0.0000E+00  0.0000E+00  0.6980E+03
  14.800  0.0000E+00  0.0000E+00  0.6980E+03
  14.810  0.0000E+00  0.0000E+00  0.6980E+03
  14.820  0.0000E+00  0.0000E+00  0.6980E+03
  14.830  0.0000E+00  0.0000E+00  0.6980E+03
  14.840  0.0000E+00  0.0000E+00  0.6980E+03
  14.850  0.0000E+00  0.0000E+00  0.6980E+03
  14.860  0.0000E+00  0.0000E+00  0.6980E+03
  14.870  0.0000E+00  0.0000E+00  0.6980E+03
  14.880  0.0000E+00  0.0000E+00  0.6980E+03
  14.890  0.0000E+00  0.0000E+00  0.6980E+03
  14.900  0.0000E+00  0.0000E+00  0.6980E+03
  14.910  0.0000E+00  0.0000E+00  0.6980E+03
  14.920  0.0000E+00  0.0000E+00  0.6980E+03
  14.930  0.0000E+00  0.0000E+00  0.6980E+03
  14.940  0.0000E+00  0.0000E+00  0.6980E+03
  14.950  0.0000E+00  0.0000E+00  0.6980E+03
  14.960  0.0000E+00  0.0000E+00  0.6980E+03
  14.970  0.0000E+00  0.0000E+00  0.6980E+03
  14.980  0.0000E+00  0.0000E+00  0.6980E+03
  14.990  0.0000E+00  0.0000E+00  0.6980E+03
  15.000  0.0000E+00  0.0000E+00  0.6980E+03
