# E (eV)   ldos(E)   pdos(E)    pdos(E)    pdos(E)   
   0.000  0.919E-01  0.306E-01  0.306E-01  0.306E-01
   0.010  0.508E-01  0.169E-01  0.169E-01  0.169E-01
   0.020  0.169E-01  0.563E-02  0.563E-02  0.563E-02
   0.030  0.112E-01  0.372E-02  0.372E-02  0.372E-02
   0.040  0.205E-01  0.683E-02  0.683E-02  0.683E-02
   0.050  0.265E-02  0.884E-03  0.884E-03  0.884E-03
   0.060  0.641E-03  0.214E-03  0.214E-03  0.214E-03
   0.070  0.972E-03  0.324E-03  0.324E-03  0.324E-03
   0.080  0.158E-02  0.526E-03  0.526E-03  0.526E-03
   0.090  0.284E-02  0.947E-03  0.947E-03  0.947E-03
   0.100  0.635E-02  0.212E-02  0.212E-02  0.212E-02
   0.110  0.105E-01  0.351E-02  0.351E-02  0.351E-02
   0.120  0.142E-01  0.473E-02  0.473E-02  0.473E-02
   0.130  0.174E-01  0.581E-02  0.581E-02  0.581E-02
   0.140  0.203E-01  0.677E-02  0.677E-02  0.677E-02
   0.150  0.228E-01  0.762E-02  0.762E-02  0.762E-02
   0.160  0.251E-01  0.836E-02  0.836E-02  0.836E-02
   0.170  0.270E-01  0.900E-02  0.900E-02  0.900E-02
   0.180  0.287E-01  0.955E-02  0.955E-02  0.955E-02
   0.190  0.301E-01  0.100E-01  0.100E-01  0.100E-01
   0.200  0.313E-01  0.104E-01  0.104E-01  0.104E-01
   0.210  0.323E-01  0.108E-01  0.108E-01  0.108E-01
   0.220  0.330E-01  0.110E-01  0.110E-01  0.110E-01
   0.230  0.334E-01  0.111E-01  0.111E-01  0.111E-01
   0.240  0.342E-01  0.114E-01  0.114E-01  0.114E-01
   0.250  0.360E-01  0.120E-01  0.120E-01  0.120E-01
   0.260  0.381E-01  0.127E-01  0.127E-01  0.127E-01
   0.270  0.401E-01  0.134E-01  0.134E-01  0.134E-01
   0.280  0.420E-01  0.140E-01  0.140E-01  0.140E-01
   0.290  0.439E-01  0.146E-01  0.146E-01  0.146E-01
   0.300  0.458E-01  0.153E-01  0.153E-01  0.153E-01
   0.310  0.476E-01  0.159E-01  0.159E-01  0.159E-01
   0.320  0.491E-01  0.164E-01  0.164E-01  0.164E-01
   0.330  0.502E-01  0.167E-01  0.167E-01  0.167E-01
   0.340  0.634E-01  0.211E-01  0.211E-01  0.211E-01
   0.350  0.853E-01  0.284E-01  0.284E-01  0.284E-01
   0.360  0.876E-01  0.292E-01  0.292E-01  0.292E-01
   0.370  0.887E-01  0.296E-01  0.296E-01  0.296E-01
   0.380  0.885E-01  0.295E-01  0.295E-01  0.295E-01
   0.390  0.873E-01  0.291E-01  0.291E-01  0.291E-01
   0.400  0.854E-01  0.285E-01  0.285E-01  0.285E-01
   0.410  0.844E-01  0.281E-01  0.281E-01  0.281E-01
   0.420  0.854E-01  0.285E-01  0.285E-01  0.285E-01
   0.430  0.805E-01  0.268E-01  0.268E-01  0.268E-01
   0.440  0.781E-01  0.260E-01  0.260E-01  0.260E-01
   0.450  0.789E-01  0.263E-01  0.263E-01  0.263E-01
   0.460  0.801E-01  0.267E-01  0.267E-01  0.267E-01
   0.470  0.813E-01  0.271E-01  0.271E-01  0.271E-01
   0.480  0.825E-01  0.275E-01  0.275E-01  0.275E-01
   0.490  0.838E-01  0.279E-01  0.279E-01  0.279E-01
   0.500  0.850E-01  0.283E-01  0.283E-01  0.283E-01
   0.510  0.863E-01  0.288E-01  0.288E-01  0.288E-01
   0.520  0.876E-01  0.292E-01  0.292E-01  0.292E-01
   0.530  0.953E-01  0.318E-01  0.318E-01  0.318E-01
   0.540  0.108E+00  0.359E-01  0.359E-01  0.359E-01
   0.550  0.115E+00  0.385E-01  0.385E-01  0.385E-01
   0.560  0.122E+00  0.406E-01  0.406E-01  0.406E-01
   0.570  0.132E+00  0.441E-01  0.441E-01  0.441E-01
   0.580  0.139E+00  0.465E-01  0.465E-01  0.465E-01
   0.590  0.133E+00  0.445E-01  0.445E-01  0.445E-01
   0.600  0.110E+00  0.366E-01  0.366E-01  0.366E-01
   0.610  0.102E+00  0.338E-01  0.338E-01  0.338E-01
   0.620  0.104E+00  0.348E-01  0.348E-01  0.348E-01
   0.630  0.112E+00  0.374E-01  0.374E-01  0.374E-01
   0.640  0.122E+00  0.406E-01  0.406E-01  0.406E-01
   0.650  0.138E+00  0.461E-01  0.461E-01  0.461E-01
   0.660  0.340E+00  0.113E+00  0.113E+00  0.113E+00
   0.670  0.169E+00  0.564E-01  0.564E-01  0.564E-01
   0.680  0.176E+00  0.588E-01  0.588E-01  0.588E-01
   0.690  0.228E+00  0.760E-01  0.760E-01  0.760E-01
   0.700  0.258E+00  0.861E-01  0.861E-01  0.861E-01
   0.710  0.104E+00  0.347E-01  0.347E-01  0.347E-01
   0.720  0.571E-01  0.190E-01  0.190E-01  0.190E-01
   0.730  0.504E-01  0.168E-01  0.168E-01  0.168E-01
   0.740  0.443E-01  0.148E-01  0.148E-01  0.148E-01
   0.750  0.406E-01  0.135E-01  0.135E-01  0.135E-01
   0.760  0.372E-01  0.124E-01  0.124E-01  0.124E-01
   0.770  0.314E-01  0.105E-01  0.105E-01  0.105E-01
   0.780  0.235E-01  0.784E-02  0.784E-02  0.784E-02
   0.790  0.180E-01  0.602E-02  0.602E-02  0.602E-02
   0.800  0.192E-01  0.640E-02  0.640E-02  0.640E-02
   0.810  0.330E-01  0.110E-01  0.110E-01  0.110E-01
   0.820  0.452E-01  0.151E-01  0.151E-01  0.151E-01
   0.830  0.527E-01  0.176E-01  0.176E-01  0.176E-01
   0.840  0.593E-01  0.198E-01  0.198E-01  0.198E-01
   0.850  0.670E-01  0.223E-01  0.223E-01  0.223E-01
   0.860  0.743E-01  0.248E-01  0.248E-01  0.248E-01
   0.870  0.794E-01  0.265E-01  0.265E-01  0.265E-01
   0.880  0.829E-01  0.276E-01  0.276E-01  0.276E-01
   0.890  0.857E-01  0.286E-01  0.286E-01  0.286E-01
   0.900  0.881E-01  0.294E-01  0.294E-01  0.294E-01
   0.910  0.901E-01  0.300E-01  0.300E-01  0.300E-01
   0.920  0.917E-01  0.306E-01  0.306E-01  0.306E-01
   0.930  0.927E-01  0.309E-01  0.309E-01  0.309E-01
   0.940  0.933E-01  0.311E-01  0.311E-01  0.311E-01
   0.950  0.933E-01  0.311E-01  0.311E-01  0.311E-01
   0.960  0.924E-01  0.308E-01  0.308E-01  0.308E-01
   0.970  0.905E-01  0.302E-01  0.302E-01  0.302E-01
   0.980  0.876E-01  0.292E-01  0.292E-01  0.292E-01
   0.990  0.832E-01  0.277E-01  0.277E-01  0.277E-01
   1.000  0.770E-01  0.257E-01  0.257E-01  0.257E-01
   1.010  0.703E-01  0.234E-01  0.234E-01  0.234E-01
   1.020  0.658E-01  0.219E-01  0.219E-01  0.219E-01
   1.030  0.624E-01  0.208E-01  0.208E-01  0.208E-01
   1.040  0.601E-01  0.200E-01  0.200E-01  0.200E-01
   1.050  0.578E-01  0.193E-01  0.193E-01  0.193E-01
   1.060  0.553E-01  0.184E-01  0.184E-01  0.184E-01
   1.070  0.528E-01  0.176E-01  0.176E-01  0.176E-01
   1.080  0.502E-01  0.167E-01  0.167E-01  0.167E-01
   1.090  0.476E-01  0.159E-01  0.159E-01  0.159E-01
   1.100  0.459E-01  0.153E-01  0.153E-01  0.153E-01
   1.110  0.462E-01  0.154E-01  0.154E-01  0.154E-01
   1.120  0.474E-01  0.158E-01  0.158E-01  0.158E-01
   1.130  0.483E-01  0.161E-01  0.161E-01  0.161E-01
   1.140  0.489E-01  0.163E-01  0.163E-01  0.163E-01
   1.150  0.492E-01  0.164E-01  0.164E-01  0.164E-01
   1.160  0.493E-01  0.164E-01  0.164E-01  0.164E-01
   1.170  0.491E-01  0.164E-01  0.164E-01  0.164E-01
   1.180  0.488E-01  0.163E-01  0.163E-01  0.163E-01
   1.190  0.483E-01  0.161E-01  0.161E-01  0.161E-01
   1.200  0.478E-01  0.159E-01  0.159E-01  0.159E-01
   1.210  0.471E-01  0.157E-01  0.157E-01  0.157E-01
   1.220  0.464E-01  0.155E-01  0.155E-01  0.155E-01
   1.230  0.456E-01  0.152E-01  0.152E-01  0.152E-01
   1.240  0.449E-01  0.150E-01  0.150E-01  0.150E-01
   1.250  0.440E-01  0.147E-01  0.147E-01  0.147E-01
   1.260  0.431E-01  0.144E-01  0.144E-01  0.144E-01
   1.270  0.422E-01  0.141E-01  0.141E-01  0.141E-01
   1.280  0.412E-01  0.137E-01  0.137E-01  0.137E-01
   1.290  0.402E-01  0.134E-01  0.134E-01  0.134E-01
   1.300  0.393E-01  0.131E-01  0.131E-01  0.131E-01
   1.310  0.385E-01  0.128E-01  0.128E-01  0.128E-01
   1.320  0.376E-01  0.125E-01  0.125E-01  0.125E-01
   1.330  0.369E-01  0.123E-01  0.123E-01  0.123E-01
   1.340  0.364E-01  0.121E-01  0.121E-01  0.121E-01
   1.350  0.367E-01  0.122E-01  0.122E-01  0.122E-01
   1.360  0.372E-01  0.124E-01  0.124E-01  0.124E-01
   1.370  0.378E-01  0.126E-01  0.126E-01  0.126E-01
   1.380  0.390E-01  0.130E-01  0.130E-01  0.130E-01
   1.390  0.418E-01  0.139E-01  0.139E-01  0.139E-01
   1.400  0.450E-01  0.150E-01  0.150E-01  0.150E-01
   1.410  0.462E-01  0.154E-01  0.154E-01  0.154E-01
   1.420  0.439E-01  0.146E-01  0.146E-01  0.146E-01
   1.430  0.391E-01  0.130E-01  0.130E-01  0.130E-01
   1.440  0.331E-01  0.110E-01  0.110E-01  0.110E-01
   1.450  0.278E-01  0.928E-02  0.928E-02  0.928E-02
   1.460  0.242E-01  0.807E-02  0.807E-02  0.807E-02
   1.470  0.224E-01  0.746E-02  0.746E-02  0.746E-02
   1.480  0.220E-01  0.732E-02  0.732E-02  0.732E-02
   1.490  0.230E-01  0.766E-02  0.766E-02  0.766E-02
   1.500  0.243E-01  0.808E-02  0.808E-02  0.808E-02
   1.510  0.253E-01  0.843E-02  0.843E-02  0.843E-02
   1.520  0.261E-01  0.870E-02  0.870E-02  0.870E-02
   1.530  0.267E-01  0.890E-02  0.890E-02  0.890E-02
   1.540  0.271E-01  0.904E-02  0.904E-02  0.904E-02
   1.550  0.274E-01  0.912E-02  0.912E-02  0.912E-02
   1.560  0.274E-01  0.915E-02  0.915E-02  0.915E-02
   1.570  0.274E-01  0.913E-02  0.913E-02  0.913E-02
   1.580  0.272E-01  0.907E-02  0.907E-02  0.907E-02
   1.590  0.269E-01  0.897E-02  0.897E-02  0.897E-02
   1.600  0.265E-01  0.884E-02  0.884E-02  0.884E-02
   1.610  0.261E-01  0.869E-02  0.869E-02  0.869E-02
   1.620  0.256E-01  0.852E-02  0.852E-02  0.852E-02
   1.630  0.250E-01  0.835E-02  0.835E-02  0.835E-02
   1.640  0.246E-01  0.819E-02  0.819E-02  0.819E-02
   1.650  0.242E-01  0.808E-02  0.808E-02  0.808E-02
   1.660  0.240E-01  0.799E-02  0.799E-02  0.799E-02
   1.670  0.237E-01  0.790E-02  0.790E-02  0.790E-02
   1.680  0.234E-01  0.781E-02  0.781E-02  0.781E-02
   1.690  0.232E-01  0.774E-02  0.774E-02  0.774E-02
   1.700  0.230E-01  0.768E-02  0.768E-02  0.768E-02
   1.710  0.228E-01  0.759E-02  0.759E-02  0.759E-02
   1.720  0.225E-01  0.750E-02  0.750E-02  0.750E-02
   1.730  0.223E-01  0.742E-02  0.742E-02  0.742E-02
   1.740  0.222E-01  0.740E-02  0.740E-02  0.740E-02
   1.750  0.224E-01  0.746E-02  0.746E-02  0.746E-02
   1.760  0.226E-01  0.755E-02  0.755E-02  0.755E-02
   1.770  0.229E-01  0.764E-02  0.764E-02  0.764E-02
   1.780  0.232E-01  0.774E-02  0.774E-02  0.774E-02
   1.790  0.236E-01  0.785E-02  0.785E-02  0.785E-02
   1.800  0.239E-01  0.797E-02  0.797E-02  0.797E-02
   1.810  0.242E-01  0.808E-02  0.808E-02  0.808E-02
   1.820  0.245E-01  0.818E-02  0.818E-02  0.818E-02
   1.830  0.248E-01  0.828E-02  0.828E-02  0.828E-02
   1.840  0.251E-01  0.837E-02  0.837E-02  0.837E-02
   1.850  0.254E-01  0.846E-02  0.846E-02  0.846E-02
   1.860  0.257E-01  0.855E-02  0.855E-02  0.855E-02
   1.870  0.259E-01  0.864E-02  0.864E-02  0.864E-02
   1.880  0.263E-01  0.876E-02  0.876E-02  0.876E-02
   1.890  0.265E-01  0.883E-02  0.883E-02  0.883E-02
   1.900  0.259E-01  0.862E-02  0.862E-02  0.862E-02
   1.910  0.276E-01  0.919E-02  0.919E-02  0.919E-02
   1.920  0.296E-01  0.986E-02  0.986E-02  0.986E-02
   1.930  0.283E-01  0.944E-02  0.944E-02  0.944E-02
   1.940  0.265E-01  0.884E-02  0.884E-02  0.884E-02
   1.950  0.262E-01  0.874E-02  0.874E-02  0.874E-02
   1.960  0.262E-01  0.874E-02  0.874E-02  0.874E-02
   1.970  0.264E-01  0.880E-02  0.880E-02  0.880E-02
   1.980  0.268E-01  0.893E-02  0.893E-02  0.893E-02
   1.990  0.274E-01  0.914E-02  0.914E-02  0.914E-02
   2.000  0.283E-01  0.942E-02  0.942E-02  0.942E-02
   2.010  0.292E-01  0.974E-02  0.974E-02  0.974E-02
   2.020  0.302E-01  0.101E-01  0.101E-01  0.101E-01
   2.030  0.312E-01  0.104E-01  0.104E-01  0.104E-01
   2.040  0.323E-01  0.108E-01  0.108E-01  0.108E-01
   2.050  0.334E-01  0.111E-01  0.111E-01  0.111E-01
   2.060  0.345E-01  0.115E-01  0.115E-01  0.115E-01
   2.070  0.356E-01  0.119E-01  0.119E-01  0.119E-01
   2.080  0.446E-01  0.149E-01  0.149E-01  0.149E-01
   2.090  0.566E-01  0.189E-01  0.189E-01  0.189E-01
   2.100  0.673E-01  0.224E-01  0.224E-01  0.224E-01
   2.110  0.815E-01  0.272E-01  0.272E-01  0.272E-01
   2.120  0.961E-01  0.320E-01  0.320E-01  0.320E-01
   2.130  0.109E+00  0.363E-01  0.363E-01  0.363E-01
   2.140  0.121E+00  0.402E-01  0.402E-01  0.402E-01
   2.150  0.131E+00  0.438E-01  0.438E-01  0.438E-01
   2.160  0.141E+00  0.470E-01  0.470E-01  0.470E-01
   2.170  0.150E+00  0.501E-01  0.501E-01  0.501E-01
   2.180  0.158E+00  0.526E-01  0.526E-01  0.526E-01
   2.190  0.165E+00  0.551E-01  0.551E-01  0.551E-01
   2.200  0.171E+00  0.571E-01  0.571E-01  0.571E-01
   2.210  0.179E+00  0.596E-01  0.596E-01  0.596E-01
   2.220  0.193E+00  0.644E-01  0.644E-01  0.644E-01
   2.230  0.202E+00  0.674E-01  0.674E-01  0.674E-01
   2.240  0.207E+00  0.690E-01  0.690E-01  0.690E-01
   2.250  0.210E+00  0.699E-01  0.699E-01  0.699E-01
   2.260  0.211E+00  0.704E-01  0.704E-01  0.704E-01
   2.270  0.211E+00  0.705E-01  0.705E-01  0.705E-01
   2.280  0.228E+00  0.759E-01  0.759E-01  0.759E-01
   2.290  0.257E+00  0.856E-01  0.856E-01  0.856E-01
   2.300  0.311E+00  0.104E+00  0.104E+00  0.104E+00
   2.310  0.375E+00  0.125E+00  0.125E+00  0.125E+00
   2.320  0.433E+00  0.144E+00  0.144E+00  0.144E+00
   2.330  0.483E+00  0.161E+00  0.161E+00  0.161E+00
   2.340  0.552E+00  0.184E+00  0.184E+00  0.184E+00
   2.350  0.496E+00  0.165E+00  0.165E+00  0.165E+00
   2.360  0.433E+00  0.144E+00  0.144E+00  0.144E+00
   2.370  0.367E+00  0.122E+00  0.122E+00  0.122E+00
   2.380  0.302E+00  0.101E+00  0.101E+00  0.101E+00
   2.390  0.242E+00  0.807E-01  0.807E-01  0.807E-01
   2.400  0.209E+00  0.698E-01  0.698E-01  0.698E-01
   2.410  0.182E+00  0.608E-01  0.608E-01  0.608E-01
   2.420  0.183E+00  0.612E-01  0.612E-01  0.612E-01
   2.430  0.308E+00  0.103E+00  0.103E+00  0.103E+00
   2.440  0.355E+00  0.118E+00  0.118E+00  0.118E+00
   2.450  0.320E+00  0.107E+00  0.107E+00  0.107E+00
   2.460  0.217E+00  0.722E-01  0.722E-01  0.722E-01
   2.470  0.166E+00  0.555E-01  0.555E-01  0.555E-01
   2.480  0.166E+00  0.552E-01  0.552E-01  0.552E-01
   2.490  0.160E+00  0.533E-01  0.533E-01  0.533E-01
   2.500  0.159E+00  0.531E-01  0.531E-01  0.531E-01
   2.510  0.154E+00  0.514E-01  0.514E-01  0.514E-01
   2.520  0.153E+00  0.510E-01  0.510E-01  0.510E-01
   2.530  0.155E+00  0.517E-01  0.517E-01  0.517E-01
   2.540  0.158E+00  0.526E-01  0.526E-01  0.526E-01
   2.550  0.161E+00  0.537E-01  0.537E-01  0.537E-01
   2.560  0.165E+00  0.550E-01  0.550E-01  0.550E-01
   2.570  0.169E+00  0.564E-01  0.564E-01  0.564E-01
   2.580  0.173E+00  0.578E-01  0.578E-01  0.578E-01
   2.590  0.177E+00  0.591E-01  0.591E-01  0.591E-01
   2.600  0.184E+00  0.613E-01  0.613E-01  0.613E-01
   2.610  0.205E+00  0.684E-01  0.684E-01  0.684E-01
   2.620  0.238E+00  0.792E-01  0.792E-01  0.792E-01
   2.630  0.273E+00  0.911E-01  0.911E-01  0.911E-01
   2.640  0.310E+00  0.103E+00  0.103E+00  0.103E+00
   2.650  0.348E+00  0.116E+00  0.116E+00  0.116E+00
   2.660  0.386E+00  0.129E+00  0.129E+00  0.129E+00
   2.670  0.411E+00  0.137E+00  0.137E+00  0.137E+00
   2.680  0.391E+00  0.130E+00  0.130E+00  0.130E+00
   2.690  0.285E+00  0.949E-01  0.949E-01  0.949E-01
   2.700  0.257E+00  0.856E-01  0.856E-01  0.856E-01
   2.710  0.250E+00  0.833E-01  0.833E-01  0.833E-01
   2.720  0.248E+00  0.826E-01  0.826E-01  0.826E-01
   2.730  0.246E+00  0.820E-01  0.820E-01  0.820E-01
   2.740  0.244E+00  0.812E-01  0.812E-01  0.812E-01
   2.750  0.239E+00  0.797E-01  0.797E-01  0.797E-01
   2.760  0.233E+00  0.777E-01  0.777E-01  0.777E-01
   2.770  0.226E+00  0.752E-01  0.752E-01  0.752E-01
   2.780  0.216E+00  0.721E-01  0.721E-01  0.721E-01
   2.790  0.207E+00  0.689E-01  0.689E-01  0.689E-01
   2.800  0.203E+00  0.677E-01  0.677E-01  0.677E-01
   2.810  0.180E+00  0.602E-01  0.602E-01  0.602E-01
   2.820  0.277E+00  0.924E-01  0.924E-01  0.924E-01
   2.830  0.207E+00  0.690E-01  0.690E-01  0.690E-01
   2.840  0.242E+00  0.805E-01  0.805E-01  0.805E-01
   2.850  0.273E+00  0.911E-01  0.911E-01  0.911E-01
   2.860  0.297E+00  0.989E-01  0.989E-01  0.989E-01
   2.870  0.337E+00  0.112E+00  0.112E+00  0.112E+00
   2.880  0.370E+00  0.123E+00  0.123E+00  0.123E+00
   2.890  0.374E+00  0.125E+00  0.125E+00  0.125E+00
   2.900  0.373E+00  0.124E+00  0.124E+00  0.124E+00
   2.910  0.373E+00  0.124E+00  0.124E+00  0.124E+00
   2.920  0.373E+00  0.124E+00  0.124E+00  0.124E+00
   2.930  0.358E+00  0.119E+00  0.119E+00  0.119E+00
   2.940  0.345E+00  0.115E+00  0.115E+00  0.115E+00
   2.950  0.377E+00  0.126E+00  0.126E+00  0.126E+00
   2.960  0.363E+00  0.121E+00  0.121E+00  0.121E+00
   2.970  0.330E+00  0.110E+00  0.110E+00  0.110E+00
   2.980  0.328E+00  0.109E+00  0.109E+00  0.109E+00
   2.990  0.332E+00  0.111E+00  0.111E+00  0.111E+00
   3.000  0.328E+00  0.109E+00  0.109E+00  0.109E+00
   3.010  0.330E+00  0.110E+00  0.110E+00  0.110E+00
   3.020  0.332E+00  0.111E+00  0.111E+00  0.111E+00
   3.030  0.333E+00  0.111E+00  0.111E+00  0.111E+00
   3.040  0.332E+00  0.111E+00  0.111E+00  0.111E+00
   3.050  0.330E+00  0.110E+00  0.110E+00  0.110E+00
   3.060  0.316E+00  0.105E+00  0.105E+00  0.105E+00
   3.070  0.313E+00  0.104E+00  0.104E+00  0.104E+00
   3.080  0.316E+00  0.105E+00  0.105E+00  0.105E+00
   3.090  0.330E+00  0.110E+00  0.110E+00  0.110E+00
   3.100  0.337E+00  0.112E+00  0.112E+00  0.112E+00
   3.110  0.322E+00  0.107E+00  0.107E+00  0.107E+00
   3.120  0.307E+00  0.102E+00  0.102E+00  0.102E+00
   3.130  0.291E+00  0.970E-01  0.970E-01  0.970E-01
   3.140  0.268E+00  0.892E-01  0.892E-01  0.892E-01
   3.150  0.255E+00  0.850E-01  0.850E-01  0.850E-01
   3.160  0.251E+00  0.838E-01  0.838E-01  0.838E-01
   3.170  0.252E+00  0.839E-01  0.839E-01  0.839E-01
   3.180  0.256E+00  0.853E-01  0.853E-01  0.853E-01
   3.190  0.264E+00  0.881E-01  0.881E-01  0.881E-01
   3.200  0.275E+00  0.916E-01  0.916E-01  0.916E-01
   3.210  0.315E+00  0.105E+00  0.105E+00  0.105E+00
   3.220  0.271E+00  0.904E-01  0.904E-01  0.904E-01
   3.230  0.269E+00  0.896E-01  0.896E-01  0.896E-01
   3.240  0.269E+00  0.897E-01  0.897E-01  0.897E-01
   3.250  0.233E+00  0.777E-01  0.777E-01  0.777E-01
   3.260  0.213E+00  0.710E-01  0.710E-01  0.710E-01
   3.270  0.210E+00  0.699E-01  0.699E-01  0.699E-01
   3.280  0.211E+00  0.704E-01  0.704E-01  0.704E-01
   3.290  0.212E+00  0.708E-01  0.708E-01  0.708E-01
   3.300  0.224E+00  0.747E-01  0.747E-01  0.747E-01
   3.310  0.247E+00  0.823E-01  0.823E-01  0.823E-01
   3.320  0.252E+00  0.842E-01  0.842E-01  0.842E-01
   3.330  0.301E+00  0.100E+00  0.100E+00  0.100E+00
   3.340  0.344E+00  0.115E+00  0.115E+00  0.115E+00
   3.350  0.433E+00  0.144E+00  0.144E+00  0.144E+00
   3.360  0.512E+00  0.171E+00  0.171E+00  0.171E+00
   3.370  0.496E+00  0.165E+00  0.165E+00  0.165E+00
   3.380  0.445E+00  0.148E+00  0.148E+00  0.148E+00
   3.390  0.393E+00  0.131E+00  0.131E+00  0.131E+00
   3.400  0.355E+00  0.118E+00  0.118E+00  0.118E+00
   3.410  0.324E+00  0.108E+00  0.108E+00  0.108E+00
   3.420  0.302E+00  0.101E+00  0.101E+00  0.101E+00
   3.430  0.283E+00  0.943E-01  0.943E-01  0.943E-01
   3.440  0.283E+00  0.943E-01  0.943E-01  0.943E-01
   3.450  0.305E+00  0.102E+00  0.102E+00  0.102E+00
   3.460  0.259E+00  0.863E-01  0.863E-01  0.863E-01
   3.470  0.224E+00  0.746E-01  0.746E-01  0.746E-01
   3.480  0.197E+00  0.656E-01  0.656E-01  0.656E-01
   3.490  0.178E+00  0.592E-01  0.592E-01  0.592E-01
   3.500  0.166E+00  0.552E-01  0.552E-01  0.552E-01
   3.510  0.156E+00  0.522E-01  0.522E-01  0.522E-01
   3.520  0.150E+00  0.501E-01  0.501E-01  0.501E-01
   3.530  0.147E+00  0.491E-01  0.491E-01  0.491E-01
   3.540  0.148E+00  0.492E-01  0.492E-01  0.492E-01
   3.550  0.151E+00  0.504E-01  0.504E-01  0.504E-01
   3.560  0.157E+00  0.524E-01  0.524E-01  0.524E-01
   3.570  0.169E+00  0.562E-01  0.562E-01  0.562E-01
   3.580  0.182E+00  0.606E-01  0.606E-01  0.606E-01
   3.590  0.195E+00  0.650E-01  0.650E-01  0.650E-01
   3.600  0.207E+00  0.691E-01  0.691E-01  0.691E-01
   3.610  0.224E+00  0.746E-01  0.746E-01  0.746E-01
   3.620  0.241E+00  0.802E-01  0.802E-01  0.802E-01
   3.630  0.256E+00  0.854E-01  0.854E-01  0.854E-01
   3.640  0.269E+00  0.896E-01  0.896E-01  0.896E-01
   3.650  0.285E+00  0.949E-01  0.949E-01  0.949E-01
   3.660  0.292E+00  0.973E-01  0.973E-01  0.973E-01
   3.670  0.291E+00  0.969E-01  0.969E-01  0.969E-01
   3.680  0.283E+00  0.943E-01  0.943E-01  0.943E-01
   3.690  0.275E+00  0.917E-01  0.917E-01  0.917E-01
   3.700  0.268E+00  0.892E-01  0.892E-01  0.892E-01
   3.710  0.260E+00  0.866E-01  0.866E-01  0.866E-01
   3.720  0.252E+00  0.841E-01  0.841E-01  0.841E-01
   3.730  0.247E+00  0.825E-01  0.825E-01  0.825E-01
   3.740  0.259E+00  0.862E-01  0.862E-01  0.862E-01
   3.750  0.281E+00  0.936E-01  0.936E-01  0.936E-01
   3.760  0.225E+00  0.752E-01  0.752E-01  0.752E-01
   3.770  0.218E+00  0.727E-01  0.727E-01  0.727E-01
   3.780  0.218E+00  0.727E-01  0.727E-01  0.727E-01
   3.790  0.220E+00  0.734E-01  0.734E-01  0.734E-01
   3.800  0.231E+00  0.771E-01  0.771E-01  0.771E-01
   3.810  0.256E+00  0.852E-01  0.852E-01  0.852E-01
   3.820  0.283E+00  0.944E-01  0.944E-01  0.944E-01
   3.830  0.313E+00  0.104E+00  0.104E+00  0.104E+00
   3.840  0.335E+00  0.112E+00  0.112E+00  0.112E+00
   3.850  0.346E+00  0.115E+00  0.115E+00  0.115E+00
   3.860  0.368E+00  0.123E+00  0.123E+00  0.123E+00
   3.870  0.358E+00  0.119E+00  0.119E+00  0.119E+00
   3.880  0.257E+00  0.858E-01  0.858E-01  0.858E-01
   3.890  0.204E+00  0.681E-01  0.681E-01  0.681E-01
   3.900  0.188E+00  0.627E-01  0.627E-01  0.627E-01
   3.910  0.186E+00  0.619E-01  0.619E-01  0.619E-01
   3.920  0.183E+00  0.610E-01  0.610E-01  0.610E-01
   3.930  0.176E+00  0.588E-01  0.588E-01  0.588E-01
   3.940  0.171E+00  0.569E-01  0.569E-01  0.569E-01
   3.950  0.167E+00  0.558E-01  0.558E-01  0.558E-01
   3.960  0.164E+00  0.546E-01  0.546E-01  0.546E-01
   3.970  0.158E+00  0.527E-01  0.527E-01  0.527E-01
   3.980  0.156E+00  0.520E-01  0.520E-01  0.520E-01
   3.990  0.150E+00  0.501E-01  0.501E-01  0.501E-01
   4.000  0.140E+00  0.465E-01  0.465E-01  0.465E-01
   4.010  0.128E+00  0.428E-01  0.428E-01  0.428E-01
   4.020  0.120E+00  0.400E-01  0.400E-01  0.400E-01
   4.030  0.115E+00  0.382E-01  0.382E-01  0.382E-01
   4.040  0.115E+00  0.383E-01  0.383E-01  0.383E-01
   4.050  0.119E+00  0.398E-01  0.398E-01  0.398E-01
   4.060  0.124E+00  0.414E-01  0.414E-01  0.414E-01
   4.070  0.129E+00  0.428E-01  0.428E-01  0.428E-01
   4.080  0.132E+00  0.440E-01  0.440E-01  0.440E-01
   4.090  0.139E+00  0.464E-01  0.464E-01  0.464E-01
   4.100  0.171E+00  0.568E-01  0.568E-01  0.568E-01
   4.110  0.194E+00  0.647E-01  0.647E-01  0.647E-01
   4.120  0.225E+00  0.750E-01  0.750E-01  0.750E-01
   4.130  0.231E+00  0.770E-01  0.770E-01  0.770E-01
   4.140  0.240E+00  0.801E-01  0.801E-01  0.801E-01
   4.150  0.272E+00  0.907E-01  0.907E-01  0.907E-01
   4.160  0.283E+00  0.945E-01  0.945E-01  0.945E-01
   4.170  0.292E+00  0.972E-01  0.972E-01  0.972E-01
   4.180  0.235E+00  0.785E-01  0.785E-01  0.785E-01
   4.190  0.198E+00  0.659E-01  0.659E-01  0.659E-01
   4.200  0.163E+00  0.543E-01  0.543E-01  0.543E-01
   4.210  0.159E+00  0.530E-01  0.530E-01  0.530E-01
   4.220  0.188E+00  0.626E-01  0.626E-01  0.626E-01
   4.230  0.211E+00  0.703E-01  0.703E-01  0.703E-01
   4.240  0.217E+00  0.722E-01  0.722E-01  0.722E-01
   4.250  0.206E+00  0.687E-01  0.687E-01  0.687E-01
   4.260  0.174E+00  0.578E-01  0.578E-01  0.578E-01
   4.270  0.140E+00  0.467E-01  0.467E-01  0.467E-01
   4.280  0.126E+00  0.421E-01  0.421E-01  0.421E-01
   4.290  0.118E+00  0.392E-01  0.392E-01  0.392E-01
   4.300  0.111E+00  0.369E-01  0.369E-01  0.369E-01
   4.310  0.105E+00  0.351E-01  0.351E-01  0.351E-01
   4.320  0.100E+00  0.334E-01  0.334E-01  0.334E-01
   4.330  0.954E-01  0.318E-01  0.318E-01  0.318E-01
   4.340  0.915E-01  0.305E-01  0.305E-01  0.305E-01
   4.350  0.884E-01  0.295E-01  0.295E-01  0.295E-01
   4.360  0.858E-01  0.286E-01  0.286E-01  0.286E-01
   4.370  0.832E-01  0.277E-01  0.277E-01  0.277E-01
   4.380  0.807E-01  0.269E-01  0.269E-01  0.269E-01
   4.390  0.780E-01  0.260E-01  0.260E-01  0.260E-01
   4.400  0.753E-01  0.251E-01  0.251E-01  0.251E-01
   4.410  0.732E-01  0.244E-01  0.244E-01  0.244E-01
   4.420  0.718E-01  0.239E-01  0.239E-01  0.239E-01
   4.430  0.738E-01  0.246E-01  0.246E-01  0.246E-01
   4.440  0.877E-01  0.292E-01  0.292E-01  0.292E-01
   4.450  0.861E-01  0.287E-01  0.287E-01  0.287E-01
   4.460  0.690E-01  0.230E-01  0.230E-01  0.230E-01
   4.470  0.664E-01  0.221E-01  0.221E-01  0.221E-01
   4.480  0.656E-01  0.219E-01  0.219E-01  0.219E-01
   4.490  0.648E-01  0.216E-01  0.216E-01  0.216E-01
   4.500  0.639E-01  0.213E-01  0.213E-01  0.213E-01
   4.510  0.631E-01  0.210E-01  0.210E-01  0.210E-01
   4.520  0.649E-01  0.216E-01  0.216E-01  0.216E-01
   4.530  0.706E-01  0.235E-01  0.235E-01  0.235E-01
   4.540  0.709E-01  0.236E-01  0.236E-01  0.236E-01
   4.550  0.496E-01  0.165E-01  0.165E-01  0.165E-01
   4.560  0.488E-01  0.163E-01  0.163E-01  0.163E-01
   4.570  0.620E-01  0.207E-01  0.207E-01  0.207E-01
   4.580  0.576E-01  0.192E-01  0.192E-01  0.192E-01
   4.590  0.525E-01  0.175E-01  0.175E-01  0.175E-01
   4.600  0.471E-01  0.157E-01  0.157E-01  0.157E-01
   4.610  0.417E-01  0.139E-01  0.139E-01  0.139E-01
   4.620  0.356E-01  0.119E-01  0.119E-01  0.119E-01
   4.630  0.301E-01  0.100E-01  0.100E-01  0.100E-01
   4.640  0.259E-01  0.863E-02  0.863E-02  0.863E-02
   4.650  0.232E-01  0.775E-02  0.775E-02  0.775E-02
   4.660  0.211E-01  0.703E-02  0.703E-02  0.703E-02
   4.670  0.194E-01  0.647E-02  0.647E-02  0.647E-02
   4.680  0.181E-01  0.604E-02  0.604E-02  0.604E-02
   4.690  0.171E-01  0.571E-02  0.571E-02  0.571E-02
   4.700  0.164E-01  0.548E-02  0.548E-02  0.548E-02
   4.710  0.171E-01  0.570E-02  0.570E-02  0.570E-02
   4.720  0.215E-01  0.715E-02  0.715E-02  0.715E-02
   4.730  0.328E-01  0.109E-01  0.109E-01  0.109E-01
   4.740  0.410E-01  0.137E-01  0.137E-01  0.137E-01
   4.750  0.347E-01  0.116E-01  0.116E-01  0.116E-01
   4.760  0.399E-01  0.133E-01  0.133E-01  0.133E-01
   4.770  0.472E-01  0.157E-01  0.157E-01  0.157E-01
   4.780  0.467E-01  0.156E-01  0.156E-01  0.156E-01
   4.790  0.399E-01  0.133E-01  0.133E-01  0.133E-01
   4.800  0.368E-01  0.123E-01  0.123E-01  0.123E-01
   4.810  0.317E-01  0.106E-01  0.106E-01  0.106E-01
   4.820  0.263E-01  0.876E-02  0.876E-02  0.876E-02
   4.830  0.213E-01  0.711E-02  0.711E-02  0.711E-02
   4.840  0.173E-01  0.575E-02  0.575E-02  0.575E-02
   4.850  0.141E-01  0.470E-02  0.470E-02  0.470E-02
   4.860  0.117E-01  0.392E-02  0.392E-02  0.392E-02
   4.870  0.100E-01  0.334E-02  0.334E-02  0.334E-02
   4.880  0.858E-02  0.286E-02  0.286E-02  0.286E-02
   4.890  0.730E-02  0.243E-02  0.243E-02  0.243E-02
   4.900  0.628E-02  0.209E-02  0.209E-02  0.209E-02
   4.910  0.558E-02  0.186E-02  0.186E-02  0.186E-02
   4.920  0.562E-02  0.187E-02  0.187E-02  0.187E-02
   4.930  0.594E-02  0.198E-02  0.198E-02  0.198E-02
   4.940  0.579E-02  0.193E-02  0.193E-02  0.193E-02
   4.950  0.525E-02  0.175E-02  0.175E-02  0.175E-02
   4.960  0.437E-02  0.146E-02  0.146E-02  0.146E-02
   4.970  0.322E-02  0.107E-02  0.107E-02  0.107E-02
   4.980  0.185E-02  0.617E-03  0.617E-03  0.617E-03
   4.990  0.703E-03  0.234E-03  0.234E-03  0.234E-03
   5.000  0.330E-03  0.110E-03  0.110E-03  0.110E-03
   5.010  0.135E-03  0.449E-04  0.449E-04  0.449E-04
   5.020  0.309E-04  0.103E-04  0.103E-04  0.103E-04
   5.030  0.195E-05  0.650E-06  0.650E-06  0.650E-06
   5.040  0.199E-06  0.663E-07  0.663E-07  0.663E-07
   5.050  0.000E+00  0.000E+00  0.000E+00  0.000E+00
   5.060  0.000E+00  0.000E+00  0.000E+00  0.000E+00
   5.070  0.000E+00  0.000E+00  0.000E+00  0.000E+00
   5.080  0.000E+00  0.000E+00  0.000E+00  0.000E+00
   5.090  0.000E+00  0.000E+00  0.000E+00  0.000E+00
   5.100  0.000E+00  0.000E+00  0.000E+00  0.000E+00
   5.110  0.000E+00  0.000E+00  0.000E+00  0.000E+00
   5.120  0.000E+00  0.000E+00  0.000E+00  0.000E+00
   5.130  0.000E+00  0.000E+00  0.000E+00  0.000E+00
   5.140  0.000E+00  0.000E+00  0.000E+00  0.000E+00
   5.150  0.000E+00  0.000E+00  0.000E+00  0.000E+00
   5.160  0.000E+00  0.000E+00  0.000E+00  0.000E+00
   5.170  0.000E+00  0.000E+00  0.000E+00  0.000E+00
   5.180  0.000E+00  0.000E+00  0.000E+00  0.000E+00
   5.190  0.000E+00  0.000E+00  0.000E+00  0.000E+00
   5.200  0.000E+00  0.000E+00  0.000E+00  0.000E+00
   5.210  0.000E+00  0.000E+00  0.000E+00  0.000E+00
   5.220  0.000E+00  0.000E+00  0.000E+00  0.000E+00
   5.230  0.000E+00  0.000E+00  0.000E+00  0.000E+00
   5.240  0.000E+00  0.000E+00  0.000E+00  0.000E+00
   5.250  0.000E+00  0.000E+00  0.000E+00  0.000E+00
   5.260  0.000E+00  0.000E+00  0.000E+00  0.000E+00
   5.270  0.000E+00  0.000E+00  0.000E+00  0.000E+00
   5.280  0.000E+00  0.000E+00  0.000E+00  0.000E+00
   5.290  0.000E+00  0.000E+00  0.000E+00  0.000E+00
   5.300  0.000E+00  0.000E+00  0.000E+00  0.000E+00
   5.310  0.000E+00  0.000E+00  0.000E+00  0.000E+00
   5.320  0.000E+00  0.000E+00  0.000E+00  0.000E+00
   5.330  0.000E+00  0.000E+00  0.000E+00  0.000E+00
   5.340  0.000E+00  0.000E+00  0.000E+00  0.000E+00
   5.350  0.000E+00  0.000E+00  0.000E+00  0.000E+00
   5.360  0.000E+00  0.000E+00  0.000E+00  0.000E+00
   5.370  0.000E+00  0.000E+00  0.000E+00  0.000E+00
   5.380  0.000E+00  0.000E+00  0.000E+00  0.000E+00
   5.390  0.000E+00  0.000E+00  0.000E+00  0.000E+00
   5.400  0.000E+00  0.000E+00  0.000E+00  0.000E+00
   5.410  0.000E+00  0.000E+00  0.000E+00  0.000E+00
   5.420  0.000E+00  0.000E+00  0.000E+00  0.000E+00
   5.430  0.000E+00  0.000E+00  0.000E+00  0.000E+00
   5.440  0.000E+00  0.000E+00  0.000E+00  0.000E+00
   5.450  0.000E+00  0.000E+00  0.000E+00  0.000E+00
   5.460  0.000E+00  0.000E+00  0.000E+00  0.000E+00
   5.470  0.000E+00  0.000E+00  0.000E+00  0.000E+00
   5.480  0.000E+00  0.000E+00  0.000E+00  0.000E+00
   5.490  0.000E+00  0.000E+00  0.000E+00  0.000E+00
   5.500  0.000E+00  0.000E+00  0.000E+00  0.000E+00
   5.510  0.000E+00  0.000E+00  0.000E+00  0.000E+00
   5.520  0.000E+00  0.000E+00  0.000E+00  0.000E+00
   5.530  0.000E+00  0.000E+00  0.000E+00  0.000E+00
   5.540  0.000E+00  0.000E+00  0.000E+00  0.000E+00
   5.550  0.000E+00  0.000E+00  0.000E+00  0.000E+00
   5.560  0.000E+00  0.000E+00  0.000E+00  0.000E+00
   5.570  0.000E+00  0.000E+00  0.000E+00  0.000E+00
   5.580  0.000E+00  0.000E+00  0.000E+00  0.000E+00
   5.590  0.000E+00  0.000E+00  0.000E+00  0.000E+00
   5.600  0.000E+00  0.000E+00  0.000E+00  0.000E+00
   5.610  0.000E+00  0.000E+00  0.000E+00  0.000E+00
   5.620  0.000E+00  0.000E+00  0.000E+00  0.000E+00
   5.630  0.000E+00  0.000E+00  0.000E+00  0.000E+00
   5.640  0.000E+00  0.000E+00  0.000E+00  0.000E+00
   5.650  0.000E+00  0.000E+00  0.000E+00  0.000E+00
   5.660  0.000E+00  0.000E+00  0.000E+00  0.000E+00
   5.670  0.000E+00  0.000E+00  0.000E+00  0.000E+00
   5.680  0.000E+00  0.000E+00  0.000E+00  0.000E+00
   5.690  0.000E+00  0.000E+00  0.000E+00  0.000E+00
   5.700  0.000E+00  0.000E+00  0.000E+00  0.000E+00
   5.710  0.000E+00  0.000E+00  0.000E+00  0.000E+00
   5.720  0.000E+00  0.000E+00  0.000E+00  0.000E+00
   5.730  0.000E+00  0.000E+00  0.000E+00  0.000E+00
   5.740  0.000E+00  0.000E+00  0.000E+00  0.000E+00
   5.750  0.000E+00  0.000E+00  0.000E+00  0.000E+00
   5.760  0.000E+00  0.000E+00  0.000E+00  0.000E+00
   5.770  0.000E+00  0.000E+00  0.000E+00  0.000E+00
   5.780  0.000E+00  0.000E+00  0.000E+00  0.000E+00
   5.790  0.000E+00  0.000E+00  0.000E+00  0.000E+00
   5.800  0.000E+00  0.000E+00  0.000E+00  0.000E+00
   5.810  0.000E+00  0.000E+00  0.000E+00  0.000E+00
   5.820  0.000E+00  0.000E+00  0.000E+00  0.000E+00
   5.830  0.000E+00  0.000E+00  0.000E+00  0.000E+00
   5.840  0.000E+00  0.000E+00  0.000E+00  0.000E+00
   5.850  0.000E+00  0.000E+00  0.000E+00  0.000E+00
   5.860  0.000E+00  0.000E+00  0.000E+00  0.000E+00
   5.870  0.000E+00  0.000E+00  0.000E+00  0.000E+00
   5.880  0.000E+00  0.000E+00  0.000E+00  0.000E+00
   5.890  0.000E+00  0.000E+00  0.000E+00  0.000E+00
   5.900  0.000E+00  0.000E+00  0.000E+00  0.000E+00
   5.910  0.000E+00  0.000E+00  0.000E+00  0.000E+00
   5.920  0.000E+00  0.000E+00  0.000E+00  0.000E+00
   5.930  0.000E+00  0.000E+00  0.000E+00  0.000E+00
   5.940  0.000E+00  0.000E+00  0.000E+00  0.000E+00
   5.950  0.000E+00  0.000E+00  0.000E+00  0.000E+00
   5.960  0.000E+00  0.000E+00  0.000E+00  0.000E+00
   5.970  0.000E+00  0.000E+00  0.000E+00  0.000E+00
   5.980  0.000E+00  0.000E+00  0.000E+00  0.000E+00
   5.990  0.000E+00  0.000E+00  0.000E+00  0.000E+00
   6.000  0.000E+00  0.000E+00  0.000E+00  0.000E+00
   6.010  0.000E+00  0.000E+00  0.000E+00  0.000E+00
   6.020  0.000E+00  0.000E+00  0.000E+00  0.000E+00
   6.030  0.000E+00  0.000E+00  0.000E+00  0.000E+00
   6.040  0.000E+00  0.000E+00  0.000E+00  0.000E+00
   6.050  0.000E+00  0.000E+00  0.000E+00  0.000E+00
   6.060  0.000E+00  0.000E+00  0.000E+00  0.000E+00
   6.070  0.000E+00  0.000E+00  0.000E+00  0.000E+00
   6.080  0.000E+00  0.000E+00  0.000E+00  0.000E+00
   6.090  0.000E+00  0.000E+00  0.000E+00  0.000E+00
   6.100  0.000E+00  0.000E+00  0.000E+00  0.000E+00
   6.110  0.000E+00  0.000E+00  0.000E+00  0.000E+00
   6.120  0.000E+00  0.000E+00  0.000E+00  0.000E+00
   6.130  0.000E+00  0.000E+00  0.000E+00  0.000E+00
   6.140  0.000E+00  0.000E+00  0.000E+00  0.000E+00
   6.150  0.000E+00  0.000E+00  0.000E+00  0.000E+00
   6.160  0.000E+00  0.000E+00  0.000E+00  0.000E+00
   6.170  0.000E+00  0.000E+00  0.000E+00  0.000E+00
   6.180  0.000E+00  0.000E+00  0.000E+00  0.000E+00
   6.190  0.000E+00  0.000E+00  0.000E+00  0.000E+00
   6.200  0.000E+00  0.000E+00  0.000E+00  0.000E+00
   6.210  0.000E+00  0.000E+00  0.000E+00  0.000E+00
   6.220  0.000E+00  0.000E+00  0.000E+00  0.000E+00
   6.230  0.000E+00  0.000E+00  0.000E+00  0.000E+00
   6.240  0.000E+00  0.000E+00  0.000E+00  0.000E+00
   6.250  0.000E+00  0.000E+00  0.000E+00  0.000E+00
   6.260  0.000E+00  0.000E+00  0.000E+00  0.000E+00
   6.270  0.000E+00  0.000E+00  0.000E+00  0.000E+00
   6.280  0.000E+00  0.000E+00  0.000E+00  0.000E+00
   6.290  0.000E+00  0.000E+00  0.000E+00  0.000E+00
   6.300  0.000E+00  0.000E+00  0.000E+00  0.000E+00
   6.310  0.000E+00  0.000E+00  0.000E+00  0.000E+00
   6.320  0.000E+00  0.000E+00  0.000E+00  0.000E+00
   6.330  0.000E+00  0.000E+00  0.000E+00  0.000E+00
   6.340  0.000E+00  0.000E+00  0.000E+00  0.000E+00
   6.350  0.000E+00  0.000E+00  0.000E+00  0.000E+00
   6.360  0.000E+00  0.000E+00  0.000E+00  0.000E+00
   6.370  0.000E+00  0.000E+00  0.000E+00  0.000E+00
   6.380  0.000E+00  0.000E+00  0.000E+00  0.000E+00
   6.390  0.000E+00  0.000E+00  0.000E+00  0.000E+00
   6.400  0.000E+00  0.000E+00  0.000E+00  0.000E+00
   6.410  0.000E+00  0.000E+00  0.000E+00  0.000E+00
   6.420  0.000E+00  0.000E+00  0.000E+00  0.000E+00
   6.430  0.000E+00  0.000E+00  0.000E+00  0.000E+00
   6.440  0.000E+00  0.000E+00  0.000E+00  0.000E+00
   6.450  0.000E+00  0.000E+00  0.000E+00  0.000E+00
   6.460  0.000E+00  0.000E+00  0.000E+00  0.000E+00
   6.470  0.000E+00  0.000E+00  0.000E+00  0.000E+00
   6.480  0.000E+00  0.000E+00  0.000E+00  0.000E+00
   6.490  0.000E+00  0.000E+00  0.000E+00  0.000E+00
   6.500  0.000E+00  0.000E+00  0.000E+00  0.000E+00
   6.510  0.000E+00  0.000E+00  0.000E+00  0.000E+00
   6.520  0.000E+00  0.000E+00  0.000E+00  0.000E+00
   6.530  0.000E+00  0.000E+00  0.000E+00  0.000E+00
   6.540  0.000E+00  0.000E+00  0.000E+00  0.000E+00
   6.550  0.000E+00  0.000E+00  0.000E+00  0.000E+00
   6.560  0.000E+00  0.000E+00  0.000E+00  0.000E+00
   6.570  0.000E+00  0.000E+00  0.000E+00  0.000E+00
   6.580  0.000E+00  0.000E+00  0.000E+00  0.000E+00
   6.590  0.000E+00  0.000E+00  0.000E+00  0.000E+00
   6.600  0.000E+00  0.000E+00  0.000E+00  0.000E+00
   6.610  0.000E+00  0.000E+00  0.000E+00  0.000E+00
   6.620  0.000E+00  0.000E+00  0.000E+00  0.000E+00
   6.630  0.000E+00  0.000E+00  0.000E+00  0.000E+00
   6.640  0.000E+00  0.000E+00  0.000E+00  0.000E+00
   6.650  0.000E+00  0.000E+00  0.000E+00  0.000E+00
   6.660  0.000E+00  0.000E+00  0.000E+00  0.000E+00
   6.670  0.000E+00  0.000E+00  0.000E+00  0.000E+00
   6.680  0.000E+00  0.000E+00  0.000E+00  0.000E+00
   6.690  0.000E+00  0.000E+00  0.000E+00  0.000E+00
   6.700  0.000E+00  0.000E+00  0.000E+00  0.000E+00
   6.710  0.000E+00  0.000E+00  0.000E+00  0.000E+00
   6.720  0.000E+00  0.000E+00  0.000E+00  0.000E+00
   6.730  0.000E+00  0.000E+00  0.000E+00  0.000E+00
   6.740  0.000E+00  0.000E+00  0.000E+00  0.000E+00
   6.750  0.000E+00  0.000E+00  0.000E+00  0.000E+00
   6.760  0.000E+00  0.000E+00  0.000E+00  0.000E+00
   6.770  0.000E+00  0.000E+00  0.000E+00  0.000E+00
   6.780  0.000E+00  0.000E+00  0.000E+00  0.000E+00
   6.790  0.000E+00  0.000E+00  0.000E+00  0.000E+00
   6.800  0.000E+00  0.000E+00  0.000E+00  0.000E+00
   6.810  0.000E+00  0.000E+00  0.000E+00  0.000E+00
   6.820  0.000E+00  0.000E+00  0.000E+00  0.000E+00
   6.830  0.000E+00  0.000E+00  0.000E+00  0.000E+00
   6.840  0.000E+00  0.000E+00  0.000E+00  0.000E+00
   6.850  0.000E+00  0.000E+00  0.000E+00  0.000E+00
   6.860  0.000E+00  0.000E+00  0.000E+00  0.000E+00
   6.870  0.000E+00  0.000E+00  0.000E+00  0.000E+00
   6.880  0.000E+00  0.000E+00  0.000E+00  0.000E+00
   6.890  0.000E+00  0.000E+00  0.000E+00  0.000E+00
   6.900  0.000E+00  0.000E+00  0.000E+00  0.000E+00
   6.910  0.000E+00  0.000E+00  0.000E+00  0.000E+00
   6.920  0.000E+00  0.000E+00  0.000E+00  0.000E+00
   6.930  0.000E+00  0.000E+00  0.000E+00  0.000E+00
   6.940  0.000E+00  0.000E+00  0.000E+00  0.000E+00
   6.950  0.000E+00  0.000E+00  0.000E+00  0.000E+00
   6.960  0.000E+00  0.000E+00  0.000E+00  0.000E+00
   6.970  0.000E+00  0.000E+00  0.000E+00  0.000E+00
   6.980  0.000E+00  0.000E+00  0.000E+00  0.000E+00
   6.990  0.000E+00  0.000E+00  0.000E+00  0.000E+00
   7.000  0.000E+00  0.000E+00  0.000E+00  0.000E+00
   7.010  0.000E+00  0.000E+00  0.000E+00  0.000E+00
   7.020  0.000E+00  0.000E+00  0.000E+00  0.000E+00
   7.030  0.000E+00  0.000E+00  0.000E+00  0.000E+00
   7.040  0.000E+00  0.000E+00  0.000E+00  0.000E+00
   7.050  0.000E+00  0.000E+00  0.000E+00  0.000E+00
   7.060  0.000E+00  0.000E+00  0.000E+00  0.000E+00
   7.070  0.000E+00  0.000E+00  0.000E+00  0.000E+00
   7.080  0.000E+00  0.000E+00  0.000E+00  0.000E+00
   7.090  0.000E+00  0.000E+00  0.000E+00  0.000E+00
   7.100  0.000E+00  0.000E+00  0.000E+00  0.000E+00
   7.110  0.000E+00  0.000E+00  0.000E+00  0.000E+00
   7.120  0.000E+00  0.000E+00  0.000E+00  0.000E+00
   7.130  0.000E+00  0.000E+00  0.000E+00  0.000E+00
   7.140  0.000E+00  0.000E+00  0.000E+00  0.000E+00
   7.150  0.000E+00  0.000E+00  0.000E+00  0.000E+00
   7.160  0.000E+00  0.000E+00  0.000E+00  0.000E+00
   7.170  0.000E+00  0.000E+00  0.000E+00  0.000E+00
   7.180  0.000E+00  0.000E+00  0.000E+00  0.000E+00
   7.190  0.000E+00  0.000E+00  0.000E+00  0.000E+00
   7.200  0.000E+00  0.000E+00  0.000E+00  0.000E+00
   7.210  0.000E+00  0.000E+00  0.000E+00  0.000E+00
   7.220  0.000E+00  0.000E+00  0.000E+00  0.000E+00
   7.230  0.000E+00  0.000E+00  0.000E+00  0.000E+00
   7.240  0.000E+00  0.000E+00  0.000E+00  0.000E+00
   7.250  0.000E+00  0.000E+00  0.000E+00  0.000E+00
   7.260  0.000E+00  0.000E+00  0.000E+00  0.000E+00
   7.270  0.000E+00  0.000E+00  0.000E+00  0.000E+00
   7.280  0.000E+00  0.000E+00  0.000E+00  0.000E+00
   7.290  0.000E+00  0.000E+00  0.000E+00  0.000E+00
   7.300  0.000E+00  0.000E+00  0.000E+00  0.000E+00
   7.310  0.000E+00  0.000E+00  0.000E+00  0.000E+00
   7.320  0.000E+00  0.000E+00  0.000E+00  0.000E+00
   7.330  0.000E+00  0.000E+00  0.000E+00  0.000E+00
   7.340  0.000E+00  0.000E+00  0.000E+00  0.000E+00
   7.350  0.000E+00  0.000E+00  0.000E+00  0.000E+00
   7.360  0.000E+00  0.000E+00  0.000E+00  0.000E+00
   7.370  0.000E+00  0.000E+00  0.000E+00  0.000E+00
   7.380  0.000E+00  0.000E+00  0.000E+00  0.000E+00
   7.390  0.000E+00  0.000E+00  0.000E+00  0.000E+00
   7.400  0.000E+00  0.000E+00  0.000E+00  0.000E+00
   7.410  0.000E+00  0.000E+00  0.000E+00  0.000E+00
   7.420  0.000E+00  0.000E+00  0.000E+00  0.000E+00
   7.430  0.000E+00  0.000E+00  0.000E+00  0.000E+00
   7.440  0.000E+00  0.000E+00  0.000E+00  0.000E+00
   7.450  0.000E+00  0.000E+00  0.000E+00  0.000E+00
   7.460  0.000E+00  0.000E+00  0.000E+00  0.000E+00
   7.470  0.000E+00  0.000E+00  0.000E+00  0.000E+00
   7.480  0.000E+00  0.000E+00  0.000E+00  0.000E+00
   7.490  0.000E+00  0.000E+00  0.000E+00  0.000E+00
   7.500  0.000E+00  0.000E+00  0.000E+00  0.000E+00
   7.510 -0.322E-07 -0.107E-07 -0.107E-07 -0.107E-07
   7.520 -0.128E-06 -0.426E-07 -0.426E-07 -0.426E-07
   7.530 -0.267E-06 -0.889E-07 -0.889E-07 -0.889E-07
   7.540 -0.512E-06 -0.171E-06 -0.171E-06 -0.171E-06
   7.550 -0.957E-06 -0.319E-06 -0.319E-06 -0.319E-06
   7.560 -0.152E-05 -0.507E-06 -0.507E-06 -0.507E-06
   7.570 -0.212E-05 -0.705E-06 -0.705E-06 -0.705E-06
   7.580 -0.266E-05 -0.887E-06 -0.887E-06 -0.887E-06
   7.590 -0.307E-05 -0.102E-05 -0.102E-05 -0.102E-05
   7.600 -0.325E-05 -0.108E-05 -0.108E-05 -0.108E-05
   7.610 -0.313E-05 -0.104E-05 -0.104E-05 -0.104E-05
   7.620 -0.261E-05 -0.872E-06 -0.872E-06 -0.872E-06
   7.630 -0.162E-05 -0.541E-06 -0.541E-06 -0.541E-06
   7.640 -0.696E-07 -0.232E-07 -0.232E-07 -0.232E-07
   7.650  0.213E-05  0.710E-06  0.710E-06  0.710E-06
   7.660  0.506E-05  0.169E-05  0.169E-05  0.169E-05
   7.670  0.881E-05  0.294E-05  0.294E-05  0.294E-05
   7.680  0.135E-04  0.449E-05  0.449E-05  0.449E-05
   7.690  0.191E-04  0.637E-05  0.637E-05  0.637E-05
   7.700  0.258E-04  0.861E-05  0.861E-05  0.861E-05
   7.710  0.337E-04  0.112E-04  0.112E-04  0.112E-04
   7.720  0.428E-04  0.143E-04  0.143E-04  0.143E-04
   7.730  0.532E-04  0.177E-04  0.177E-04  0.177E-04
   7.740  0.651E-04  0.217E-04  0.217E-04  0.217E-04
   7.750  0.784E-04  0.261E-04  0.261E-04  0.261E-04
   7.760  0.934E-04  0.311E-04  0.311E-04  0.311E-04
   7.770  0.110E-03  0.367E-04  0.367E-04  0.367E-04
   7.780  0.128E-03  0.428E-04  0.428E-04  0.428E-04
   7.790  0.148E-03  0.495E-04  0.495E-04  0.495E-04
   7.800  0.171E-03  0.569E-04  0.569E-04  0.569E-04
   7.810  0.195E-03  0.649E-04  0.649E-04  0.649E-04
   7.820  0.221E-03  0.736E-04  0.736E-04  0.736E-04
   7.830  0.249E-03  0.831E-04  0.831E-04  0.831E-04
   7.840  0.280E-03  0.932E-04  0.932E-04  0.932E-04
   7.850  0.311E-03  0.104E-03  0.104E-03  0.104E-03
   7.860  0.344E-03  0.115E-03  0.115E-03  0.115E-03
   7.870  0.382E-03  0.127E-03  0.127E-03  0.127E-03
   7.880  0.423E-03  0.141E-03  0.141E-03  0.141E-03
   7.890  0.470E-03  0.157E-03  0.157E-03  0.157E-03
   7.900  0.518E-03  0.173E-03  0.173E-03  0.173E-03
   7.910  0.567E-03  0.189E-03  0.189E-03  0.189E-03
   7.920  0.616E-03  0.205E-03  0.205E-03  0.205E-03
   7.930  0.666E-03  0.222E-03  0.222E-03  0.222E-03
   7.940  0.717E-03  0.239E-03  0.239E-03  0.239E-03
   7.950  0.770E-03  0.257E-03  0.257E-03  0.257E-03
   7.960  0.823E-03  0.274E-03  0.274E-03  0.274E-03
   7.970  0.878E-03  0.293E-03  0.293E-03  0.293E-03
   7.980  0.935E-03  0.312E-03  0.312E-03  0.312E-03
   7.990  0.993E-03  0.331E-03  0.331E-03  0.331E-03
   8.000  0.105E-02  0.351E-03  0.351E-03  0.351E-03
   8.010  0.111E-02  0.371E-03  0.371E-03  0.371E-03
   8.020  0.118E-02  0.392E-03  0.392E-03  0.392E-03
   8.030  0.124E-02  0.413E-03  0.413E-03  0.413E-03
   8.040  0.130E-02  0.435E-03  0.435E-03  0.435E-03
   8.050  0.137E-02  0.457E-03  0.457E-03  0.457E-03
   8.060  0.144E-02  0.480E-03  0.480E-03  0.480E-03
   8.070  0.151E-02  0.503E-03  0.503E-03  0.503E-03
   8.080  0.158E-02  0.526E-03  0.526E-03  0.526E-03
   8.090  0.165E-02  0.551E-03  0.551E-03  0.551E-03
   8.100  0.172E-02  0.575E-03  0.575E-03  0.575E-03
   8.110  0.179E-02  0.598E-03  0.598E-03  0.598E-03
   8.120  0.186E-02  0.619E-03  0.619E-03  0.619E-03
   8.130  0.192E-02  0.638E-03  0.638E-03  0.638E-03
   8.140  0.197E-02  0.657E-03  0.657E-03  0.657E-03
   8.150  0.203E-02  0.678E-03  0.678E-03  0.678E-03
   8.160  0.210E-02  0.701E-03  0.701E-03  0.701E-03
   8.170  0.218E-02  0.725E-03  0.725E-03  0.725E-03
   8.180  0.225E-02  0.750E-03  0.750E-03  0.750E-03
   8.190  0.233E-02  0.775E-03  0.775E-03  0.775E-03
   8.200  0.240E-02  0.801E-03  0.801E-03  0.801E-03
   8.210  0.248E-02  0.827E-03  0.827E-03  0.827E-03
   8.220  0.256E-02  0.855E-03  0.855E-03  0.855E-03
   8.230  0.265E-02  0.884E-03  0.884E-03  0.884E-03
   8.240  0.274E-02  0.915E-03  0.915E-03  0.915E-03
   8.250  0.284E-02  0.948E-03  0.948E-03  0.948E-03
   8.260  0.295E-02  0.983E-03  0.983E-03  0.983E-03
   8.270  0.306E-02  0.102E-02  0.102E-02  0.102E-02
   8.280  0.319E-02  0.106E-02  0.106E-02  0.106E-02
   8.290  0.332E-02  0.111E-02  0.111E-02  0.111E-02
   8.300  0.347E-02  0.116E-02  0.116E-02  0.116E-02
   8.310  0.363E-02  0.121E-02  0.121E-02  0.121E-02
   8.320  0.379E-02  0.126E-02  0.126E-02  0.126E-02
   8.330  0.396E-02  0.132E-02  0.132E-02  0.132E-02
   8.340  0.413E-02  0.138E-02  0.138E-02  0.138E-02
   8.350  0.431E-02  0.144E-02  0.144E-02  0.144E-02
   8.360  0.449E-02  0.150E-02  0.150E-02  0.150E-02
   8.370  0.467E-02  0.156E-02  0.156E-02  0.156E-02
   8.380  0.487E-02  0.162E-02  0.162E-02  0.162E-02
   8.390  0.506E-02  0.169E-02  0.169E-02  0.169E-02
   8.400  0.527E-02  0.176E-02  0.176E-02  0.176E-02
   8.410  0.548E-02  0.183E-02  0.183E-02  0.183E-02
   8.420  0.569E-02  0.190E-02  0.190E-02  0.190E-02
   8.430  0.592E-02  0.197E-02  0.197E-02  0.197E-02
   8.440  0.615E-02  0.205E-02  0.205E-02  0.205E-02
   8.450  0.639E-02  0.213E-02  0.213E-02  0.213E-02
   8.460  0.664E-02  0.221E-02  0.221E-02  0.221E-02
   8.470  0.690E-02  0.230E-02  0.230E-02  0.230E-02
   8.480  0.716E-02  0.239E-02  0.239E-02  0.239E-02
   8.490  0.744E-02  0.248E-02  0.248E-02  0.248E-02
   8.500  0.773E-02  0.258E-02  0.258E-02  0.258E-02
   8.510  0.803E-02  0.268E-02  0.268E-02  0.268E-02
   8.520  0.833E-02  0.278E-02  0.278E-02  0.278E-02
   8.530  0.865E-02  0.288E-02  0.288E-02  0.288E-02
   8.540  0.898E-02  0.299E-02  0.299E-02  0.299E-02
   8.550  0.932E-02  0.311E-02  0.311E-02  0.311E-02
   8.560  0.967E-02  0.322E-02  0.322E-02  0.322E-02
   8.570  0.100E-01  0.334E-02  0.334E-02  0.334E-02
   8.580  0.104E-01  0.347E-02  0.347E-02  0.347E-02
   8.590  0.108E-01  0.360E-02  0.360E-02  0.360E-02
   8.600  0.112E-01  0.373E-02  0.373E-02  0.373E-02
   8.610  0.116E-01  0.387E-02  0.387E-02  0.387E-02
   8.620  0.120E-01  0.401E-02  0.401E-02  0.401E-02
   8.630  0.125E-01  0.415E-02  0.415E-02  0.415E-02
   8.640  0.129E-01  0.430E-02  0.430E-02  0.430E-02
   8.650  0.134E-01  0.445E-02  0.445E-02  0.445E-02
   8.660  0.138E-01  0.460E-02  0.460E-02  0.460E-02
   8.670  0.142E-01  0.473E-02  0.473E-02  0.473E-02
   8.680  0.145E-01  0.484E-02  0.484E-02  0.484E-02
   8.690  0.149E-01  0.495E-02  0.495E-02  0.495E-02
   8.700  0.152E-01  0.505E-02  0.505E-02  0.505E-02
   8.710  0.154E-01  0.513E-02  0.513E-02  0.513E-02
   8.720  0.156E-01  0.520E-02  0.520E-02  0.520E-02
   8.730  0.157E-01  0.524E-02  0.524E-02  0.524E-02
   8.740  0.158E-01  0.528E-02  0.528E-02  0.528E-02
   8.750  0.161E-01  0.536E-02  0.536E-02  0.536E-02
   8.760  0.165E-01  0.551E-02  0.551E-02  0.551E-02
   8.770  0.175E-01  0.582E-02  0.582E-02  0.582E-02
   8.780  0.208E-01  0.694E-02  0.694E-02  0.694E-02
   8.790  0.230E-01  0.765E-02  0.765E-02  0.765E-02
   8.800  0.247E-01  0.825E-02  0.825E-02  0.825E-02
   8.810  0.271E-01  0.903E-02  0.903E-02  0.903E-02
   8.820  0.297E-01  0.991E-02  0.991E-02  0.991E-02
   8.830  0.329E-01  0.110E-01  0.110E-01  0.110E-01
   8.840  0.366E-01  0.122E-01  0.122E-01  0.122E-01
   8.850  0.403E-01  0.134E-01  0.134E-01  0.134E-01
   8.860  0.440E-01  0.147E-01  0.147E-01  0.147E-01
   8.870  0.480E-01  0.160E-01  0.160E-01  0.160E-01
   8.880  0.521E-01  0.174E-01  0.174E-01  0.174E-01
   8.890  0.558E-01  0.186E-01  0.186E-01  0.186E-01
   8.900  0.589E-01  0.196E-01  0.196E-01  0.196E-01
   8.910  0.621E-01  0.207E-01  0.207E-01  0.207E-01
   8.920  0.658E-01  0.219E-01  0.219E-01  0.219E-01
   8.930  0.696E-01  0.232E-01  0.232E-01  0.232E-01
   8.940  0.734E-01  0.245E-01  0.245E-01  0.245E-01
   8.950  0.768E-01  0.256E-01  0.256E-01  0.256E-01
   8.960  0.795E-01  0.265E-01  0.265E-01  0.265E-01
   8.970  0.869E-01  0.290E-01  0.290E-01  0.290E-01
   8.980  0.931E-01  0.310E-01  0.310E-01  0.310E-01
   8.990  0.899E-01  0.300E-01  0.300E-01  0.300E-01
   9.000  0.810E-01  0.270E-01  0.270E-01  0.270E-01
   9.010  0.777E-01  0.259E-01  0.259E-01  0.259E-01
   9.020  0.810E-01  0.270E-01  0.270E-01  0.270E-01
   9.030  0.861E-01  0.287E-01  0.287E-01  0.287E-01
   9.040  0.102E+00  0.342E-01  0.342E-01  0.342E-01
   9.050  0.104E+00  0.348E-01  0.348E-01  0.348E-01
   9.060  0.103E+00  0.345E-01  0.345E-01  0.345E-01
   9.070  0.110E+00  0.368E-01  0.368E-01  0.368E-01
   9.080  0.118E+00  0.392E-01  0.392E-01  0.392E-01
   9.090  0.124E+00  0.413E-01  0.413E-01  0.413E-01
   9.100  0.130E+00  0.434E-01  0.434E-01  0.434E-01
   9.110  0.137E+00  0.457E-01  0.457E-01  0.457E-01
   9.120  0.144E+00  0.481E-01  0.481E-01  0.481E-01
   9.130  0.152E+00  0.507E-01  0.507E-01  0.507E-01
   9.140  0.160E+00  0.534E-01  0.534E-01  0.534E-01
   9.150  0.169E+00  0.562E-01  0.562E-01  0.562E-01
   9.160  0.177E+00  0.591E-01  0.591E-01  0.591E-01
   9.170  0.186E+00  0.621E-01  0.621E-01  0.621E-01
   9.180  0.196E+00  0.652E-01  0.652E-01  0.652E-01
   9.190  0.205E+00  0.684E-01  0.684E-01  0.684E-01
   9.200  0.216E+00  0.719E-01  0.719E-01  0.719E-01
   9.210  0.230E+00  0.768E-01  0.768E-01  0.768E-01
   9.220  0.242E+00  0.808E-01  0.808E-01  0.808E-01
   9.230  0.253E+00  0.844E-01  0.844E-01  0.844E-01
   9.240  0.264E+00  0.879E-01  0.879E-01  0.879E-01
   9.250  0.275E+00  0.916E-01  0.916E-01  0.916E-01
   9.260  0.287E+00  0.955E-01  0.955E-01  0.955E-01
   9.270  0.298E+00  0.994E-01  0.994E-01  0.994E-01
   9.280  0.309E+00  0.103E+00  0.103E+00  0.103E+00
   9.290  0.320E+00  0.107E+00  0.107E+00  0.107E+00
   9.300  0.334E+00  0.111E+00  0.111E+00  0.111E+00
   9.310  0.360E+00  0.120E+00  0.120E+00  0.120E+00
   9.320  0.398E+00  0.133E+00  0.133E+00  0.133E+00
   9.330  0.420E+00  0.140E+00  0.140E+00  0.140E+00
   9.340  0.419E+00  0.140E+00  0.140E+00  0.140E+00
   9.350  0.403E+00  0.134E+00  0.134E+00  0.134E+00
   9.360  0.377E+00  0.126E+00  0.126E+00  0.126E+00
   9.370  0.354E+00  0.118E+00  0.118E+00  0.118E+00
   9.380  0.336E+00  0.112E+00  0.112E+00  0.112E+00
   9.390  0.309E+00  0.103E+00  0.103E+00  0.103E+00
   9.400  0.286E+00  0.954E-01  0.954E-01  0.954E-01
   9.410  0.250E+00  0.833E-01  0.833E-01  0.833E-01
   9.420  0.238E+00  0.793E-01  0.793E-01  0.793E-01
   9.430  0.229E+00  0.765E-01  0.765E-01  0.765E-01
   9.440  0.227E+00  0.758E-01  0.758E-01  0.758E-01
   9.450  0.229E+00  0.764E-01  0.764E-01  0.764E-01
   9.460  0.235E+00  0.782E-01  0.782E-01  0.782E-01
   9.470  0.243E+00  0.811E-01  0.811E-01  0.811E-01
   9.480  0.255E+00  0.849E-01  0.849E-01  0.849E-01
   9.490  0.266E+00  0.888E-01  0.888E-01  0.888E-01
   9.500  0.278E+00  0.927E-01  0.927E-01  0.927E-01
   9.510  0.288E+00  0.961E-01  0.961E-01  0.961E-01
   9.520  0.295E+00  0.983E-01  0.983E-01  0.983E-01
   9.530  0.295E+00  0.984E-01  0.984E-01  0.984E-01
   9.540  0.291E+00  0.968E-01  0.968E-01  0.968E-01
   9.550  0.286E+00  0.953E-01  0.953E-01  0.953E-01
   9.560  0.270E+00  0.899E-01  0.899E-01  0.899E-01
   9.570  0.251E+00  0.836E-01  0.836E-01  0.836E-01
   9.580  0.242E+00  0.806E-01  0.806E-01  0.806E-01
   9.590  0.247E+00  0.822E-01  0.822E-01  0.822E-01
   9.600  0.262E+00  0.873E-01  0.873E-01  0.873E-01
   9.610  0.290E+00  0.965E-01  0.965E-01  0.965E-01
   9.620  0.317E+00  0.106E+00  0.106E+00  0.106E+00
   9.630  0.341E+00  0.114E+00  0.114E+00  0.114E+00
   9.640  0.362E+00  0.121E+00  0.121E+00  0.121E+00
   9.650  0.381E+00  0.127E+00  0.127E+00  0.127E+00
   9.660  0.398E+00  0.133E+00  0.133E+00  0.133E+00
   9.670  0.416E+00  0.139E+00  0.139E+00  0.139E+00
   9.680  0.889E+00  0.296E+00  0.296E+00  0.296E+00
   9.690  0.357E+00  0.119E+00  0.119E+00  0.119E+00
   9.700  0.339E+00  0.113E+00  0.113E+00  0.113E+00
   9.710  0.336E+00  0.112E+00  0.112E+00  0.112E+00
   9.720  0.330E+00  0.110E+00  0.110E+00  0.110E+00
   9.730  0.322E+00  0.107E+00  0.107E+00  0.107E+00
   9.740  0.311E+00  0.104E+00  0.104E+00  0.104E+00
   9.750  0.297E+00  0.991E-01  0.991E-01  0.991E-01
   9.760  0.298E+00  0.994E-01  0.994E-01  0.994E-01
   9.770  0.382E+00  0.127E+00  0.127E+00  0.127E+00
   9.780  0.498E+00  0.166E+00  0.166E+00  0.166E+00
   9.790  0.660E+00  0.220E+00  0.220E+00  0.220E+00
   9.800  0.819E+00  0.273E+00  0.273E+00  0.273E+00
   9.810  0.779E+00  0.260E+00  0.260E+00  0.260E+00
   9.820  0.693E+00  0.231E+00  0.231E+00  0.231E+00
   9.830  0.652E+00  0.217E+00  0.217E+00  0.217E+00
   9.840  0.646E+00  0.215E+00  0.215E+00  0.215E+00
   9.850  0.568E+00  0.189E+00  0.189E+00  0.189E+00
   9.860  0.562E+00  0.187E+00  0.187E+00  0.187E+00
   9.870  0.583E+00  0.194E+00  0.194E+00  0.194E+00
   9.880  0.596E+00  0.199E+00  0.199E+00  0.199E+00
   9.890  0.609E+00  0.203E+00  0.203E+00  0.203E+00
   9.900  0.613E+00  0.204E+00  0.204E+00  0.204E+00
   9.910  0.610E+00  0.203E+00  0.203E+00  0.203E+00
   9.920  0.601E+00  0.200E+00  0.200E+00  0.200E+00
   9.930  0.604E+00  0.201E+00  0.201E+00  0.201E+00
   9.940  0.607E+00  0.202E+00  0.202E+00  0.202E+00
   9.950  0.603E+00  0.201E+00  0.201E+00  0.201E+00
   9.960  0.594E+00  0.198E+00  0.198E+00  0.198E+00
   9.970  0.582E+00  0.194E+00  0.194E+00  0.194E+00
   9.980  0.571E+00  0.190E+00  0.190E+00  0.190E+00
   9.990  0.564E+00  0.188E+00  0.188E+00  0.188E+00
  10.000  0.658E+00  0.219E+00  0.219E+00  0.219E+00
  10.010  0.783E+00  0.261E+00  0.261E+00  0.261E+00
  10.020  0.740E+00  0.247E+00  0.247E+00  0.247E+00
  10.030  0.595E+00  0.198E+00  0.198E+00  0.198E+00
  10.040  0.543E+00  0.181E+00  0.181E+00  0.181E+00
  10.050  0.499E+00  0.166E+00  0.166E+00  0.166E+00
  10.060  0.455E+00  0.152E+00  0.152E+00  0.152E+00
  10.070  0.414E+00  0.138E+00  0.138E+00  0.138E+00
  10.080  0.376E+00  0.125E+00  0.125E+00  0.125E+00
  10.090  0.341E+00  0.114E+00  0.114E+00  0.114E+00
  10.100  0.312E+00  0.104E+00  0.104E+00  0.104E+00
  10.110  0.288E+00  0.959E-01  0.959E-01  0.959E-01
  10.120  0.270E+00  0.899E-01  0.899E-01  0.899E-01
  10.130  0.256E+00  0.853E-01  0.853E-01  0.853E-01
  10.140  0.244E+00  0.815E-01  0.815E-01  0.815E-01
  10.150  0.236E+00  0.786E-01  0.786E-01  0.786E-01
  10.160  0.230E+00  0.765E-01  0.765E-01  0.765E-01
  10.170  0.224E+00  0.746E-01  0.746E-01  0.746E-01
  10.180  0.219E+00  0.729E-01  0.729E-01  0.729E-01
  10.190  0.218E+00  0.727E-01  0.727E-01  0.727E-01
  10.200  0.245E+00  0.817E-01  0.817E-01  0.817E-01
  10.210  0.302E+00  0.101E+00  0.101E+00  0.101E+00
  10.220  0.369E+00  0.123E+00  0.123E+00  0.123E+00
  10.230  0.471E+00  0.157E+00  0.157E+00  0.157E+00
  10.240  0.432E+00  0.144E+00  0.144E+00  0.144E+00
  10.250  0.443E+00  0.148E+00  0.148E+00  0.148E+00
  10.260  0.447E+00  0.149E+00  0.149E+00  0.149E+00
  10.270  0.429E+00  0.143E+00  0.143E+00  0.143E+00
  10.280  0.396E+00  0.132E+00  0.132E+00  0.132E+00
  10.290  0.360E+00  0.120E+00  0.120E+00  0.120E+00
  10.300  0.330E+00  0.110E+00  0.110E+00  0.110E+00
  10.310  0.304E+00  0.101E+00  0.101E+00  0.101E+00
  10.320  0.279E+00  0.931E-01  0.931E-01  0.931E-01
  10.330  0.260E+00  0.866E-01  0.866E-01  0.866E-01
  10.340  0.237E+00  0.791E-01  0.791E-01  0.791E-01
  10.350  0.232E+00  0.774E-01  0.774E-01  0.774E-01
  10.360  0.242E+00  0.807E-01  0.807E-01  0.807E-01
  10.370  0.254E+00  0.847E-01  0.847E-01  0.847E-01
  10.380  0.266E+00  0.885E-01  0.885E-01  0.885E-01
  10.390  0.277E+00  0.922E-01  0.922E-01  0.922E-01
  10.400  0.288E+00  0.959E-01  0.959E-01  0.959E-01
  10.410  0.299E+00  0.996E-01  0.996E-01  0.996E-01
  10.420  0.310E+00  0.103E+00  0.103E+00  0.103E+00
  10.430  0.321E+00  0.107E+00  0.107E+00  0.107E+00
  10.440  0.332E+00  0.111E+00  0.111E+00  0.111E+00
  10.450  0.343E+00  0.114E+00  0.114E+00  0.114E+00
  10.460  0.353E+00  0.118E+00  0.118E+00  0.118E+00
  10.470  0.363E+00  0.121E+00  0.121E+00  0.121E+00
  10.480  0.373E+00  0.124E+00  0.124E+00  0.124E+00
  10.490  0.381E+00  0.127E+00  0.127E+00  0.127E+00
  10.500  0.389E+00  0.130E+00  0.130E+00  0.130E+00
  10.510  0.395E+00  0.132E+00  0.132E+00  0.132E+00
  10.520  0.404E+00  0.135E+00  0.135E+00  0.135E+00
  10.530  0.402E+00  0.134E+00  0.134E+00  0.134E+00
  10.540  0.384E+00  0.128E+00  0.128E+00  0.128E+00
  10.550  0.397E+00  0.132E+00  0.132E+00  0.132E+00
  10.560  0.418E+00  0.139E+00  0.139E+00  0.139E+00
  10.570  0.416E+00  0.139E+00  0.139E+00  0.139E+00
  10.580  0.424E+00  0.141E+00  0.141E+00  0.141E+00
  10.590  0.427E+00  0.142E+00  0.142E+00  0.142E+00
  10.600  0.418E+00  0.139E+00  0.139E+00  0.139E+00
  10.610  0.413E+00  0.138E+00  0.138E+00  0.138E+00
  10.620  0.399E+00  0.133E+00  0.133E+00  0.133E+00
  10.630  0.414E+00  0.138E+00  0.138E+00  0.138E+00
  10.640  0.402E+00  0.134E+00  0.134E+00  0.134E+00
  10.650  0.393E+00  0.131E+00  0.131E+00  0.131E+00
  10.660  0.405E+00  0.135E+00  0.135E+00  0.135E+00
  10.670  0.351E+00  0.117E+00  0.117E+00  0.117E+00
  10.680  0.248E+00  0.827E-01  0.827E-01  0.827E-01
  10.690  0.137E+00  0.456E-01  0.456E-01  0.456E-01
  10.700  0.124E+00  0.414E-01  0.414E-01  0.414E-01
  10.710  0.118E+00  0.392E-01  0.392E-01  0.392E-01
  10.720  0.111E+00  0.371E-01  0.371E-01  0.371E-01
  10.730  0.105E+00  0.351E-01  0.351E-01  0.351E-01
  10.740  0.995E-01  0.332E-01  0.332E-01  0.332E-01
  10.750  0.952E-01  0.317E-01  0.317E-01  0.317E-01
  10.760  0.940E-01  0.313E-01  0.313E-01  0.313E-01
  10.770  0.931E-01  0.310E-01  0.310E-01  0.310E-01
  10.780  0.999E-01  0.333E-01  0.333E-01  0.333E-01
  10.790  0.115E+00  0.382E-01  0.382E-01  0.382E-01
  10.800  0.129E+00  0.429E-01  0.429E-01  0.429E-01
  10.810  0.142E+00  0.472E-01  0.472E-01  0.472E-01
  10.820  0.155E+00  0.518E-01  0.518E-01  0.518E-01
  10.830  0.182E+00  0.607E-01  0.607E-01  0.607E-01
  10.840  0.213E+00  0.710E-01  0.710E-01  0.710E-01
  10.850  0.229E+00  0.763E-01  0.763E-01  0.763E-01
  10.860  0.233E+00  0.778E-01  0.778E-01  0.778E-01
  10.870  0.252E+00  0.840E-01  0.840E-01  0.840E-01
  10.880  0.271E+00  0.904E-01  0.904E-01  0.904E-01
  10.890  0.272E+00  0.905E-01  0.905E-01  0.905E-01
  10.900  0.306E+00  0.102E+00  0.102E+00  0.102E+00
  10.910  0.366E+00  0.122E+00  0.122E+00  0.122E+00
  10.920  0.434E+00  0.145E+00  0.145E+00  0.145E+00
  10.930  0.472E+00  0.157E+00  0.157E+00  0.157E+00
  10.940  0.456E+00  0.152E+00  0.152E+00  0.152E+00
  10.950  0.338E+00  0.113E+00  0.113E+00  0.113E+00
  10.960  0.345E+00  0.115E+00  0.115E+00  0.115E+00
  10.970  0.354E+00  0.118E+00  0.118E+00  0.118E+00
  10.980  0.343E+00  0.114E+00  0.114E+00  0.114E+00
  10.990  0.330E+00  0.110E+00  0.110E+00  0.110E+00
  11.000  0.316E+00  0.105E+00  0.105E+00  0.105E+00
  11.010  0.302E+00  0.101E+00  0.101E+00  0.101E+00
  11.020  0.288E+00  0.959E-01  0.959E-01  0.959E-01
  11.030  0.273E+00  0.911E-01  0.911E-01  0.911E-01
  11.040  0.259E+00  0.862E-01  0.862E-01  0.862E-01
  11.050  0.245E+00  0.815E-01  0.815E-01  0.815E-01
  11.060  0.231E+00  0.770E-01  0.770E-01  0.770E-01
  11.070  0.219E+00  0.729E-01  0.729E-01  0.729E-01
  11.080  0.208E+00  0.692E-01  0.692E-01  0.692E-01
  11.090  0.199E+00  0.662E-01  0.662E-01  0.662E-01
  11.100  0.192E+00  0.641E-01  0.641E-01  0.641E-01
  11.110  0.188E+00  0.626E-01  0.626E-01  0.626E-01
  11.120  0.185E+00  0.616E-01  0.616E-01  0.616E-01
  11.130  0.182E+00  0.608E-01  0.608E-01  0.608E-01
  11.140  0.181E+00  0.602E-01  0.602E-01  0.602E-01
  11.150  0.180E+00  0.599E-01  0.599E-01  0.599E-01
  11.160  0.179E+00  0.596E-01  0.596E-01  0.596E-01
  11.170  0.178E+00  0.593E-01  0.593E-01  0.593E-01
  11.180  0.177E+00  0.590E-01  0.590E-01  0.590E-01
  11.190  0.176E+00  0.586E-01  0.586E-01  0.586E-01
  11.200  0.175E+00  0.582E-01  0.582E-01  0.582E-01
  11.210  0.174E+00  0.578E-01  0.578E-01  0.578E-01
  11.220  0.173E+00  0.578E-01  0.578E-01  0.578E-01
  11.230  0.174E+00  0.581E-01  0.581E-01  0.581E-01
  11.240  0.177E+00  0.589E-01  0.589E-01  0.589E-01
  11.250  0.199E+00  0.663E-01  0.663E-01  0.663E-01
  11.260  0.313E+00  0.104E+00  0.104E+00  0.104E+00
  11.270  0.507E+00  0.169E+00  0.169E+00  0.169E+00
  11.280  0.844E+00  0.281E+00  0.281E+00  0.281E+00
  11.290  0.101E+01  0.338E+00  0.338E+00  0.338E+00
  11.300  0.955E+00  0.318E+00  0.318E+00  0.318E+00
  11.310  0.836E+00  0.279E+00  0.279E+00  0.279E+00
  11.320  0.797E+00  0.266E+00  0.266E+00  0.266E+00
  11.330  0.715E+00  0.238E+00  0.238E+00  0.238E+00
  11.340  0.625E+00  0.208E+00  0.208E+00  0.208E+00
  11.350  0.620E+00  0.207E+00  0.207E+00  0.207E+00
  11.360  0.624E+00  0.208E+00  0.208E+00  0.208E+00
  11.370  0.607E+00  0.202E+00  0.202E+00  0.202E+00
  11.380  0.590E+00  0.197E+00  0.197E+00  0.197E+00
  11.390  0.572E+00  0.191E+00  0.191E+00  0.191E+00
  11.400  0.554E+00  0.185E+00  0.185E+00  0.185E+00
  11.410  0.535E+00  0.178E+00  0.178E+00  0.178E+00
  11.420  0.518E+00  0.173E+00  0.173E+00  0.173E+00
  11.430  0.508E+00  0.169E+00  0.169E+00  0.169E+00
  11.440  0.561E+00  0.187E+00  0.187E+00  0.187E+00
  11.450  0.626E+00  0.209E+00  0.209E+00  0.209E+00
  11.460  0.688E+00  0.229E+00  0.229E+00  0.229E+00
  11.470  0.741E+00  0.247E+00  0.247E+00  0.247E+00
  11.480  0.788E+00  0.263E+00  0.263E+00  0.263E+00
  11.490  0.824E+00  0.275E+00  0.275E+00  0.275E+00
  11.500  0.849E+00  0.283E+00  0.283E+00  0.283E+00
  11.510  0.863E+00  0.288E+00  0.288E+00  0.288E+00
  11.520  0.866E+00  0.289E+00  0.289E+00  0.289E+00
  11.530  0.866E+00  0.289E+00  0.289E+00  0.289E+00
  11.540  0.866E+00  0.289E+00  0.289E+00  0.289E+00
  11.550  0.857E+00  0.286E+00  0.286E+00  0.286E+00
  11.560  0.848E+00  0.283E+00  0.283E+00  0.283E+00
  11.570  0.849E+00  0.283E+00  0.283E+00  0.283E+00
  11.580  0.873E+00  0.291E+00  0.291E+00  0.291E+00
  11.590  0.897E+00  0.299E+00  0.299E+00  0.299E+00
  11.600  0.916E+00  0.305E+00  0.305E+00  0.305E+00
  11.610  0.924E+00  0.308E+00  0.308E+00  0.308E+00
  11.620  0.908E+00  0.303E+00  0.303E+00  0.303E+00
  11.630  0.867E+00  0.289E+00  0.289E+00  0.289E+00
  11.640  0.802E+00  0.267E+00  0.267E+00  0.267E+00
  11.650  0.743E+00  0.248E+00  0.248E+00  0.248E+00
  11.660  0.727E+00  0.242E+00  0.242E+00  0.242E+00
  11.670  0.741E+00  0.247E+00  0.247E+00  0.247E+00
  11.680  0.783E+00  0.261E+00  0.261E+00  0.261E+00
  11.690  0.767E+00  0.256E+00  0.256E+00  0.256E+00
  11.700  0.748E+00  0.249E+00  0.249E+00  0.249E+00
  11.710  0.728E+00  0.243E+00  0.243E+00  0.243E+00
  11.720  0.699E+00  0.233E+00  0.233E+00  0.233E+00
  11.730  0.660E+00  0.220E+00  0.220E+00  0.220E+00
  11.740  0.630E+00  0.210E+00  0.210E+00  0.210E+00
  11.750  0.595E+00  0.198E+00  0.198E+00  0.198E+00
  11.760  0.562E+00  0.187E+00  0.187E+00  0.187E+00
  11.770  0.535E+00  0.178E+00  0.178E+00  0.178E+00
  11.780  0.506E+00  0.169E+00  0.169E+00  0.169E+00
  11.790  0.473E+00  0.158E+00  0.158E+00  0.158E+00
  11.800  0.435E+00  0.145E+00  0.145E+00  0.145E+00
  11.810  0.398E+00  0.133E+00  0.133E+00  0.133E+00
  11.820  0.359E+00  0.120E+00  0.120E+00  0.120E+00
  11.830  0.326E+00  0.109E+00  0.109E+00  0.109E+00
  11.840  0.293E+00  0.976E-01  0.976E-01  0.976E-01
  11.850  0.260E+00  0.866E-01  0.866E-01  0.866E-01
  11.860  0.235E+00  0.782E-01  0.782E-01  0.782E-01
  11.870  0.219E+00  0.732E-01  0.732E-01  0.732E-01
  11.880  0.212E+00  0.706E-01  0.706E-01  0.706E-01
  11.890  0.209E+00  0.697E-01  0.697E-01  0.697E-01
  11.900  0.318E+00  0.106E+00  0.106E+00  0.106E+00
  11.910  0.182E+00  0.607E-01  0.607E-01  0.607E-01
  11.920  0.161E+00  0.536E-01  0.536E-01  0.536E-01
  11.930  0.147E+00  0.488E-01  0.488E-01  0.488E-01
  11.940  0.131E+00  0.436E-01  0.436E-01  0.436E-01
  11.950  0.114E+00  0.381E-01  0.381E-01  0.381E-01
  11.960  0.979E-01  0.326E-01  0.326E-01  0.326E-01
  11.970  0.817E-01  0.272E-01  0.272E-01  0.272E-01
  11.980  0.654E-01  0.218E-01  0.218E-01  0.218E-01
  11.990  0.533E-01  0.178E-01  0.178E-01  0.178E-01
  12.000  0.425E-01  0.142E-01  0.142E-01  0.142E-01
  12.010  0.331E-01  0.110E-01  0.110E-01  0.110E-01
