#  E (eV)   dosup(E)     dosdw(E)   Int dos(E) EFermi =    7.859 eV
 -15.000  0.0000E+00  0.0000E+00  0.8000E+01
 -14.990  0.0000E+00  0.0000E+00  0.8000E+01
 -14.980  0.0000E+00  0.0000E+00  0.8000E+01
 -14.970  0.0000E+00  0.0000E+00  0.8000E+01
 -14.960  0.0000E+00  0.0000E+00  0.8000E+01
 -14.950  0.0000E+00  0.0000E+00  0.8000E+01
 -14.940  0.0000E+00  0.0000E+00  0.8000E+01
 -14.930  0.0000E+00  0.0000E+00  0.8000E+01
 -14.920  0.0000E+00  0.0000E+00  0.8000E+01
 -14.910  0.0000E+00  0.0000E+00  0.8000E+01
 -14.900  0.0000E+00  0.0000E+00  0.8000E+01
 -14.890  0.0000E+00  0.0000E+00  0.8000E+01
 -14.880  0.0000E+00  0.0000E+00  0.8000E+01
 -14.870  0.0000E+00  0.0000E+00  0.8000E+01
 -14.860  0.0000E+00  0.0000E+00  0.8000E+01
 -14.850  0.0000E+00  0.0000E+00  0.8000E+01
 -14.840  0.0000E+00  0.0000E+00  0.8000E+01
 -14.830  0.0000E+00  0.0000E+00  0.8000E+01
 -14.820  0.0000E+00  0.0000E+00  0.8000E+01
 -14.810  0.0000E+00  0.0000E+00  0.8000E+01
 -14.800  0.0000E+00  0.0000E+00  0.8000E+01
 -14.790  0.0000E+00  0.0000E+00  0.8000E+01
 -14.780  0.0000E+00  0.0000E+00  0.8000E+01
 -14.770  0.0000E+00  0.0000E+00  0.8000E+01
 -14.760  0.0000E+00  0.0000E+00  0.8000E+01
 -14.750  0.0000E+00  0.0000E+00  0.8000E+01
 -14.740  0.0000E+00  0.0000E+00  0.8000E+01
 -14.730  0.0000E+00  0.0000E+00  0.8000E+01
 -14.720  0.0000E+00  0.0000E+00  0.8000E+01
 -14.710  0.0000E+00  0.0000E+00  0.8000E+01
 -14.700  0.0000E+00  0.0000E+00  0.8000E+01
 -14.690  0.0000E+00  0.0000E+00  0.8000E+01
 -14.680  0.0000E+00  0.0000E+00  0.8000E+01
 -14.670  0.0000E+00  0.0000E+00  0.8000E+01
 -14.660  0.0000E+00  0.0000E+00  0.8000E+01
 -14.650  0.0000E+00  0.0000E+00  0.8000E+01
 -14.640  0.0000E+00  0.0000E+00  0.8000E+01
 -14.630  0.0000E+00  0.0000E+00  0.8000E+01
 -14.620  0.0000E+00  0.0000E+00  0.8000E+01
 -14.610  0.0000E+00  0.0000E+00  0.8000E+01
 -14.600  0.0000E+00  0.0000E+00  0.8000E+01
 -14.590  0.0000E+00  0.0000E+00  0.8000E+01
 -14.580  0.0000E+00  0.0000E+00  0.8000E+01
 -14.570  0.0000E+00  0.0000E+00  0.8000E+01
 -14.560  0.0000E+00  0.0000E+00  0.8000E+01
 -14.550  0.0000E+00  0.0000E+00  0.8000E+01
 -14.540  0.0000E+00  0.0000E+00  0.8000E+01
 -14.530  0.0000E+00  0.0000E+00  0.8000E+01
 -14.520  0.0000E+00  0.0000E+00  0.8000E+01
 -14.510  0.0000E+00  0.0000E+00  0.8000E+01
 -14.500  0.0000E+00  0.0000E+00  0.8000E+01
 -14.490  0.0000E+00  0.0000E+00  0.8000E+01
 -14.480  0.0000E+00  0.0000E+00  0.8000E+01
 -14.470  0.0000E+00  0.0000E+00  0.8000E+01
 -14.460  0.0000E+00  0.0000E+00  0.8000E+01
 -14.450  0.0000E+00  0.0000E+00  0.8000E+01
 -14.440  0.0000E+00  0.0000E+00  0.8000E+01
 -14.430  0.0000E+00  0.0000E+00  0.8000E+01
 -14.420  0.0000E+00  0.0000E+00  0.8000E+01
 -14.410  0.0000E+00  0.0000E+00  0.8000E+01
 -14.400  0.0000E+00  0.0000E+00  0.8000E+01
 -14.390  0.0000E+00  0.0000E+00  0.8000E+01
 -14.380  0.0000E+00  0.0000E+00  0.8000E+01
 -14.370  0.0000E+00  0.0000E+00  0.8000E+01
 -14.360  0.0000E+00  0.0000E+00  0.8000E+01
 -14.350  0.0000E+00  0.0000E+00  0.8000E+01
 -14.340  0.0000E+00  0.0000E+00  0.8000E+01
 -14.330  0.0000E+00  0.0000E+00  0.8000E+01
 -14.320  0.0000E+00  0.0000E+00  0.8000E+01
 -14.310  0.0000E+00  0.0000E+00  0.8000E+01
 -14.300  0.0000E+00  0.0000E+00  0.8000E+01
 -14.290  0.0000E+00  0.0000E+00  0.8000E+01
 -14.280  0.0000E+00  0.0000E+00  0.8000E+01
 -14.270  0.0000E+00  0.0000E+00  0.8000E+01
 -14.260  0.0000E+00  0.0000E+00  0.8000E+01
 -14.250  0.0000E+00  0.0000E+00  0.8000E+01
 -14.240  0.0000E+00  0.0000E+00  0.8000E+01
 -14.230  0.0000E+00  0.0000E+00  0.8000E+01
 -14.220  0.0000E+00  0.0000E+00  0.8000E+01
 -14.210  0.0000E+00  0.0000E+00  0.8000E+01
 -14.200  0.0000E+00  0.0000E+00  0.8000E+01
 -14.190  0.0000E+00  0.0000E+00  0.8000E+01
 -14.180  0.0000E+00  0.0000E+00  0.8000E+01
 -14.170  0.0000E+00  0.0000E+00  0.8000E+01
 -14.160  0.0000E+00  0.0000E+00  0.8000E+01
 -14.150  0.0000E+00  0.0000E+00  0.8000E+01
 -14.140  0.0000E+00  0.0000E+00  0.8000E+01
 -14.130  0.0000E+00  0.0000E+00  0.8000E+01
 -14.120  0.0000E+00  0.0000E+00  0.8000E+01
 -14.110  0.0000E+00  0.0000E+00  0.8000E+01
 -14.100  0.0000E+00  0.0000E+00  0.8000E+01
 -14.090  0.0000E+00  0.0000E+00  0.8000E+01
 -14.080  0.0000E+00  0.0000E+00  0.8000E+01
 -14.070  0.0000E+00  0.0000E+00  0.8000E+01
 -14.060  0.0000E+00  0.0000E+00  0.8000E+01
 -14.050  0.0000E+00  0.0000E+00  0.8000E+01
 -14.040  0.0000E+00  0.0000E+00  0.8000E+01
 -14.030  0.0000E+00  0.0000E+00  0.8000E+01
 -14.020  0.0000E+00  0.0000E+00  0.8000E+01
 -14.010  0.0000E+00  0.0000E+00  0.8000E+01
 -14.000  0.0000E+00  0.0000E+00  0.8000E+01
 -13.990  0.0000E+00  0.0000E+00  0.8000E+01
 -13.980  0.0000E+00  0.0000E+00  0.8000E+01
 -13.970  0.0000E+00  0.0000E+00  0.8000E+01
 -13.960  0.0000E+00  0.0000E+00  0.8000E+01
 -13.950  0.0000E+00  0.0000E+00  0.8000E+01
 -13.940  0.0000E+00  0.0000E+00  0.8000E+01
 -13.930  0.0000E+00  0.0000E+00  0.8000E+01
 -13.920  0.0000E+00  0.0000E+00  0.8000E+01
 -13.910  0.0000E+00  0.0000E+00  0.8000E+01
 -13.900  0.0000E+00  0.0000E+00  0.8000E+01
 -13.890  0.0000E+00  0.0000E+00  0.8000E+01
 -13.880  0.0000E+00  0.0000E+00  0.8000E+01
 -13.870  0.0000E+00  0.0000E+00  0.8000E+01
 -13.860  0.0000E+00  0.0000E+00  0.8000E+01
 -13.850  0.0000E+00  0.0000E+00  0.8000E+01
 -13.840  0.0000E+00  0.0000E+00  0.8000E+01
 -13.830  0.0000E+00  0.0000E+00  0.8000E+01
 -13.820  0.0000E+00  0.0000E+00  0.8000E+01
 -13.810  0.0000E+00  0.0000E+00  0.8000E+01
 -13.800  0.0000E+00  0.0000E+00  0.8000E+01
 -13.790  0.0000E+00  0.0000E+00  0.8000E+01
 -13.780  0.0000E+00  0.0000E+00  0.8000E+01
 -13.770  0.0000E+00  0.0000E+00  0.8000E+01
 -13.760  0.0000E+00  0.0000E+00  0.8000E+01
 -13.750  0.0000E+00  0.0000E+00  0.8000E+01
 -13.740  0.0000E+00  0.0000E+00  0.8000E+01
 -13.730  0.0000E+00  0.0000E+00  0.8000E+01
 -13.720  0.0000E+00  0.0000E+00  0.8000E+01
 -13.710  0.0000E+00  0.0000E+00  0.8000E+01
 -13.700  0.0000E+00  0.0000E+00  0.8000E+01
 -13.690  0.0000E+00  0.0000E+00  0.8000E+01
 -13.680  0.0000E+00  0.0000E+00  0.8000E+01
 -13.670  0.0000E+00  0.0000E+00  0.8000E+01
 -13.660  0.0000E+00  0.0000E+00  0.8000E+01
 -13.650  0.0000E+00  0.0000E+00  0.8000E+01
 -13.640  0.0000E+00  0.0000E+00  0.8000E+01
 -13.630  0.0000E+00  0.0000E+00  0.8000E+01
 -13.620  0.0000E+00  0.0000E+00  0.8000E+01
 -13.610  0.0000E+00  0.0000E+00  0.8000E+01
 -13.600  0.0000E+00  0.0000E+00  0.8000E+01
 -13.590  0.0000E+00  0.0000E+00  0.8000E+01
 -13.580  0.0000E+00  0.0000E+00  0.8000E+01
 -13.570  0.0000E+00  0.0000E+00  0.8000E+01
 -13.560  0.0000E+00  0.0000E+00  0.8000E+01
 -13.550  0.0000E+00  0.0000E+00  0.8000E+01
 -13.540  0.0000E+00  0.0000E+00  0.8000E+01
 -13.530  0.0000E+00  0.0000E+00  0.8000E+01
 -13.520  0.0000E+00  0.0000E+00  0.8000E+01
 -13.510  0.0000E+00  0.0000E+00  0.8000E+01
 -13.500  0.0000E+00  0.0000E+00  0.8000E+01
 -13.490  0.0000E+00  0.0000E+00  0.8000E+01
 -13.480  0.0000E+00  0.0000E+00  0.8000E+01
 -13.470  0.0000E+00  0.0000E+00  0.8000E+01
 -13.460  0.0000E+00  0.0000E+00  0.8000E+01
 -13.450  0.0000E+00  0.0000E+00  0.8000E+01
 -13.440  0.0000E+00  0.0000E+00  0.8000E+01
 -13.430  0.0000E+00  0.0000E+00  0.8000E+01
 -13.420  0.0000E+00  0.0000E+00  0.8000E+01
 -13.410  0.0000E+00  0.0000E+00  0.8000E+01
 -13.400  0.0000E+00  0.0000E+00  0.8000E+01
 -13.390  0.0000E+00  0.0000E+00  0.8000E+01
 -13.380  0.0000E+00  0.0000E+00  0.8000E+01
 -13.370  0.0000E+00  0.0000E+00  0.8000E+01
 -13.360  0.0000E+00  0.0000E+00  0.8000E+01
 -13.350  0.0000E+00  0.0000E+00  0.8000E+01
 -13.340  0.0000E+00  0.0000E+00  0.8000E+01
 -13.330  0.0000E+00  0.0000E+00  0.8000E+01
 -13.320  0.0000E+00  0.0000E+00  0.8000E+01
 -13.310  0.0000E+00  0.0000E+00  0.8000E+01
 -13.300  0.0000E+00  0.0000E+00  0.8000E+01
 -13.290  0.0000E+00  0.0000E+00  0.8000E+01
 -13.280  0.0000E+00  0.0000E+00  0.8000E+01
 -13.270  0.0000E+00  0.0000E+00  0.8000E+01
 -13.260  0.0000E+00  0.0000E+00  0.8000E+01
 -13.250  0.0000E+00  0.0000E+00  0.8000E+01
 -13.240  0.0000E+00  0.0000E+00  0.8000E+01
 -13.230  0.0000E+00  0.0000E+00  0.8000E+01
 -13.220  0.0000E+00  0.0000E+00  0.8000E+01
 -13.210  0.0000E+00  0.0000E+00  0.8000E+01
 -13.200  0.0000E+00  0.0000E+00  0.8000E+01
 -13.190  0.0000E+00  0.0000E+00  0.8000E+01
 -13.180  0.0000E+00  0.0000E+00  0.8000E+01
 -13.170  0.0000E+00  0.0000E+00  0.8000E+01
 -13.160  0.0000E+00  0.0000E+00  0.8000E+01
 -13.150  0.0000E+00  0.0000E+00  0.8000E+01
 -13.140  0.0000E+00  0.0000E+00  0.8000E+01
 -13.130  0.0000E+00  0.0000E+00  0.8000E+01
 -13.120  0.0000E+00  0.0000E+00  0.8000E+01
 -13.110  0.0000E+00  0.0000E+00  0.8000E+01
 -13.100  0.0000E+00  0.0000E+00  0.8000E+01
 -13.090  0.0000E+00  0.0000E+00  0.8000E+01
 -13.080  0.0000E+00  0.0000E+00  0.8000E+01
 -13.070  0.0000E+00  0.0000E+00  0.8000E+01
 -13.060  0.0000E+00  0.0000E+00  0.8000E+01
 -13.050  0.0000E+00  0.0000E+00  0.8000E+01
 -13.040  0.0000E+00  0.0000E+00  0.8000E+01
 -13.030  0.0000E+00  0.0000E+00  0.8000E+01
 -13.020  0.0000E+00  0.0000E+00  0.8000E+01
 -13.010  0.0000E+00  0.0000E+00  0.8000E+01
 -13.000  0.0000E+00  0.0000E+00  0.8000E+01
 -12.990  0.0000E+00  0.0000E+00  0.8000E+01
 -12.980  0.0000E+00  0.0000E+00  0.8000E+01
 -12.970  0.0000E+00  0.0000E+00  0.8000E+01
 -12.960  0.0000E+00  0.0000E+00  0.8000E+01
 -12.950  0.0000E+00  0.0000E+00  0.8000E+01
 -12.940  0.0000E+00  0.0000E+00  0.8000E+01
 -12.930  0.0000E+00  0.0000E+00  0.8000E+01
 -12.920  0.0000E+00  0.0000E+00  0.8000E+01
 -12.910  0.0000E+00  0.0000E+00  0.8000E+01
 -12.900  0.0000E+00  0.0000E+00  0.8000E+01
 -12.890  0.0000E+00  0.0000E+00  0.8000E+01
 -12.880  0.0000E+00  0.0000E+00  0.8000E+01
 -12.870  0.0000E+00  0.0000E+00  0.8000E+01
 -12.860  0.0000E+00  0.0000E+00  0.8000E+01
 -12.850  0.0000E+00  0.0000E+00  0.8000E+01
 -12.840  0.0000E+00  0.0000E+00  0.8000E+01
 -12.830  0.0000E+00  0.0000E+00  0.8000E+01
 -12.820  0.0000E+00  0.0000E+00  0.8000E+01
 -12.810  0.0000E+00  0.0000E+00  0.8000E+01
 -12.800  0.0000E+00  0.0000E+00  0.8000E+01
 -12.790  0.0000E+00  0.0000E+00  0.8000E+01
 -12.780  0.0000E+00  0.0000E+00  0.8000E+01
 -12.770  0.0000E+00  0.0000E+00  0.8000E+01
 -12.760  0.0000E+00  0.0000E+00  0.8000E+01
 -12.750  0.0000E+00  0.0000E+00  0.8000E+01
 -12.740  0.0000E+00  0.0000E+00  0.8000E+01
 -12.730  0.0000E+00  0.0000E+00  0.8000E+01
 -12.720  0.0000E+00  0.0000E+00  0.8000E+01
 -12.710  0.0000E+00  0.0000E+00  0.8000E+01
 -12.700  0.0000E+00  0.0000E+00  0.8000E+01
 -12.690  0.0000E+00  0.0000E+00  0.8000E+01
 -12.680  0.0000E+00  0.0000E+00  0.8000E+01
 -12.670  0.0000E+00  0.0000E+00  0.8000E+01
 -12.660  0.0000E+00  0.0000E+00  0.8000E+01
 -12.650  0.0000E+00  0.0000E+00  0.8000E+01
 -12.640  0.0000E+00  0.0000E+00  0.8000E+01
 -12.630  0.0000E+00  0.0000E+00  0.8000E+01
 -12.620  0.0000E+00  0.0000E+00  0.8000E+01
 -12.610  0.0000E+00  0.0000E+00  0.8000E+01
 -12.600  0.0000E+00  0.0000E+00  0.8000E+01
 -12.590  0.0000E+00  0.0000E+00  0.8000E+01
 -12.580  0.0000E+00  0.0000E+00  0.8000E+01
 -12.570  0.0000E+00  0.0000E+00  0.8000E+01
 -12.560  0.0000E+00  0.0000E+00  0.8000E+01
 -12.550  0.0000E+00  0.0000E+00  0.8000E+01
 -12.540  0.0000E+00  0.0000E+00  0.8000E+01
 -12.530  0.0000E+00  0.0000E+00  0.8000E+01
 -12.520  0.0000E+00  0.0000E+00  0.8000E+01
 -12.510  0.0000E+00  0.0000E+00  0.8000E+01
 -12.500  0.0000E+00  0.0000E+00  0.8000E+01
 -12.490  0.0000E+00  0.0000E+00  0.8000E+01
 -12.480  0.0000E+00  0.0000E+00  0.8000E+01
 -12.470  0.0000E+00  0.0000E+00  0.8000E+01
 -12.460  0.0000E+00  0.0000E+00  0.8000E+01
 -12.450  0.0000E+00  0.0000E+00  0.8000E+01
 -12.440  0.0000E+00  0.0000E+00  0.8000E+01
 -12.430  0.0000E+00  0.0000E+00  0.8000E+01
 -12.420  0.0000E+00  0.0000E+00  0.8000E+01
 -12.410  0.0000E+00  0.0000E+00  0.8000E+01
 -12.400  0.0000E+00  0.0000E+00  0.8000E+01
 -12.390  0.0000E+00  0.0000E+00  0.8000E+01
 -12.380  0.0000E+00  0.0000E+00  0.8000E+01
 -12.370  0.0000E+00  0.0000E+00  0.8000E+01
 -12.360  0.0000E+00  0.0000E+00  0.8000E+01
 -12.350  0.0000E+00  0.0000E+00  0.8000E+01
 -12.340  0.0000E+00  0.0000E+00  0.8000E+01
 -12.330  0.0000E+00  0.0000E+00  0.8000E+01
 -12.320  0.0000E+00  0.0000E+00  0.8000E+01
 -12.310  0.0000E+00  0.0000E+00  0.8000E+01
 -12.300  0.0000E+00  0.0000E+00  0.8000E+01
 -12.290  0.0000E+00  0.0000E+00  0.8000E+01
 -12.280  0.0000E+00  0.0000E+00  0.8000E+01
 -12.270  0.0000E+00  0.0000E+00  0.8000E+01
 -12.260  0.0000E+00  0.0000E+00  0.8000E+01
 -12.250  0.0000E+00  0.0000E+00  0.8000E+01
 -12.240  0.0000E+00  0.0000E+00  0.8000E+01
 -12.230  0.0000E+00  0.0000E+00  0.8000E+01
 -12.220  0.0000E+00  0.0000E+00  0.8000E+01
 -12.210  0.0000E+00  0.0000E+00  0.8000E+01
 -12.200  0.0000E+00  0.0000E+00  0.8000E+01
 -12.190  0.0000E+00  0.0000E+00  0.8000E+01
 -12.180  0.0000E+00  0.0000E+00  0.8000E+01
 -12.170  0.0000E+00  0.0000E+00  0.8000E+01
 -12.160  0.0000E+00  0.0000E+00  0.8000E+01
 -12.150  0.0000E+00  0.0000E+00  0.8000E+01
 -12.140  0.0000E+00  0.0000E+00  0.8000E+01
 -12.130  0.0000E+00  0.0000E+00  0.8000E+01
 -12.120  0.0000E+00  0.0000E+00  0.8000E+01
 -12.110  0.0000E+00  0.0000E+00  0.8000E+01
 -12.100  0.0000E+00  0.0000E+00  0.8000E+01
 -12.090  0.0000E+00  0.0000E+00  0.8000E+01
 -12.080  0.0000E+00  0.0000E+00  0.8000E+01
 -12.070  0.0000E+00  0.0000E+00  0.8000E+01
 -12.060  0.0000E+00  0.0000E+00  0.8000E+01
 -12.050  0.0000E+00  0.0000E+00  0.8000E+01
 -12.040  0.0000E+00  0.0000E+00  0.8000E+01
 -12.030  0.0000E+00  0.0000E+00  0.8000E+01
 -12.020  0.0000E+00  0.0000E+00  0.8000E+01
 -12.010  0.0000E+00  0.0000E+00  0.8000E+01
 -12.000  0.0000E+00  0.0000E+00  0.8000E+01
 -11.990  0.0000E+00  0.0000E+00  0.8000E+01
 -11.980  0.0000E+00  0.0000E+00  0.8000E+01
 -11.970  0.0000E+00  0.0000E+00  0.8000E+01
 -11.960  0.0000E+00  0.0000E+00  0.8000E+01
 -11.950  0.0000E+00  0.0000E+00  0.8000E+01
 -11.940  0.0000E+00  0.0000E+00  0.8000E+01
 -11.930  0.0000E+00  0.0000E+00  0.8000E+01
 -11.920  0.0000E+00  0.0000E+00  0.8000E+01
 -11.910  0.0000E+00  0.0000E+00  0.8000E+01
 -11.900  0.0000E+00  0.0000E+00  0.8000E+01
 -11.890  0.0000E+00  0.0000E+00  0.8000E+01
 -11.880  0.0000E+00  0.0000E+00  0.8000E+01
 -11.870  0.0000E+00  0.0000E+00  0.8000E+01
 -11.860  0.0000E+00  0.0000E+00  0.8000E+01
 -11.850  0.0000E+00  0.0000E+00  0.8000E+01
 -11.840  0.0000E+00  0.0000E+00  0.8000E+01
 -11.830  0.0000E+00  0.0000E+00  0.8000E+01
 -11.820  0.0000E+00  0.0000E+00  0.8000E+01
 -11.810  0.0000E+00  0.0000E+00  0.8000E+01
 -11.800  0.0000E+00  0.0000E+00  0.8000E+01
 -11.790  0.0000E+00  0.0000E+00  0.8000E+01
 -11.780  0.0000E+00  0.0000E+00  0.8000E+01
 -11.770  0.0000E+00  0.0000E+00  0.8000E+01
 -11.760  0.0000E+00  0.0000E+00  0.8000E+01
 -11.750  0.0000E+00  0.0000E+00  0.8000E+01
 -11.740  0.0000E+00  0.0000E+00  0.8000E+01
 -11.730  0.0000E+00  0.0000E+00  0.8000E+01
 -11.720  0.0000E+00  0.0000E+00  0.8000E+01
 -11.710  0.0000E+00  0.0000E+00  0.8000E+01
 -11.700  0.0000E+00  0.0000E+00  0.8000E+01
 -11.690  0.0000E+00  0.0000E+00  0.8000E+01
 -11.680  0.0000E+00  0.0000E+00  0.8000E+01
 -11.670  0.0000E+00  0.0000E+00  0.8000E+01
 -11.660  0.0000E+00  0.0000E+00  0.8000E+01
 -11.650  0.0000E+00  0.0000E+00  0.8000E+01
 -11.640  0.0000E+00  0.0000E+00  0.8000E+01
 -11.630  0.0000E+00  0.0000E+00  0.8000E+01
 -11.620  0.0000E+00  0.0000E+00  0.8000E+01
 -11.610  0.0000E+00  0.0000E+00  0.8000E+01
 -11.600  0.0000E+00  0.0000E+00  0.8000E+01
 -11.590  0.0000E+00  0.0000E+00  0.8000E+01
 -11.580  0.0000E+00  0.0000E+00  0.8000E+01
 -11.570  0.0000E+00  0.0000E+00  0.8000E+01
 -11.560  0.0000E+00  0.0000E+00  0.8000E+01
 -11.550  0.0000E+00  0.0000E+00  0.8000E+01
 -11.540  0.0000E+00  0.0000E+00  0.8000E+01
 -11.530  0.0000E+00  0.0000E+00  0.8000E+01
 -11.520  0.0000E+00  0.0000E+00  0.8000E+01
 -11.510  0.0000E+00  0.0000E+00  0.8000E+01
 -11.500  0.0000E+00  0.0000E+00  0.8000E+01
 -11.490  0.0000E+00  0.0000E+00  0.8000E+01
 -11.480  0.0000E+00  0.0000E+00  0.8000E+01
 -11.470  0.0000E+00  0.0000E+00  0.8000E+01
 -11.460  0.0000E+00  0.0000E+00  0.8000E+01
 -11.450  0.0000E+00  0.0000E+00  0.8000E+01
 -11.440  0.0000E+00  0.0000E+00  0.8000E+01
 -11.430  0.0000E+00  0.0000E+00  0.8000E+01
 -11.420  0.0000E+00  0.0000E+00  0.8000E+01
 -11.410  0.0000E+00  0.0000E+00  0.8000E+01
 -11.400  0.0000E+00  0.0000E+00  0.8000E+01
 -11.390  0.0000E+00  0.0000E+00  0.8000E+01
 -11.380  0.0000E+00  0.0000E+00  0.8000E+01
 -11.370  0.0000E+00  0.0000E+00  0.8000E+01
 -11.360  0.0000E+00  0.0000E+00  0.8000E+01
 -11.350  0.0000E+00  0.0000E+00  0.8000E+01
 -11.340  0.0000E+00  0.0000E+00  0.8000E+01
 -11.330  0.0000E+00  0.0000E+00  0.8000E+01
 -11.320  0.0000E+00  0.0000E+00  0.8000E+01
 -11.310  0.0000E+00  0.0000E+00  0.8000E+01
 -11.300  0.0000E+00  0.0000E+00  0.8000E+01
 -11.290  0.0000E+00  0.0000E+00  0.8000E+01
 -11.280  0.0000E+00  0.0000E+00  0.8000E+01
 -11.270  0.0000E+00  0.0000E+00  0.8000E+01
 -11.260  0.0000E+00  0.0000E+00  0.8000E+01
 -11.250  0.0000E+00  0.0000E+00  0.8000E+01
 -11.240  0.0000E+00  0.0000E+00  0.8000E+01
 -11.230  0.0000E+00  0.0000E+00  0.8000E+01
 -11.220  0.0000E+00  0.0000E+00  0.8000E+01
 -11.210  0.0000E+00  0.0000E+00  0.8000E+01
 -11.200  0.0000E+00  0.0000E+00  0.8000E+01
 -11.190  0.0000E+00  0.0000E+00  0.8000E+01
 -11.180  0.0000E+00  0.0000E+00  0.8000E+01
 -11.170  0.0000E+00  0.0000E+00  0.8000E+01
 -11.160  0.0000E+00  0.0000E+00  0.8000E+01
 -11.150  0.0000E+00  0.0000E+00  0.8000E+01
 -11.140  0.0000E+00  0.0000E+00  0.8000E+01
 -11.130  0.0000E+00  0.0000E+00  0.8000E+01
 -11.120  0.0000E+00  0.0000E+00  0.8000E+01
 -11.110  0.0000E+00  0.0000E+00  0.8000E+01
 -11.100  0.0000E+00  0.0000E+00  0.8000E+01
 -11.090  0.0000E+00  0.0000E+00  0.8000E+01
 -11.080  0.0000E+00  0.0000E+00  0.8000E+01
 -11.070  0.0000E+00  0.0000E+00  0.8000E+01
 -11.060  0.0000E+00  0.0000E+00  0.8000E+01
 -11.050  0.0000E+00  0.0000E+00  0.8000E+01
 -11.040  0.0000E+00  0.0000E+00  0.8000E+01
 -11.030  0.0000E+00  0.0000E+00  0.8000E+01
 -11.020  0.0000E+00  0.0000E+00  0.8000E+01
 -11.010  0.0000E+00  0.0000E+00  0.8000E+01
 -11.000  0.0000E+00  0.0000E+00  0.8000E+01
 -10.990  0.0000E+00  0.0000E+00  0.8000E+01
 -10.980  0.0000E+00  0.0000E+00  0.8000E+01
 -10.970  0.0000E+00  0.0000E+00  0.8000E+01
 -10.960  0.0000E+00  0.0000E+00  0.8000E+01
 -10.950  0.0000E+00  0.0000E+00  0.8000E+01
 -10.940  0.0000E+00  0.0000E+00  0.8000E+01
 -10.930  0.0000E+00  0.0000E+00  0.8000E+01
 -10.920  0.0000E+00  0.0000E+00  0.8000E+01
 -10.910  0.0000E+00  0.0000E+00  0.8000E+01
 -10.900  0.0000E+00  0.0000E+00  0.8000E+01
 -10.890  0.0000E+00  0.0000E+00  0.8000E+01
 -10.880  0.0000E+00  0.0000E+00  0.8000E+01
 -10.870  0.0000E+00  0.0000E+00  0.8000E+01
 -10.860  0.0000E+00  0.0000E+00  0.8000E+01
 -10.850  0.0000E+00  0.0000E+00  0.8000E+01
 -10.840  0.0000E+00  0.0000E+00  0.8000E+01
 -10.830  0.0000E+00  0.0000E+00  0.8000E+01
 -10.820  0.0000E+00  0.0000E+00  0.8000E+01
 -10.810  0.0000E+00  0.0000E+00  0.8000E+01
 -10.800  0.0000E+00  0.0000E+00  0.8000E+01
 -10.790  0.0000E+00  0.0000E+00  0.8000E+01
 -10.780  0.0000E+00  0.0000E+00  0.8000E+01
 -10.770  0.0000E+00  0.0000E+00  0.8000E+01
 -10.760  0.0000E+00  0.0000E+00  0.8000E+01
 -10.750  0.0000E+00  0.0000E+00  0.8000E+01
 -10.740  0.0000E+00  0.0000E+00  0.8000E+01
 -10.730  0.0000E+00  0.0000E+00  0.8000E+01
 -10.720  0.0000E+00  0.0000E+00  0.8000E+01
 -10.710  0.0000E+00  0.0000E+00  0.8000E+01
 -10.700  0.0000E+00  0.0000E+00  0.8000E+01
 -10.690  0.0000E+00  0.0000E+00  0.8000E+01
 -10.680  0.0000E+00  0.0000E+00  0.8000E+01
 -10.670  0.0000E+00  0.0000E+00  0.8000E+01
 -10.660  0.0000E+00  0.0000E+00  0.8000E+01
 -10.650  0.0000E+00  0.0000E+00  0.8000E+01
 -10.640  0.0000E+00  0.0000E+00  0.8000E+01
 -10.630  0.0000E+00  0.0000E+00  0.8000E+01
 -10.620  0.0000E+00  0.0000E+00  0.8000E+01
 -10.610  0.0000E+00  0.0000E+00  0.8000E+01
 -10.600  0.0000E+00  0.0000E+00  0.8000E+01
 -10.590  0.0000E+00  0.0000E+00  0.8000E+01
 -10.580  0.0000E+00  0.0000E+00  0.8000E+01
 -10.570  0.0000E+00  0.0000E+00  0.8000E+01
 -10.560  0.0000E+00  0.0000E+00  0.8000E+01
 -10.550  0.0000E+00  0.0000E+00  0.8000E+01
 -10.540  0.0000E+00  0.0000E+00  0.8000E+01
 -10.530  0.0000E+00  0.0000E+00  0.8000E+01
 -10.520  0.0000E+00  0.0000E+00  0.8000E+01
 -10.510  0.0000E+00  0.0000E+00  0.8000E+01
 -10.500  0.0000E+00  0.0000E+00  0.8000E+01
 -10.490  0.0000E+00  0.0000E+00  0.8000E+01
 -10.480  0.0000E+00  0.0000E+00  0.8000E+01
 -10.470  0.0000E+00  0.0000E+00  0.8000E+01
 -10.460  0.0000E+00  0.0000E+00  0.8000E+01
 -10.450  0.0000E+00  0.0000E+00  0.8000E+01
 -10.440  0.0000E+00  0.0000E+00  0.8000E+01
 -10.430  0.0000E+00  0.0000E+00  0.8000E+01
 -10.420  0.0000E+00  0.0000E+00  0.8000E+01
 -10.410  0.0000E+00  0.0000E+00  0.8000E+01
 -10.400  0.0000E+00  0.0000E+00  0.8000E+01
 -10.390  0.0000E+00  0.0000E+00  0.8000E+01
 -10.380  0.0000E+00  0.0000E+00  0.8000E+01
 -10.370  0.0000E+00  0.0000E+00  0.8000E+01
 -10.360  0.0000E+00  0.0000E+00  0.8000E+01
 -10.350  0.0000E+00  0.0000E+00  0.8000E+01
 -10.340  0.0000E+00  0.0000E+00  0.8000E+01
 -10.330  0.0000E+00  0.0000E+00  0.8000E+01
 -10.320  0.0000E+00  0.0000E+00  0.8000E+01
 -10.310  0.0000E+00  0.0000E+00  0.8000E+01
 -10.300  0.0000E+00  0.0000E+00  0.8000E+01
 -10.290  0.0000E+00  0.0000E+00  0.8000E+01
 -10.280  0.0000E+00  0.0000E+00  0.8000E+01
 -10.270  0.0000E+00  0.0000E+00  0.8000E+01
 -10.260  0.0000E+00  0.0000E+00  0.8000E+01
 -10.250  0.0000E+00  0.0000E+00  0.8000E+01
 -10.240  0.0000E+00  0.0000E+00  0.8000E+01
 -10.230  0.0000E+00  0.0000E+00  0.8000E+01
 -10.220  0.0000E+00  0.0000E+00  0.8000E+01
 -10.210  0.0000E+00  0.0000E+00  0.8000E+01
 -10.200  0.0000E+00  0.0000E+00  0.8000E+01
 -10.190  0.0000E+00  0.0000E+00  0.8000E+01
 -10.180  0.0000E+00  0.0000E+00  0.8000E+01
 -10.170  0.0000E+00  0.0000E+00  0.8000E+01
 -10.160  0.0000E+00  0.0000E+00  0.8000E+01
 -10.150  0.0000E+00  0.0000E+00  0.8000E+01
 -10.140  0.0000E+00  0.0000E+00  0.8000E+01
 -10.130  0.0000E+00  0.0000E+00  0.8000E+01
 -10.120  0.0000E+00  0.0000E+00  0.8000E+01
 -10.110  0.0000E+00  0.0000E+00  0.8000E+01
 -10.100  0.0000E+00  0.0000E+00  0.8000E+01
 -10.090  0.0000E+00  0.0000E+00  0.8000E+01
 -10.080  0.0000E+00  0.0000E+00  0.8000E+01
 -10.070  0.0000E+00  0.0000E+00  0.8000E+01
 -10.060  0.0000E+00  0.0000E+00  0.8000E+01
 -10.050  0.0000E+00  0.0000E+00  0.8000E+01
 -10.040  0.0000E+00  0.0000E+00  0.8000E+01
 -10.030  0.0000E+00  0.0000E+00  0.8000E+01
 -10.020  0.0000E+00  0.0000E+00  0.8000E+01
 -10.010  0.0000E+00  0.0000E+00  0.8000E+01
 -10.000  0.0000E+00  0.0000E+00  0.8000E+01
  -9.990  0.0000E+00  0.0000E+00  0.8000E+01
  -9.980  0.0000E+00  0.0000E+00  0.8000E+01
  -9.970  0.0000E+00  0.0000E+00  0.8000E+01
  -9.960  0.0000E+00  0.0000E+00  0.8000E+01
  -9.950  0.0000E+00  0.0000E+00  0.8000E+01
  -9.940  0.0000E+00  0.0000E+00  0.8000E+01
  -9.930  0.0000E+00  0.0000E+00  0.8000E+01
  -9.920  0.0000E+00  0.0000E+00  0.8000E+01
  -9.910  0.0000E+00  0.0000E+00  0.8000E+01
  -9.900  0.0000E+00  0.0000E+00  0.8000E+01
  -9.890  0.0000E+00  0.0000E+00  0.8000E+01
  -9.880  0.0000E+00  0.0000E+00  0.8000E+01
  -9.870  0.0000E+00  0.0000E+00  0.8000E+01
  -9.860  0.0000E+00  0.0000E+00  0.8000E+01
  -9.850  0.0000E+00  0.0000E+00  0.8000E+01
  -9.840  0.0000E+00  0.0000E+00  0.8000E+01
  -9.830  0.0000E+00  0.0000E+00  0.8000E+01
  -9.820  0.0000E+00  0.0000E+00  0.8000E+01
  -9.810  0.0000E+00  0.0000E+00  0.8000E+01
  -9.800  0.0000E+00  0.0000E+00  0.8000E+01
  -9.790  0.0000E+00  0.0000E+00  0.8000E+01
  -9.780  0.0000E+00  0.0000E+00  0.8000E+01
  -9.770  0.0000E+00  0.0000E+00  0.8000E+01
  -9.760  0.0000E+00  0.0000E+00  0.8000E+01
  -9.750  0.0000E+00  0.0000E+00  0.8000E+01
  -9.740  0.0000E+00  0.0000E+00  0.8000E+01
  -9.730  0.0000E+00  0.0000E+00  0.8000E+01
  -9.720  0.0000E+00  0.0000E+00  0.8000E+01
  -9.710  0.0000E+00  0.0000E+00  0.8000E+01
  -9.700  0.0000E+00  0.0000E+00  0.8000E+01
  -9.690  0.0000E+00  0.0000E+00  0.8000E+01
  -9.680  0.0000E+00  0.0000E+00  0.8000E+01
  -9.670  0.0000E+00  0.0000E+00  0.8000E+01
  -9.660  0.0000E+00  0.0000E+00  0.8000E+01
  -9.650  0.0000E+00  0.0000E+00  0.8000E+01
  -9.640  0.0000E+00  0.0000E+00  0.8000E+01
  -9.630  0.0000E+00  0.0000E+00  0.8000E+01
  -9.620  0.0000E+00  0.0000E+00  0.8000E+01
  -9.610  0.0000E+00  0.0000E+00  0.8000E+01
  -9.600  0.0000E+00  0.0000E+00  0.8000E+01
  -9.590  0.0000E+00  0.0000E+00  0.8000E+01
  -9.580  0.0000E+00  0.0000E+00  0.8000E+01
  -9.570  0.0000E+00  0.0000E+00  0.8000E+01
  -9.560  0.0000E+00  0.0000E+00  0.8000E+01
  -9.550  0.0000E+00  0.0000E+00  0.8000E+01
  -9.540  0.0000E+00  0.0000E+00  0.8000E+01
  -9.530  0.0000E+00  0.0000E+00  0.8000E+01
  -9.520  0.0000E+00  0.0000E+00  0.8000E+01
  -9.510  0.0000E+00  0.0000E+00  0.8000E+01
  -9.500  0.0000E+00  0.0000E+00  0.8000E+01
  -9.490  0.0000E+00  0.0000E+00  0.8000E+01
  -9.480  0.0000E+00  0.0000E+00  0.8000E+01
  -9.470  0.0000E+00  0.0000E+00  0.8000E+01
  -9.460  0.0000E+00  0.0000E+00  0.8000E+01
  -9.450  0.0000E+00  0.0000E+00  0.8000E+01
  -9.440  0.0000E+00  0.0000E+00  0.8000E+01
  -9.430  0.0000E+00  0.0000E+00  0.8000E+01
  -9.420  0.0000E+00  0.0000E+00  0.8000E+01
  -9.410  0.0000E+00  0.0000E+00  0.8000E+01
  -9.400  0.0000E+00  0.0000E+00  0.8000E+01
  -9.390  0.0000E+00  0.0000E+00  0.8000E+01
  -9.380  0.0000E+00  0.0000E+00  0.8000E+01
  -9.370  0.0000E+00  0.0000E+00  0.8000E+01
  -9.360  0.0000E+00  0.0000E+00  0.8000E+01
  -9.350  0.0000E+00  0.0000E+00  0.8000E+01
  -9.340  0.0000E+00  0.0000E+00  0.8000E+01
  -9.330  0.0000E+00  0.0000E+00  0.8000E+01
  -9.320  0.0000E+00  0.0000E+00  0.8000E+01
  -9.310  0.0000E+00  0.0000E+00  0.8000E+01
  -9.300  0.0000E+00  0.0000E+00  0.8000E+01
  -9.290  0.0000E+00  0.0000E+00  0.8000E+01
  -9.280  0.0000E+00  0.0000E+00  0.8000E+01
  -9.270  0.0000E+00  0.0000E+00  0.8000E+01
  -9.260  0.0000E+00  0.0000E+00  0.8000E+01
  -9.250  0.0000E+00  0.0000E+00  0.8000E+01
  -9.240  0.0000E+00  0.0000E+00  0.8000E+01
  -9.230  0.0000E+00  0.0000E+00  0.8000E+01
  -9.220  0.0000E+00  0.0000E+00  0.8000E+01
  -9.210  0.0000E+00  0.0000E+00  0.8000E+01
  -9.200  0.0000E+00  0.0000E+00  0.8000E+01
  -9.190  0.0000E+00  0.0000E+00  0.8000E+01
  -9.180  0.0000E+00  0.0000E+00  0.8000E+01
  -9.170  0.0000E+00  0.0000E+00  0.8000E+01
  -9.160  0.0000E+00  0.0000E+00  0.8000E+01
  -9.150  0.0000E+00  0.0000E+00  0.8000E+01
  -9.140  0.0000E+00  0.0000E+00  0.8000E+01
  -9.130  0.0000E+00  0.0000E+00  0.8000E+01
  -9.120  0.0000E+00  0.0000E+00  0.8000E+01
  -9.110  0.0000E+00  0.0000E+00  0.8000E+01
  -9.100  0.0000E+00  0.0000E+00  0.8000E+01
  -9.090  0.0000E+00  0.0000E+00  0.8000E+01
  -9.080  0.0000E+00  0.0000E+00  0.8000E+01
  -9.070  0.0000E+00  0.0000E+00  0.8000E+01
  -9.060  0.0000E+00  0.0000E+00  0.8000E+01
  -9.050  0.0000E+00  0.0000E+00  0.8000E+01
  -9.040  0.0000E+00  0.0000E+00  0.8000E+01
  -9.030  0.0000E+00  0.0000E+00  0.8000E+01
  -9.020  0.0000E+00  0.0000E+00  0.8000E+01
  -9.010  0.0000E+00  0.0000E+00  0.8000E+01
  -9.000  0.0000E+00  0.0000E+00  0.8000E+01
  -8.990  0.0000E+00  0.0000E+00  0.8000E+01
  -8.980  0.0000E+00  0.0000E+00  0.8000E+01
  -8.970  0.0000E+00  0.0000E+00  0.8000E+01
  -8.960  0.0000E+00  0.0000E+00  0.8000E+01
  -8.950  0.0000E+00  0.0000E+00  0.8000E+01
  -8.940  0.0000E+00  0.0000E+00  0.8000E+01
  -8.930  0.0000E+00  0.0000E+00  0.8000E+01
  -8.920  0.0000E+00  0.0000E+00  0.8000E+01
  -8.910  0.0000E+00  0.0000E+00  0.8000E+01
  -8.900  0.0000E+00  0.0000E+00  0.8000E+01
  -8.890  0.0000E+00  0.0000E+00  0.8000E+01
  -8.880  0.0000E+00  0.0000E+00  0.8000E+01
  -8.870  0.0000E+00  0.0000E+00  0.8000E+01
  -8.860  0.0000E+00  0.0000E+00  0.8000E+01
  -8.850  0.0000E+00  0.0000E+00  0.8000E+01
  -8.840  0.0000E+00  0.0000E+00  0.8000E+01
  -8.830  0.0000E+00  0.0000E+00  0.8000E+01
  -8.820  0.0000E+00  0.0000E+00  0.8000E+01
  -8.810  0.0000E+00  0.0000E+00  0.8000E+01
  -8.800  0.0000E+00  0.0000E+00  0.8000E+01
  -8.790  0.0000E+00  0.0000E+00  0.8000E+01
  -8.780  0.0000E+00  0.0000E+00  0.8000E+01
  -8.770  0.0000E+00  0.0000E+00  0.8000E+01
  -8.760  0.0000E+00  0.0000E+00  0.8000E+01
  -8.750  0.0000E+00  0.0000E+00  0.8000E+01
  -8.740  0.0000E+00  0.0000E+00  0.8000E+01
  -8.730  0.0000E+00  0.0000E+00  0.8000E+01
  -8.720  0.0000E+00  0.0000E+00  0.8000E+01
  -8.710  0.0000E+00  0.0000E+00  0.8000E+01
  -8.700  0.0000E+00  0.0000E+00  0.8000E+01
  -8.690  0.0000E+00  0.0000E+00  0.8000E+01
  -8.680  0.0000E+00  0.0000E+00  0.8000E+01
  -8.670  0.0000E+00  0.0000E+00  0.8000E+01
  -8.660  0.0000E+00  0.0000E+00  0.8000E+01
  -8.650  0.0000E+00  0.0000E+00  0.8000E+01
  -8.640  0.0000E+00  0.0000E+00  0.8000E+01
  -8.630  0.0000E+00  0.0000E+00  0.8000E+01
  -8.620  0.0000E+00  0.0000E+00  0.8000E+01
  -8.610  0.0000E+00  0.0000E+00  0.8000E+01
  -8.600  0.0000E+00  0.0000E+00  0.8000E+01
  -8.590  0.0000E+00  0.0000E+00  0.8000E+01
  -8.580  0.0000E+00  0.0000E+00  0.8000E+01
  -8.570  0.0000E+00  0.0000E+00  0.8000E+01
  -8.560  0.0000E+00  0.0000E+00  0.8000E+01
  -8.550  0.0000E+00  0.0000E+00  0.8000E+01
  -8.540  0.0000E+00  0.0000E+00  0.8000E+01
  -8.530  0.0000E+00  0.0000E+00  0.8000E+01
  -8.520  0.0000E+00  0.0000E+00  0.8000E+01
  -8.510  0.0000E+00  0.0000E+00  0.8000E+01
  -8.500  0.0000E+00  0.0000E+00  0.8000E+01
  -8.490  0.0000E+00  0.0000E+00  0.8000E+01
  -8.480  0.0000E+00  0.0000E+00  0.8000E+01
  -8.470  0.0000E+00  0.0000E+00  0.8000E+01
  -8.460  0.0000E+00  0.0000E+00  0.8000E+01
  -8.450  0.0000E+00  0.0000E+00  0.8000E+01
  -8.440  0.0000E+00  0.0000E+00  0.8000E+01
  -8.430  0.0000E+00  0.0000E+00  0.8000E+01
  -8.420  0.0000E+00  0.0000E+00  0.8000E+01
  -8.410  0.0000E+00  0.0000E+00  0.8000E+01
  -8.400  0.0000E+00  0.0000E+00  0.8000E+01
  -8.390  0.0000E+00  0.0000E+00  0.8000E+01
  -8.380  0.0000E+00  0.0000E+00  0.8000E+01
  -8.370  0.0000E+00  0.0000E+00  0.8000E+01
  -8.360  0.0000E+00  0.0000E+00  0.8000E+01
  -8.350  0.0000E+00  0.0000E+00  0.8000E+01
  -8.340  0.0000E+00  0.0000E+00  0.8000E+01
  -8.330  0.0000E+00  0.0000E+00  0.8000E+01
  -8.320  0.0000E+00  0.0000E+00  0.8000E+01
  -8.310  0.0000E+00  0.0000E+00  0.8000E+01
  -8.300  0.0000E+00  0.0000E+00  0.8000E+01
  -8.290  0.0000E+00  0.0000E+00  0.8000E+01
  -8.280  0.0000E+00  0.0000E+00  0.8000E+01
  -8.270  0.0000E+00  0.0000E+00  0.8000E+01
  -8.260  0.0000E+00  0.0000E+00  0.8000E+01
  -8.250  0.0000E+00  0.0000E+00  0.8000E+01
  -8.240  0.0000E+00  0.0000E+00  0.8000E+01
  -8.230  0.0000E+00  0.0000E+00  0.8000E+01
  -8.220  0.0000E+00  0.0000E+00  0.8000E+01
  -8.210  0.0000E+00  0.0000E+00  0.8000E+01
  -8.200  0.0000E+00  0.0000E+00  0.8000E+01
  -8.190  0.0000E+00  0.0000E+00  0.8000E+01
  -8.180  0.0000E+00  0.0000E+00  0.8000E+01
  -8.170  0.0000E+00  0.0000E+00  0.8000E+01
  -8.160  0.0000E+00  0.0000E+00  0.8000E+01
  -8.150  0.0000E+00  0.0000E+00  0.8000E+01
  -8.140  0.0000E+00  0.0000E+00  0.8000E+01
  -8.130  0.0000E+00  0.0000E+00  0.8000E+01
  -8.120  0.0000E+00  0.0000E+00  0.8000E+01
  -8.110  0.0000E+00  0.0000E+00  0.8000E+01
  -8.100  0.0000E+00  0.0000E+00  0.8000E+01
  -8.090  0.0000E+00  0.0000E+00  0.8000E+01
  -8.080  0.0000E+00  0.0000E+00  0.8000E+01
  -8.070  0.0000E+00  0.0000E+00  0.8000E+01
  -8.060  0.0000E+00  0.0000E+00  0.8000E+01
  -8.050  0.0000E+00  0.0000E+00  0.8000E+01
  -8.040  0.0000E+00  0.0000E+00  0.8000E+01
  -8.030  0.0000E+00  0.0000E+00  0.8000E+01
  -8.020  0.0000E+00  0.0000E+00  0.8000E+01
  -8.010  0.0000E+00  0.0000E+00  0.8000E+01
  -8.000  0.0000E+00  0.0000E+00  0.8000E+01
  -7.990  0.0000E+00  0.0000E+00  0.8000E+01
  -7.980  0.0000E+00  0.0000E+00  0.8000E+01
  -7.970  0.0000E+00  0.0000E+00  0.8000E+01
  -7.960  0.0000E+00  0.0000E+00  0.8000E+01
  -7.950  0.0000E+00  0.0000E+00  0.8000E+01
  -7.940  0.0000E+00  0.0000E+00  0.8000E+01
  -7.930  0.0000E+00  0.0000E+00  0.8000E+01
  -7.920  0.0000E+00  0.0000E+00  0.8000E+01
  -7.910  0.0000E+00  0.0000E+00  0.8000E+01
  -7.900  0.0000E+00  0.0000E+00  0.8000E+01
  -7.890  0.0000E+00  0.0000E+00  0.8000E+01
  -7.880  0.0000E+00  0.0000E+00  0.8000E+01
  -7.870  0.0000E+00  0.0000E+00  0.8000E+01
  -7.860  0.0000E+00  0.0000E+00  0.8000E+01
  -7.850  0.0000E+00  0.0000E+00  0.8000E+01
  -7.840  0.0000E+00  0.0000E+00  0.8000E+01
  -7.830  0.0000E+00  0.0000E+00  0.8000E+01
  -7.820  0.0000E+00  0.0000E+00  0.8000E+01
  -7.810  0.0000E+00  0.0000E+00  0.8000E+01
  -7.800  0.0000E+00  0.0000E+00  0.8000E+01
  -7.790  0.0000E+00  0.0000E+00  0.8000E+01
  -7.780  0.0000E+00  0.0000E+00  0.8000E+01
  -7.770  0.0000E+00  0.0000E+00  0.8000E+01
  -7.760  0.0000E+00  0.0000E+00  0.8000E+01
  -7.750  0.0000E+00  0.0000E+00  0.8000E+01
  -7.740  0.0000E+00  0.0000E+00  0.8000E+01
  -7.730  0.0000E+00  0.0000E+00  0.8000E+01
  -7.720  0.0000E+00  0.0000E+00  0.8000E+01
  -7.710  0.0000E+00  0.0000E+00  0.8000E+01
  -7.700  0.0000E+00  0.0000E+00  0.8000E+01
  -7.690  0.0000E+00  0.0000E+00  0.8000E+01
  -7.680  0.0000E+00  0.0000E+00  0.8000E+01
  -7.670  0.0000E+00  0.0000E+00  0.8000E+01
  -7.660  0.0000E+00  0.0000E+00  0.8000E+01
  -7.650  0.0000E+00  0.0000E+00  0.8000E+01
  -7.640  0.0000E+00  0.0000E+00  0.8000E+01
  -7.630  0.0000E+00  0.0000E+00  0.8000E+01
  -7.620  0.0000E+00  0.0000E+00  0.8000E+01
  -7.610  0.0000E+00  0.0000E+00  0.8000E+01
  -7.600  0.0000E+00  0.0000E+00  0.8000E+01
  -7.590  0.0000E+00  0.0000E+00  0.8000E+01
  -7.580  0.0000E+00  0.0000E+00  0.8000E+01
  -7.570  0.0000E+00  0.0000E+00  0.8000E+01
  -7.560  0.0000E+00  0.0000E+00  0.8000E+01
  -7.550  0.0000E+00  0.0000E+00  0.8000E+01
  -7.540  0.0000E+00  0.0000E+00  0.8000E+01
  -7.530  0.0000E+00  0.0000E+00  0.8000E+01
  -7.520  0.0000E+00  0.0000E+00  0.8000E+01
  -7.510  0.0000E+00  0.0000E+00  0.8000E+01
  -7.500  0.0000E+00  0.0000E+00  0.8000E+01
  -7.490  0.0000E+00  0.0000E+00  0.8000E+01
  -7.480  0.0000E+00  0.0000E+00  0.8000E+01
  -7.470  0.0000E+00  0.0000E+00  0.8000E+01
  -7.460  0.0000E+00  0.0000E+00  0.8000E+01
  -7.450  0.1652E-01  0.4467E-02  0.8000E+01
  -7.440  0.1910E+00  0.8020E-01  0.8001E+01
  -7.430  0.6746E+00  0.4361E+00  0.8008E+01
  -7.420  0.1459E+01  0.1105E+01  0.8025E+01
  -7.410  0.2201E+01  0.1930E+01  0.8059E+01
  -7.400  0.2649E+01  0.2508E+01  0.8106E+01
  -7.390  0.2905E+01  0.2841E+01  0.8161E+01
  -7.380  0.3045E+01  0.3014E+01  0.8220E+01
  -7.370  0.3240E+01  0.3194E+01  0.8282E+01
  -7.360  0.3414E+01  0.3408E+01  0.8349E+01
  -7.350  0.3697E+01  0.3635E+01  0.8419E+01
  -7.340  0.4200E+01  0.4062E+01  0.8497E+01
  -7.330  0.4847E+01  0.4744E+01  0.8586E+01
  -7.320  0.5588E+01  0.5444E+01  0.8689E+01
  -7.310  0.6126E+01  0.6111E+01  0.8806E+01
  -7.300  0.6145E+01  0.6253E+01  0.8930E+01
  -7.290  0.5681E+01  0.5880E+01  0.9050E+01
  -7.280  0.5065E+01  0.5246E+01  0.9160E+01
  -7.270  0.4703E+01  0.4783E+01  0.9258E+01
  -7.260  0.4674E+01  0.4577E+01  0.9351E+01
  -7.250  0.4928E+01  0.4768E+01  0.9446E+01
  -7.240  0.5473E+01  0.5007E+01  0.9546E+01
  -7.230  0.6482E+01  0.5891E+01  0.9660E+01
  -7.220  0.7526E+01  0.6933E+01  0.9794E+01
  -7.210  0.8455E+01  0.7982E+01  0.9949E+01
  -7.200  0.8435E+01  0.8479E+01  0.1012E+02
  -7.190  0.8165E+01  0.8290E+01  0.1028E+02
  -7.180  0.7933E+01  0.8065E+01  0.1045E+02
  -7.170  0.7833E+01  0.7955E+01  0.1060E+02
  -7.160  0.7904E+01  0.8013E+01  0.1076E+02
  -7.150  0.7961E+01  0.8088E+01  0.1092E+02
  -7.140  0.8072E+01  0.8153E+01  0.1108E+02
  -7.130  0.8225E+01  0.8305E+01  0.1125E+02
  -7.120  0.8238E+01  0.8339E+01  0.1141E+02
  -7.110  0.8040E+01  0.8178E+01  0.1158E+02
  -7.100  0.8680E+01  0.8115E+01  0.1174E+02
  -7.090  0.1013E+02  0.9827E+01  0.1193E+02
  -7.080  0.1054E+02  0.1034E+02  0.1213E+02
  -7.070  0.1132E+02  0.1018E+02  0.1234E+02
  -7.060  0.1249E+02  0.1228E+02  0.1257E+02
  -7.050  0.1244E+02  0.1256E+02  0.1282E+02
  -7.040  0.1275E+02  0.1293E+02  0.1308E+02
  -7.030  0.1301E+02  0.1327E+02  0.1334E+02
  -7.020  0.1252E+02  0.1290E+02  0.1360E+02
  -7.010  0.1191E+02  0.1234E+02  0.1384E+02
  -7.000  0.1049E+02  0.1086E+02  0.1407E+02
  -6.990  0.8953E+01  0.9326E+01  0.1427E+02
  -6.980  0.8121E+01  0.8395E+01  0.1444E+02
  -6.970  0.8600E+01  0.8427E+01  0.1461E+02
  -6.960  0.1209E+02  0.1163E+02  0.1481E+02
  -6.950  0.1055E+02  0.1140E+02  0.1505E+02
  -6.940  0.1034E+02  0.1000E+02  0.1525E+02
  -6.930  0.1252E+02  0.1100E+02  0.1547E+02
  -6.920  0.1347E+02  0.1358E+02  0.1572E+02
  -6.910  0.1327E+02  0.1373E+02  0.1600E+02
  -6.900  0.1401E+02  0.1344E+02  0.1626E+02
  -6.890  0.1652E+02  0.1544E+02  0.1656E+02
  -6.880  0.2027E+02  0.1888E+02  0.1691E+02
  -6.870  0.2330E+02  0.2219E+02  0.1734E+02
  -6.860  0.2718E+02  0.2569E+02  0.1783E+02
  -6.850  0.2930E+02  0.2868E+02  0.1839E+02
  -6.840  0.2955E+02  0.2890E+02  0.1897E+02
  -6.830  0.2398E+02  0.2667E+02  0.1952E+02
  -6.820  0.1794E+02  0.1976E+02  0.1996E+02
  -6.810  0.1397E+02  0.1448E+02  0.2029E+02
  -6.800  0.1163E+02  0.1172E+02  0.2054E+02
  -6.790  0.1077E+02  0.1035E+02  0.2076E+02
  -6.780  0.1179E+02  0.1094E+02  0.2098E+02
  -6.770  0.1415E+02  0.1286E+02  0.2123E+02
  -6.760  0.1788E+02  0.1584E+02  0.2153E+02
  -6.750  0.2085E+02  0.1990E+02  0.2190E+02
  -6.740  0.2036E+02  0.2093E+02  0.2232E+02
  -6.730  0.1845E+02  0.1969E+02  0.2271E+02
  -6.720  0.1739E+02  0.1833E+02  0.2308E+02
  -6.710  0.1727E+02  0.1782E+02  0.2344E+02
  -6.700  0.2473E+02  0.2190E+02  0.2382E+02
  -6.690  0.3016E+02  0.2854E+02  0.2433E+02
  -6.680  0.3126E+02  0.3727E+02  0.2504E+02
  -6.670  0.3525E+02  0.3205E+02  0.2566E+02
  -6.660  0.3018E+02  0.3111E+02  0.2631E+02
  -6.650  0.3016E+02  0.2969E+02  0.2691E+02
  -6.640  0.3237E+02  0.3104E+02  0.2752E+02
  -6.630  0.3542E+02  0.3450E+02  0.2819E+02
  -6.620  0.3394E+02  0.3444E+02  0.2889E+02
  -6.610  0.3331E+02  0.3270E+02  0.2955E+02
  -6.600  0.4442E+02  0.3747E+02  0.3027E+02
  -6.590  0.6415E+02  0.5384E+02  0.3127E+02
  -6.580  0.4866E+02  0.5402E+02  0.3246E+02
  -6.570  0.3989E+02  0.4433E+02  0.3339E+02
  -6.560  0.3052E+02  0.3299E+02  0.3413E+02
  -6.550  0.3604E+02  0.3525E+02  0.3477E+02
  -6.540  0.3258E+02  0.3124E+02  0.3545E+02
  -6.530  0.3738E+02  0.3479E+02  0.3612E+02
  -6.520  0.4217E+02  0.4071E+02  0.3690E+02
  -6.510  0.4496E+02  0.4436E+02  0.3776E+02
  -6.500  0.4601E+02  0.4549E+02  0.3867E+02
  -6.490  0.4592E+02  0.4482E+02  0.3958E+02
  -6.480  0.5135E+02  0.4525E+02  0.4051E+02
  -6.470  0.6247E+02  0.5598E+02  0.4158E+02
  -6.460  0.6767E+02  0.7060E+02  0.4289E+02
  -6.450  0.7374E+02  0.7478E+02  0.4433E+02
  -6.440  0.6400E+02  0.6497E+02  0.4577E+02
  -6.430  0.5829E+02  0.5328E+02  0.4690E+02
  -6.420  0.4042E+02  0.5437E+02  0.4804E+02
  -6.410  0.6739E+02  0.6304E+02  0.4893E+02
  -6.400  0.5584E+02  0.5545E+02  0.5006E+02
  -6.390  0.5115E+02  0.5048E+02  0.5113E+02
  -6.380  0.5215E+02  0.5471E+02  0.5218E+02
  -6.370  0.3483E+02  0.3103E+02  0.5298E+02
  -6.360  0.4947E+02  0.3683E+02  0.5373E+02
  -6.350  0.5904E+02  0.4996E+02  0.5473E+02
  -6.340  0.6943E+02  0.6426E+02  0.5592E+02
  -6.330  0.5806E+02  0.7094E+02  0.5730E+02
  -6.320  0.5371E+02  0.4908E+02  0.5852E+02
  -6.310  0.8041E+02  0.7010E+02  0.5974E+02
  -6.300  0.9593E+02  0.7336E+02  0.6145E+02
  -6.290  0.6887E+02  0.6789E+02  0.6291E+02
  -6.280  0.4724E+02  0.7045E+02  0.6426E+02
  -6.270  0.2822E+02  0.5248E+02  0.6548E+02
  -6.260  0.1041E+02  0.1089E+02  0.6590E+02
  -6.250  0.3101E+00  0.5622E+00  0.6600E+02
  -6.240  0.5199E+00  0.0000E+00  0.6600E+02
  -6.230  0.1922E+02  0.0000E+00  0.6610E+02
  -6.220  0.3102E+02  0.0000E+00  0.6635E+02
  -6.210  0.2937E+02  0.0000E+00  0.6665E+02
  -6.200  0.2821E+02  0.3028E+01  0.6695E+02
  -6.190  0.3996E+02  0.3741E+02  0.6747E+02
  -6.180  0.4177E+02  0.3404E+02  0.6832E+02
  -6.170  0.4313E+02  0.3230E+02  0.6911E+02
  -6.160  0.3414E+02  0.4054E+02  0.6989E+02
  -6.150  0.1382E+02  0.4599E+02  0.7075E+02
  -6.140  0.3087E-04  0.4738E+02  0.7127E+02
  -6.130  0.0000E+00  0.4756E+02  0.7172E+02
  -6.120  0.0000E+00  0.3371E+01  0.7200E+02
  -6.110  0.0000E+00  0.0000E+00  0.7200E+02
  -6.100  0.0000E+00  0.0000E+00  0.7200E+02
  -6.090  0.0000E+00  0.0000E+00  0.7200E+02
  -6.080  0.0000E+00  0.0000E+00  0.7200E+02
  -6.070  0.0000E+00  0.0000E+00  0.7200E+02
  -6.060  0.0000E+00  0.0000E+00  0.7200E+02
  -6.050  0.0000E+00  0.0000E+00  0.7200E+02
  -6.040  0.0000E+00  0.0000E+00  0.7200E+02
  -6.030  0.0000E+00  0.0000E+00  0.7200E+02
  -6.020  0.0000E+00  0.0000E+00  0.7200E+02
  -6.010  0.0000E+00  0.0000E+00  0.7200E+02
  -6.000  0.0000E+00  0.0000E+00  0.7200E+02
  -5.990  0.0000E+00  0.0000E+00  0.7200E+02
  -5.980  0.0000E+00  0.0000E+00  0.7200E+02
  -5.970  0.0000E+00  0.0000E+00  0.7200E+02
  -5.960  0.0000E+00  0.0000E+00  0.7200E+02
  -5.950  0.0000E+00  0.0000E+00  0.7200E+02
  -5.940  0.0000E+00  0.0000E+00  0.7200E+02
  -5.930  0.0000E+00  0.0000E+00  0.7200E+02
  -5.920  0.0000E+00  0.0000E+00  0.7200E+02
  -5.910  0.0000E+00  0.0000E+00  0.7200E+02
  -5.900  0.0000E+00  0.0000E+00  0.7200E+02
  -5.890  0.0000E+00  0.0000E+00  0.7200E+02
  -5.880  0.0000E+00  0.0000E+00  0.7200E+02
  -5.870  0.0000E+00  0.0000E+00  0.7200E+02
  -5.860  0.0000E+00  0.0000E+00  0.7200E+02
  -5.850  0.0000E+00  0.0000E+00  0.7200E+02
  -5.840  0.0000E+00  0.0000E+00  0.7200E+02
  -5.830  0.0000E+00  0.0000E+00  0.7200E+02
  -5.820  0.0000E+00  0.0000E+00  0.7200E+02
  -5.810  0.0000E+00  0.0000E+00  0.7200E+02
  -5.800  0.0000E+00  0.0000E+00  0.7200E+02
  -5.790  0.0000E+00  0.0000E+00  0.7200E+02
  -5.780  0.0000E+00  0.0000E+00  0.7200E+02
  -5.770  0.0000E+00  0.0000E+00  0.7200E+02
  -5.760  0.0000E+00  0.0000E+00  0.7200E+02
  -5.750  0.0000E+00  0.0000E+00  0.7200E+02
  -5.740  0.0000E+00  0.0000E+00  0.7200E+02
  -5.730  0.0000E+00  0.0000E+00  0.7200E+02
  -5.720  0.0000E+00  0.0000E+00  0.7200E+02
  -5.710  0.0000E+00  0.0000E+00  0.7200E+02
  -5.700  0.0000E+00  0.0000E+00  0.7200E+02
  -5.690  0.0000E+00  0.0000E+00  0.7200E+02
  -5.680  0.0000E+00  0.0000E+00  0.7200E+02
  -5.670  0.0000E+00  0.0000E+00  0.7200E+02
  -5.660  0.0000E+00  0.0000E+00  0.7200E+02
  -5.650  0.0000E+00  0.0000E+00  0.7200E+02
  -5.640  0.0000E+00  0.0000E+00  0.7200E+02
  -5.630  0.0000E+00  0.0000E+00  0.7200E+02
  -5.620  0.0000E+00  0.0000E+00  0.7200E+02
  -5.610  0.0000E+00  0.0000E+00  0.7200E+02
  -5.600  0.0000E+00  0.0000E+00  0.7200E+02
  -5.590  0.0000E+00  0.0000E+00  0.7200E+02
  -5.580  0.0000E+00  0.0000E+00  0.7200E+02
  -5.570  0.0000E+00  0.0000E+00  0.7200E+02
  -5.560  0.0000E+00  0.0000E+00  0.7200E+02
  -5.550  0.0000E+00  0.0000E+00  0.7200E+02
  -5.540  0.0000E+00  0.0000E+00  0.7200E+02
  -5.530  0.0000E+00  0.0000E+00  0.7200E+02
  -5.520  0.0000E+00  0.0000E+00  0.7200E+02
  -5.510  0.0000E+00  0.0000E+00  0.7200E+02
  -5.500  0.0000E+00  0.0000E+00  0.7200E+02
  -5.490  0.0000E+00  0.0000E+00  0.7200E+02
  -5.480  0.0000E+00  0.0000E+00  0.7200E+02
  -5.470  0.0000E+00  0.0000E+00  0.7200E+02
  -5.460  0.0000E+00  0.0000E+00  0.7200E+02
  -5.450  0.0000E+00  0.0000E+00  0.7200E+02
  -5.440  0.0000E+00  0.0000E+00  0.7200E+02
  -5.430  0.0000E+00  0.0000E+00  0.7200E+02
  -5.420  0.0000E+00  0.0000E+00  0.7200E+02
  -5.410  0.0000E+00  0.0000E+00  0.7200E+02
  -5.400  0.0000E+00  0.0000E+00  0.7200E+02
  -5.390  0.0000E+00  0.0000E+00  0.7200E+02
  -5.380  0.0000E+00  0.0000E+00  0.7200E+02
  -5.370  0.0000E+00  0.0000E+00  0.7200E+02
  -5.360  0.0000E+00  0.0000E+00  0.7200E+02
  -5.350  0.0000E+00  0.0000E+00  0.7200E+02
  -5.340  0.0000E+00  0.0000E+00  0.7200E+02
  -5.330  0.0000E+00  0.0000E+00  0.7200E+02
  -5.320  0.0000E+00  0.0000E+00  0.7200E+02
  -5.310  0.0000E+00  0.0000E+00  0.7200E+02
  -5.300  0.0000E+00  0.0000E+00  0.7200E+02
  -5.290  0.0000E+00  0.0000E+00  0.7200E+02
  -5.280  0.0000E+00  0.0000E+00  0.7200E+02
  -5.270  0.0000E+00  0.0000E+00  0.7200E+02
  -5.260  0.0000E+00  0.0000E+00  0.7200E+02
  -5.250  0.0000E+00  0.0000E+00  0.7200E+02
  -5.240  0.0000E+00  0.0000E+00  0.7200E+02
  -5.230  0.0000E+00  0.0000E+00  0.7200E+02
  -5.220  0.0000E+00  0.0000E+00  0.7200E+02
  -5.210  0.0000E+00  0.0000E+00  0.7200E+02
  -5.200  0.0000E+00  0.0000E+00  0.7200E+02
  -5.190  0.0000E+00  0.0000E+00  0.7200E+02
  -5.180  0.0000E+00  0.0000E+00  0.7200E+02
  -5.170  0.0000E+00  0.0000E+00  0.7200E+02
  -5.160  0.0000E+00  0.0000E+00  0.7200E+02
  -5.150  0.0000E+00  0.0000E+00  0.7200E+02
  -5.140  0.0000E+00  0.0000E+00  0.7200E+02
  -5.130  0.0000E+00  0.0000E+00  0.7200E+02
  -5.120  0.0000E+00  0.0000E+00  0.7200E+02
  -5.110  0.0000E+00  0.0000E+00  0.7200E+02
  -5.100  0.0000E+00  0.0000E+00  0.7200E+02
  -5.090  0.0000E+00  0.0000E+00  0.7200E+02
  -5.080  0.0000E+00  0.0000E+00  0.7200E+02
  -5.070  0.0000E+00  0.0000E+00  0.7200E+02
  -5.060  0.0000E+00  0.0000E+00  0.7200E+02
  -5.050  0.0000E+00  0.0000E+00  0.7200E+02
  -5.040  0.0000E+00  0.0000E+00  0.7200E+02
  -5.030  0.0000E+00  0.0000E+00  0.7200E+02
  -5.020  0.0000E+00  0.0000E+00  0.7200E+02
  -5.010  0.0000E+00  0.0000E+00  0.7200E+02
  -5.000  0.0000E+00  0.0000E+00  0.7200E+02
  -4.990  0.0000E+00  0.0000E+00  0.7200E+02
  -4.980  0.0000E+00  0.0000E+00  0.7200E+02
  -4.970  0.0000E+00  0.0000E+00  0.7200E+02
  -4.960  0.0000E+00  0.0000E+00  0.7200E+02
  -4.950  0.0000E+00  0.0000E+00  0.7200E+02
  -4.940  0.0000E+00  0.0000E+00  0.7200E+02
  -4.930  0.0000E+00  0.0000E+00  0.7200E+02
  -4.920  0.0000E+00  0.0000E+00  0.7200E+02
  -4.910  0.0000E+00  0.0000E+00  0.7200E+02
  -4.900  0.0000E+00  0.0000E+00  0.7200E+02
  -4.890  0.0000E+00  0.0000E+00  0.7200E+02
  -4.880  0.0000E+00  0.0000E+00  0.7200E+02
  -4.870  0.0000E+00  0.0000E+00  0.7200E+02
  -4.860  0.0000E+00  0.0000E+00  0.7200E+02
  -4.850  0.0000E+00  0.0000E+00  0.7200E+02
  -4.840  0.0000E+00  0.0000E+00  0.7200E+02
  -4.830  0.0000E+00  0.0000E+00  0.7200E+02
  -4.820  0.0000E+00  0.0000E+00  0.7200E+02
  -4.810  0.0000E+00  0.0000E+00  0.7200E+02
  -4.800  0.0000E+00  0.0000E+00  0.7200E+02
  -4.790  0.0000E+00  0.0000E+00  0.7200E+02
  -4.780  0.0000E+00  0.0000E+00  0.7200E+02
  -4.770  0.0000E+00  0.0000E+00  0.7200E+02
  -4.760  0.0000E+00  0.0000E+00  0.7200E+02
  -4.750  0.0000E+00  0.0000E+00  0.7200E+02
  -4.740  0.0000E+00  0.0000E+00  0.7200E+02
  -4.730  0.0000E+00  0.0000E+00  0.7200E+02
  -4.720  0.0000E+00  0.0000E+00  0.7200E+02
  -4.710  0.0000E+00  0.0000E+00  0.7200E+02
  -4.700  0.0000E+00  0.0000E+00  0.7200E+02
  -4.690  0.0000E+00  0.0000E+00  0.7200E+02
  -4.680  0.0000E+00  0.0000E+00  0.7200E+02
  -4.670  0.0000E+00  0.0000E+00  0.7200E+02
  -4.660  0.0000E+00  0.0000E+00  0.7200E+02
  -4.650  0.0000E+00  0.0000E+00  0.7200E+02
  -4.640  0.0000E+00  0.0000E+00  0.7200E+02
  -4.630  0.0000E+00  0.0000E+00  0.7200E+02
  -4.620  0.0000E+00  0.0000E+00  0.7200E+02
  -4.610  0.0000E+00  0.0000E+00  0.7200E+02
  -4.600  0.0000E+00  0.0000E+00  0.7200E+02
  -4.590  0.0000E+00  0.0000E+00  0.7200E+02
  -4.580  0.0000E+00  0.0000E+00  0.7200E+02
  -4.570  0.0000E+00  0.0000E+00  0.7200E+02
  -4.560  0.0000E+00  0.0000E+00  0.7200E+02
  -4.550  0.0000E+00  0.0000E+00  0.7200E+02
  -4.540  0.0000E+00  0.0000E+00  0.7200E+02
  -4.530  0.0000E+00  0.0000E+00  0.7200E+02
  -4.520  0.0000E+00  0.0000E+00  0.7200E+02
  -4.510  0.0000E+00  0.0000E+00  0.7200E+02
  -4.500  0.0000E+00  0.0000E+00  0.7200E+02
  -4.490  0.0000E+00  0.0000E+00  0.7200E+02
  -4.480  0.0000E+00  0.0000E+00  0.7200E+02
  -4.470  0.0000E+00  0.0000E+00  0.7200E+02
  -4.460  0.0000E+00  0.0000E+00  0.7200E+02
  -4.450  0.0000E+00  0.0000E+00  0.7200E+02
  -4.440  0.0000E+00  0.0000E+00  0.7200E+02
  -4.430  0.0000E+00  0.0000E+00  0.7200E+02
  -4.420  0.0000E+00  0.0000E+00  0.7200E+02
  -4.410  0.0000E+00  0.0000E+00  0.7200E+02
  -4.400  0.0000E+00  0.0000E+00  0.7200E+02
  -4.390  0.0000E+00  0.0000E+00  0.7200E+02
  -4.380  0.0000E+00  0.0000E+00  0.7200E+02
  -4.370  0.0000E+00  0.0000E+00  0.7200E+02
  -4.360  0.0000E+00  0.0000E+00  0.7200E+02
  -4.350  0.0000E+00  0.0000E+00  0.7200E+02
  -4.340  0.0000E+00  0.0000E+00  0.7200E+02
  -4.330  0.0000E+00  0.0000E+00  0.7200E+02
  -4.320  0.0000E+00  0.0000E+00  0.7200E+02
  -4.310  0.0000E+00  0.0000E+00  0.7200E+02
  -4.300  0.0000E+00  0.0000E+00  0.7200E+02
  -4.290  0.0000E+00  0.0000E+00  0.7200E+02
  -4.280  0.0000E+00  0.0000E+00  0.7200E+02
  -4.270  0.0000E+00  0.0000E+00  0.7200E+02
  -4.260  0.0000E+00  0.0000E+00  0.7200E+02
  -4.250  0.0000E+00  0.0000E+00  0.7200E+02
  -4.240  0.0000E+00  0.0000E+00  0.7200E+02
  -4.230  0.0000E+00  0.0000E+00  0.7200E+02
  -4.220  0.0000E+00  0.0000E+00  0.7200E+02
  -4.210  0.0000E+00  0.0000E+00  0.7200E+02
  -4.200  0.0000E+00  0.0000E+00  0.7200E+02
  -4.190  0.0000E+00  0.0000E+00  0.7200E+02
  -4.180  0.0000E+00  0.0000E+00  0.7200E+02
  -4.170  0.0000E+00  0.0000E+00  0.7200E+02
  -4.160  0.0000E+00  0.0000E+00  0.7200E+02
  -4.150  0.0000E+00  0.0000E+00  0.7200E+02
  -4.140  0.0000E+00  0.0000E+00  0.7200E+02
  -4.130  0.0000E+00  0.0000E+00  0.7200E+02
  -4.120  0.0000E+00  0.0000E+00  0.7200E+02
  -4.110  0.0000E+00  0.0000E+00  0.7200E+02
  -4.100  0.0000E+00  0.0000E+00  0.7200E+02
  -4.090  0.0000E+00  0.0000E+00  0.7200E+02
  -4.080  0.0000E+00  0.0000E+00  0.7200E+02
  -4.070  0.0000E+00  0.0000E+00  0.7200E+02
  -4.060  0.0000E+00  0.0000E+00  0.7200E+02
  -4.050  0.0000E+00  0.0000E+00  0.7200E+02
  -4.040  0.0000E+00  0.0000E+00  0.7200E+02
  -4.030  0.0000E+00  0.0000E+00  0.7200E+02
  -4.020  0.0000E+00  0.0000E+00  0.7200E+02
  -4.010  0.0000E+00  0.0000E+00  0.7200E+02
  -4.000  0.0000E+00  0.0000E+00  0.7200E+02
  -3.990  0.0000E+00  0.0000E+00  0.7200E+02
  -3.980  0.0000E+00  0.0000E+00  0.7200E+02
  -3.970  0.0000E+00  0.0000E+00  0.7200E+02
  -3.960  0.0000E+00  0.0000E+00  0.7200E+02
  -3.950  0.0000E+00  0.0000E+00  0.7200E+02
  -3.940  0.0000E+00  0.0000E+00  0.7200E+02
  -3.930  0.0000E+00  0.0000E+00  0.7200E+02
  -3.920  0.0000E+00  0.0000E+00  0.7200E+02
  -3.910  0.0000E+00  0.0000E+00  0.7200E+02
  -3.900  0.0000E+00  0.0000E+00  0.7200E+02
  -3.890  0.0000E+00  0.0000E+00  0.7200E+02
  -3.880  0.0000E+00  0.0000E+00  0.7200E+02
  -3.870  0.0000E+00  0.0000E+00  0.7200E+02
  -3.860  0.0000E+00  0.0000E+00  0.7200E+02
  -3.850  0.0000E+00  0.0000E+00  0.7200E+02
  -3.840  0.0000E+00  0.0000E+00  0.7200E+02
  -3.830  0.0000E+00  0.0000E+00  0.7200E+02
  -3.820  0.0000E+00  0.0000E+00  0.7200E+02
  -3.810  0.0000E+00  0.0000E+00  0.7200E+02
  -3.800  0.0000E+00  0.0000E+00  0.7200E+02
  -3.790  0.0000E+00  0.0000E+00  0.7200E+02
  -3.780  0.0000E+00  0.0000E+00  0.7200E+02
  -3.770  0.0000E+00  0.0000E+00  0.7200E+02
  -3.760  0.0000E+00  0.0000E+00  0.7200E+02
  -3.750  0.0000E+00  0.0000E+00  0.7200E+02
  -3.740  0.0000E+00  0.0000E+00  0.7200E+02
  -3.730  0.0000E+00  0.0000E+00  0.7200E+02
  -3.720  0.0000E+00  0.0000E+00  0.7200E+02
  -3.710  0.0000E+00  0.0000E+00  0.7200E+02
  -3.700  0.0000E+00  0.0000E+00  0.7200E+02
  -3.690  0.0000E+00  0.0000E+00  0.7200E+02
  -3.680  0.0000E+00  0.0000E+00  0.7200E+02
  -3.670  0.0000E+00  0.0000E+00  0.7200E+02
  -3.660  0.0000E+00  0.0000E+00  0.7200E+02
  -3.650  0.0000E+00  0.0000E+00  0.7200E+02
  -3.640  0.0000E+00  0.0000E+00  0.7200E+02
  -3.630  0.0000E+00  0.0000E+00  0.7200E+02
  -3.620  0.0000E+00  0.0000E+00  0.7200E+02
  -3.610  0.0000E+00  0.0000E+00  0.7200E+02
  -3.600  0.0000E+00  0.0000E+00  0.7200E+02
  -3.590  0.0000E+00  0.0000E+00  0.7200E+02
  -3.580  0.0000E+00  0.0000E+00  0.7200E+02
  -3.570  0.0000E+00  0.0000E+00  0.7200E+02
  -3.560  0.0000E+00  0.0000E+00  0.7200E+02
  -3.550  0.0000E+00  0.0000E+00  0.7200E+02
  -3.540  0.0000E+00  0.0000E+00  0.7200E+02
  -3.530  0.0000E+00  0.0000E+00  0.7200E+02
  -3.520  0.0000E+00  0.0000E+00  0.7200E+02
  -3.510  0.0000E+00  0.0000E+00  0.7200E+02
  -3.500  0.0000E+00  0.0000E+00  0.7200E+02
  -3.490  0.0000E+00  0.0000E+00  0.7200E+02
  -3.480  0.0000E+00  0.0000E+00  0.7200E+02
  -3.470  0.0000E+00  0.0000E+00  0.7200E+02
  -3.460  0.0000E+00  0.0000E+00  0.7200E+02
  -3.450  0.0000E+00  0.0000E+00  0.7200E+02
  -3.440  0.0000E+00  0.0000E+00  0.7200E+02
  -3.430  0.0000E+00  0.0000E+00  0.7200E+02
  -3.420  0.0000E+00  0.0000E+00  0.7200E+02
  -3.410  0.0000E+00  0.0000E+00  0.7200E+02
  -3.400  0.0000E+00  0.0000E+00  0.7200E+02
  -3.390  0.0000E+00  0.0000E+00  0.7200E+02
  -3.380  0.0000E+00  0.0000E+00  0.7200E+02
  -3.370  0.0000E+00  0.0000E+00  0.7200E+02
  -3.360  0.0000E+00  0.0000E+00  0.7200E+02
  -3.350  0.0000E+00  0.0000E+00  0.7200E+02
  -3.340  0.0000E+00  0.0000E+00  0.7200E+02
  -3.330  0.0000E+00  0.0000E+00  0.7200E+02
  -3.320  0.0000E+00  0.0000E+00  0.7200E+02
  -3.310  0.0000E+00  0.0000E+00  0.7200E+02
  -3.300  0.0000E+00  0.0000E+00  0.7200E+02
  -3.290  0.0000E+00  0.0000E+00  0.7200E+02
  -3.280  0.0000E+00  0.0000E+00  0.7200E+02
  -3.270  0.0000E+00  0.0000E+00  0.7200E+02
  -3.260  0.0000E+00  0.0000E+00  0.7200E+02
  -3.250  0.0000E+00  0.0000E+00  0.7200E+02
  -3.240  0.0000E+00  0.0000E+00  0.7200E+02
  -3.230  0.0000E+00  0.0000E+00  0.7200E+02
  -3.220  0.0000E+00  0.0000E+00  0.7200E+02
  -3.210  0.0000E+00  0.0000E+00  0.7200E+02
  -3.200  0.0000E+00  0.0000E+00  0.7200E+02
  -3.190  0.0000E+00  0.0000E+00  0.7200E+02
  -3.180  0.0000E+00  0.0000E+00  0.7200E+02
  -3.170  0.0000E+00  0.0000E+00  0.7200E+02
  -3.160  0.0000E+00  0.0000E+00  0.7200E+02
  -3.150  0.0000E+00  0.0000E+00  0.7200E+02
  -3.140  0.0000E+00  0.0000E+00  0.7200E+02
  -3.130  0.0000E+00  0.0000E+00  0.7200E+02
  -3.120  0.0000E+00  0.0000E+00  0.7200E+02
  -3.110  0.0000E+00  0.0000E+00  0.7200E+02
  -3.100  0.0000E+00  0.0000E+00  0.7200E+02
  -3.090  0.0000E+00  0.0000E+00  0.7200E+02
  -3.080  0.0000E+00  0.0000E+00  0.7200E+02
  -3.070  0.0000E+00  0.0000E+00  0.7200E+02
  -3.060  0.0000E+00  0.0000E+00  0.7200E+02
  -3.050  0.0000E+00  0.0000E+00  0.7200E+02
  -3.040  0.0000E+00  0.0000E+00  0.7200E+02
  -3.030  0.0000E+00  0.0000E+00  0.7200E+02
  -3.020  0.0000E+00  0.0000E+00  0.7200E+02
  -3.010  0.0000E+00  0.0000E+00  0.7200E+02
  -3.000  0.0000E+00  0.0000E+00  0.7200E+02
  -2.990  0.0000E+00  0.0000E+00  0.7200E+02
  -2.980  0.0000E+00  0.0000E+00  0.7200E+02
  -2.970  0.0000E+00  0.0000E+00  0.7200E+02
  -2.960  0.0000E+00  0.0000E+00  0.7200E+02
  -2.950  0.0000E+00  0.0000E+00  0.7200E+02
  -2.940  0.0000E+00  0.0000E+00  0.7200E+02
  -2.930  0.0000E+00  0.0000E+00  0.7200E+02
  -2.920  0.0000E+00  0.0000E+00  0.7200E+02
  -2.910  0.0000E+00  0.0000E+00  0.7200E+02
  -2.900  0.0000E+00  0.0000E+00  0.7200E+02
  -2.890  0.0000E+00  0.0000E+00  0.7200E+02
  -2.880  0.0000E+00  0.0000E+00  0.7200E+02
  -2.870  0.0000E+00  0.0000E+00  0.7200E+02
  -2.860  0.0000E+00  0.0000E+00  0.7200E+02
  -2.850  0.0000E+00  0.0000E+00  0.7200E+02
  -2.840  0.0000E+00  0.0000E+00  0.7200E+02
  -2.830  0.0000E+00  0.0000E+00  0.7200E+02
  -2.820  0.0000E+00  0.0000E+00  0.7200E+02
  -2.810  0.0000E+00  0.0000E+00  0.7200E+02
  -2.800  0.0000E+00  0.0000E+00  0.7200E+02
  -2.790  0.0000E+00  0.0000E+00  0.7200E+02
  -2.780  0.0000E+00  0.0000E+00  0.7200E+02
  -2.770  0.0000E+00  0.0000E+00  0.7200E+02
  -2.760  0.0000E+00  0.0000E+00  0.7200E+02
  -2.750  0.0000E+00  0.0000E+00  0.7200E+02
  -2.740  0.0000E+00  0.0000E+00  0.7200E+02
  -2.730  0.0000E+00  0.0000E+00  0.7200E+02
  -2.720  0.0000E+00  0.0000E+00  0.7200E+02
  -2.710  0.0000E+00  0.0000E+00  0.7200E+02
  -2.700  0.0000E+00  0.0000E+00  0.7200E+02
  -2.690  0.0000E+00  0.0000E+00  0.7200E+02
  -2.680  0.0000E+00  0.0000E+00  0.7200E+02
  -2.670  0.0000E+00  0.0000E+00  0.7200E+02
  -2.660  0.0000E+00  0.0000E+00  0.7200E+02
  -2.650  0.0000E+00  0.0000E+00  0.7200E+02
  -2.640  0.0000E+00  0.0000E+00  0.7200E+02
  -2.630  0.0000E+00  0.0000E+00  0.7200E+02
  -2.620  0.0000E+00  0.0000E+00  0.7200E+02
  -2.610  0.0000E+00  0.0000E+00  0.7200E+02
  -2.600  0.0000E+00  0.0000E+00  0.7200E+02
  -2.590  0.0000E+00  0.0000E+00  0.7200E+02
  -2.580  0.0000E+00  0.0000E+00  0.7200E+02
  -2.570  0.0000E+00  0.0000E+00  0.7200E+02
  -2.560  0.0000E+00  0.0000E+00  0.7200E+02
  -2.550  0.0000E+00  0.0000E+00  0.7200E+02
  -2.540  0.0000E+00  0.0000E+00  0.7200E+02
  -2.530  0.0000E+00  0.0000E+00  0.7200E+02
  -2.520  0.0000E+00  0.0000E+00  0.7200E+02
  -2.510  0.0000E+00  0.0000E+00  0.7200E+02
  -2.500  0.0000E+00  0.0000E+00  0.7200E+02
  -2.490  0.0000E+00  0.0000E+00  0.7200E+02
  -2.480  0.0000E+00  0.0000E+00  0.7200E+02
  -2.470  0.0000E+00  0.0000E+00  0.7200E+02
  -2.460  0.0000E+00  0.0000E+00  0.7200E+02
  -2.450  0.0000E+00  0.0000E+00  0.7200E+02
  -2.440  0.0000E+00  0.0000E+00  0.7200E+02
  -2.430  0.0000E+00  0.0000E+00  0.7200E+02
  -2.420  0.0000E+00  0.0000E+00  0.7200E+02
  -2.410  0.0000E+00  0.0000E+00  0.7200E+02
  -2.400  0.0000E+00  0.0000E+00  0.7200E+02
  -2.390  0.0000E+00  0.0000E+00  0.7200E+02
  -2.380  0.0000E+00  0.0000E+00  0.7200E+02
  -2.370  0.0000E+00  0.0000E+00  0.7200E+02
  -2.360  0.0000E+00  0.0000E+00  0.7200E+02
  -2.350  0.0000E+00  0.0000E+00  0.7200E+02
  -2.340  0.0000E+00  0.0000E+00  0.7200E+02
  -2.330  0.0000E+00  0.0000E+00  0.7200E+02
  -2.320  0.0000E+00  0.0000E+00  0.7200E+02
  -2.310  0.0000E+00  0.0000E+00  0.7200E+02
  -2.300  0.0000E+00  0.0000E+00  0.7200E+02
  -2.290  0.0000E+00  0.0000E+00  0.7200E+02
  -2.280  0.0000E+00  0.0000E+00  0.7200E+02
  -2.270  0.0000E+00  0.0000E+00  0.7200E+02
  -2.260  0.0000E+00  0.0000E+00  0.7200E+02
  -2.250  0.0000E+00  0.0000E+00  0.7200E+02
  -2.240  0.0000E+00  0.0000E+00  0.7200E+02
  -2.230  0.0000E+00  0.0000E+00  0.7200E+02
  -2.220  0.0000E+00  0.0000E+00  0.7200E+02
  -2.210  0.0000E+00  0.0000E+00  0.7200E+02
  -2.200  0.0000E+00  0.0000E+00  0.7200E+02
  -2.190  0.0000E+00  0.0000E+00  0.7200E+02
  -2.180  0.0000E+00  0.0000E+00  0.7200E+02
  -2.170  0.0000E+00  0.0000E+00  0.7200E+02
  -2.160  0.0000E+00  0.0000E+00  0.7200E+02
  -2.150  0.0000E+00  0.0000E+00  0.7200E+02
  -2.140  0.0000E+00  0.0000E+00  0.7200E+02
  -2.130  0.0000E+00  0.0000E+00  0.7200E+02
  -2.120  0.0000E+00  0.0000E+00  0.7200E+02
  -2.110  0.0000E+00  0.0000E+00  0.7200E+02
  -2.100  0.0000E+00  0.0000E+00  0.7200E+02
  -2.090  0.0000E+00  0.0000E+00  0.7200E+02
  -2.080  0.0000E+00  0.0000E+00  0.7200E+02
  -2.070  0.0000E+00  0.0000E+00  0.7200E+02
  -2.060  0.0000E+00  0.0000E+00  0.7200E+02
  -2.050  0.0000E+00  0.0000E+00  0.7200E+02
  -2.040  0.0000E+00  0.0000E+00  0.7200E+02
  -2.030  0.0000E+00  0.0000E+00  0.7200E+02
  -2.020  0.0000E+00  0.0000E+00  0.7200E+02
  -2.010  0.0000E+00  0.0000E+00  0.7200E+02
  -2.000  0.0000E+00  0.0000E+00  0.7200E+02
  -1.990  0.0000E+00  0.0000E+00  0.7200E+02
  -1.980  0.0000E+00  0.0000E+00  0.7200E+02
  -1.970  0.0000E+00  0.0000E+00  0.7200E+02
  -1.960  0.0000E+00  0.0000E+00  0.7200E+02
  -1.950  0.0000E+00  0.0000E+00  0.7200E+02
  -1.940  0.0000E+00  0.0000E+00  0.7200E+02
  -1.930  0.0000E+00  0.0000E+00  0.7200E+02
  -1.920  0.0000E+00  0.0000E+00  0.7200E+02
  -1.910  0.0000E+00  0.0000E+00  0.7200E+02
  -1.900  0.0000E+00  0.0000E+00  0.7200E+02
  -1.890  0.0000E+00  0.0000E+00  0.7200E+02
  -1.880  0.0000E+00  0.0000E+00  0.7200E+02
  -1.870  0.0000E+00  0.0000E+00  0.7200E+02
  -1.860  0.0000E+00  0.0000E+00  0.7200E+02
  -1.850  0.0000E+00  0.0000E+00  0.7200E+02
  -1.840  0.0000E+00  0.0000E+00  0.7200E+02
  -1.830  0.0000E+00  0.0000E+00  0.7200E+02
  -1.820  0.0000E+00  0.0000E+00  0.7200E+02
  -1.810  0.0000E+00  0.0000E+00  0.7200E+02
  -1.800  0.0000E+00  0.0000E+00  0.7200E+02
  -1.790  0.0000E+00  0.0000E+00  0.7200E+02
  -1.780  0.0000E+00  0.0000E+00  0.7200E+02
  -1.770  0.0000E+00  0.0000E+00  0.7200E+02
  -1.760  0.0000E+00  0.0000E+00  0.7200E+02
  -1.750  0.0000E+00  0.0000E+00  0.7200E+02
  -1.740  0.0000E+00  0.0000E+00  0.7200E+02
  -1.730  0.0000E+00  0.0000E+00  0.7200E+02
  -1.720  0.0000E+00  0.0000E+00  0.7200E+02
  -1.710  0.0000E+00  0.0000E+00  0.7200E+02
  -1.700  0.0000E+00  0.0000E+00  0.7200E+02
  -1.690  0.0000E+00  0.0000E+00  0.7200E+02
  -1.680  0.0000E+00  0.0000E+00  0.7200E+02
  -1.670  0.0000E+00  0.0000E+00  0.7200E+02
  -1.660  0.0000E+00  0.0000E+00  0.7200E+02
  -1.650  0.0000E+00  0.0000E+00  0.7200E+02
  -1.640  0.0000E+00  0.0000E+00  0.7200E+02
  -1.630  0.0000E+00  0.0000E+00  0.7200E+02
  -1.620  0.0000E+00  0.0000E+00  0.7200E+02
  -1.610  0.0000E+00  0.0000E+00  0.7200E+02
  -1.600  0.0000E+00  0.0000E+00  0.7200E+02
  -1.590  0.0000E+00  0.0000E+00  0.7200E+02
  -1.580  0.0000E+00  0.0000E+00  0.7200E+02
  -1.570  0.0000E+00  0.0000E+00  0.7200E+02
  -1.560  0.0000E+00  0.0000E+00  0.7200E+02
  -1.550  0.0000E+00  0.0000E+00  0.7200E+02
  -1.540  0.0000E+00  0.0000E+00  0.7200E+02
  -1.530  0.0000E+00  0.0000E+00  0.7200E+02
  -1.520  0.0000E+00  0.0000E+00  0.7200E+02
  -1.510  0.0000E+00  0.0000E+00  0.7200E+02
  -1.500  0.0000E+00  0.0000E+00  0.7200E+02
  -1.490  0.0000E+00  0.0000E+00  0.7200E+02
  -1.480  0.0000E+00  0.0000E+00  0.7200E+02
  -1.470  0.0000E+00  0.0000E+00  0.7200E+02
  -1.460  0.0000E+00  0.0000E+00  0.7200E+02
  -1.450  0.0000E+00  0.0000E+00  0.7200E+02
  -1.440  0.0000E+00  0.0000E+00  0.7200E+02
  -1.430  0.0000E+00  0.0000E+00  0.7200E+02
  -1.420  0.0000E+00  0.0000E+00  0.7200E+02
  -1.410  0.0000E+00  0.0000E+00  0.7200E+02
  -1.400  0.0000E+00  0.0000E+00  0.7200E+02
  -1.390  0.0000E+00  0.0000E+00  0.7200E+02
  -1.380  0.0000E+00  0.0000E+00  0.7200E+02
  -1.370  0.0000E+00  0.0000E+00  0.7200E+02
  -1.360  0.0000E+00  0.0000E+00  0.7200E+02
  -1.350  0.0000E+00  0.0000E+00  0.7200E+02
  -1.340  0.0000E+00  0.0000E+00  0.7200E+02
  -1.330  0.0000E+00  0.0000E+00  0.7200E+02
  -1.320  0.0000E+00  0.0000E+00  0.7200E+02
  -1.310  0.0000E+00  0.0000E+00  0.7200E+02
  -1.300  0.0000E+00  0.0000E+00  0.7200E+02
  -1.290  0.0000E+00  0.0000E+00  0.7200E+02
  -1.280  0.0000E+00  0.0000E+00  0.7200E+02
  -1.270  0.0000E+00  0.0000E+00  0.7200E+02
  -1.260  0.0000E+00  0.0000E+00  0.7200E+02
  -1.250  0.0000E+00  0.0000E+00  0.7200E+02
  -1.240  0.0000E+00  0.0000E+00  0.7200E+02
  -1.230  0.0000E+00  0.0000E+00  0.7200E+02
  -1.220  0.0000E+00  0.0000E+00  0.7200E+02
  -1.210  0.0000E+00  0.0000E+00  0.7200E+02
  -1.200  0.0000E+00  0.0000E+00  0.7200E+02
  -1.190  0.0000E+00  0.0000E+00  0.7200E+02
  -1.180  0.0000E+00  0.0000E+00  0.7200E+02
  -1.170  0.0000E+00  0.0000E+00  0.7200E+02
  -1.160  0.0000E+00  0.0000E+00  0.7200E+02
  -1.150  0.0000E+00  0.0000E+00  0.7200E+02
  -1.140  0.0000E+00  0.0000E+00  0.7200E+02
  -1.130  0.0000E+00  0.0000E+00  0.7200E+02
  -1.120  0.0000E+00  0.0000E+00  0.7200E+02
  -1.110  0.0000E+00  0.0000E+00  0.7200E+02
  -1.100  0.0000E+00  0.0000E+00  0.7200E+02
  -1.090  0.0000E+00  0.0000E+00  0.7200E+02
  -1.080  0.0000E+00  0.0000E+00  0.7200E+02
  -1.070  0.0000E+00  0.0000E+00  0.7200E+02
  -1.060  0.0000E+00  0.0000E+00  0.7200E+02
  -1.050  0.0000E+00  0.0000E+00  0.7200E+02
  -1.040  0.0000E+00  0.0000E+00  0.7200E+02
  -1.030  0.0000E+00  0.0000E+00  0.7200E+02
  -1.020  0.0000E+00  0.0000E+00  0.7200E+02
  -1.010  0.0000E+00  0.0000E+00  0.7200E+02
  -1.000  0.0000E+00  0.0000E+00  0.7200E+02
  -0.990  0.0000E+00  0.0000E+00  0.7200E+02
  -0.980  0.0000E+00  0.0000E+00  0.7200E+02
  -0.970  0.0000E+00  0.0000E+00  0.7200E+02
  -0.960  0.0000E+00  0.0000E+00  0.7200E+02
  -0.950  0.0000E+00  0.0000E+00  0.7200E+02
  -0.940  0.0000E+00  0.0000E+00  0.7200E+02
  -0.930  0.0000E+00  0.0000E+00  0.7200E+02
  -0.920  0.0000E+00  0.0000E+00  0.7200E+02
  -0.910  0.0000E+00  0.0000E+00  0.7200E+02
  -0.900  0.0000E+00  0.0000E+00  0.7200E+02
  -0.890  0.0000E+00  0.0000E+00  0.7200E+02
  -0.880  0.0000E+00  0.0000E+00  0.7200E+02
  -0.870  0.0000E+00  0.0000E+00  0.7200E+02
  -0.860  0.0000E+00  0.0000E+00  0.7200E+02
  -0.850  0.0000E+00  0.0000E+00  0.7200E+02
  -0.840  0.0000E+00  0.0000E+00  0.7200E+02
  -0.830  0.0000E+00  0.0000E+00  0.7200E+02
  -0.820  0.0000E+00  0.0000E+00  0.7200E+02
  -0.810  0.0000E+00  0.0000E+00  0.7200E+02
  -0.800  0.0000E+00  0.0000E+00  0.7200E+02
  -0.790  0.0000E+00  0.0000E+00  0.7200E+02
  -0.780  0.0000E+00  0.0000E+00  0.7200E+02
  -0.770  0.0000E+00  0.0000E+00  0.7200E+02
  -0.760  0.0000E+00  0.0000E+00  0.7200E+02
  -0.750  0.0000E+00  0.0000E+00  0.7200E+02
  -0.740  0.0000E+00  0.0000E+00  0.7200E+02
  -0.730  0.0000E+00  0.0000E+00  0.7200E+02
  -0.720  0.1382E+02  0.1262E+02  0.7207E+02
  -0.710  0.7229E+02  0.7025E+02  0.7287E+02
  -0.700  0.9459E+02  0.9493E+02  0.7465E+02
  -0.690  0.1112E+03  0.1099E+03  0.7662E+02
  -0.680  0.1137E+03  0.1140E+03  0.7902E+02
  -0.670  0.1133E+03  0.1119E+03  0.8134E+02
  -0.660  0.1910E+03  0.1833E+03  0.8381E+02
  -0.650  0.1875E+03  0.1974E+03  0.8753E+02
  -0.640  0.2226E+03  0.2200E+03  0.9137E+02
  -0.630  0.1431E+03  0.1510E+03  0.9487E+02
  -0.620  0.2058E+03  0.2144E+03  0.9887E+02
  -0.610  0.2856E+03  0.3041E+03  0.1049E+03
  -0.600  0.2636E+03  0.2613E+03  0.1103E+03
  -0.590  0.3571E+03  0.4018E+03  0.1170E+03
  -0.580  0.3091E+03  0.3109E+03  0.1232E+03
  -0.570  0.2954E+03  0.3075E+03  0.1294E+03
  -0.560  0.3236E+03  0.3187E+03  0.1355E+03
  -0.550  0.4106E+03  0.4435E+03  0.1433E+03
  -0.540  0.2637E+03  0.2415E+03  0.1502E+03
  -0.530  0.1302E+03  0.1600E+03  0.1548E+03
  -0.520  0.1162E+03  0.2568E+03  0.1594E+03
  -0.510  0.1808E+03  0.2071E+03  0.1645E+03
  -0.500  0.1807E+03  0.1767E+03  0.1680E+03
  -0.490  0.1595E+03  0.1837E+03  0.1723E+03
  -0.480  0.9037E+02  0.3441E+03  0.1756E+03
  -0.470  0.1708E+03  0.1773E+03  0.1799E+03
  -0.460  0.1445E+03  0.1818E+03  0.1851E+03
  -0.450  0.2375E+03  0.1897E+03  0.1881E+03
  -0.440  0.2081E+03  0.1911E+03  0.1927E+03
  -0.430  0.2083E+03  0.1865E+03  0.1964E+03
  -0.420  0.3748E+03  0.2702E+03  0.2003E+03
  -0.410  0.1360E+03  0.3150E+03  0.2054E+03
  -0.400  0.1825E+03  0.2206E+03  0.2087E+03
  -0.390  0.2013E+03  0.1924E+03  0.2128E+03
  -0.380  0.9128E+02  0.9739E+02  0.2160E+03
  -0.370  0.9672E+02  0.9643E+02  0.2178E+03
  -0.360  0.1166E+03  0.1163E+03  0.2203E+03
  -0.350  0.1135E+03  0.1079E+03  0.2226E+03
  -0.340  0.1157E+03  0.1159E+03  0.2248E+03
  -0.330  0.1129E+03  0.1123E+03  0.2271E+03
  -0.320  0.1122E+03  0.1081E+03  0.2294E+03
  -0.310  0.1339E+03  0.1175E+03  0.2317E+03
  -0.300  0.1565E+03  0.1953E+03  0.2349E+03
  -0.290  0.1721E+03  0.2095E+03  0.2383E+03
  -0.280  0.1388E+03  0.1398E+03  0.2415E+03
  -0.270  0.1775E+03  0.1499E+03  0.2448E+03
  -0.260  0.1810E+03  0.1759E+03  0.2486E+03
  -0.250  0.1662E+03  0.1726E+03  0.2529E+03
  -0.240  0.1586E+03  0.1923E+03  0.2569E+03
  -0.230  0.2018E+03  0.2355E+03  0.2607E+03
  -0.220  0.4886E+03  0.5771E+03  0.2684E+03
  -0.210  0.3384E+03  0.3625E+03  0.2768E+03
  -0.200  0.3851E+03  0.4069E+03  0.2845E+03
  -0.190  0.3057E+03  0.2939E+03  0.2924E+03
  -0.180  0.1943E+03  0.2063E+03  0.2987E+03
  -0.170  0.1586E+03  0.1652E+03  0.3015E+03
  -0.160  0.1137E+03  0.1159E+03  0.3048E+03
  -0.150  0.2927E+03  0.4307E+03  0.3099E+03
  -0.140  0.2039E+03  0.2352E+03  0.3138E+03
  -0.130  0.2223E+03  0.2064E+03  0.3176E+03
  -0.120  0.2588E+03  0.2467E+03  0.3225E+03
  -0.110  0.6479E+03  0.4399E+03  0.3287E+03
  -0.100  0.2088E+03  0.2163E+03  0.3357E+03
  -0.090  0.4079E+03  0.3377E+03  0.3410E+03
  -0.080  0.1674E+03  0.4339E+03  0.3469E+03
  -0.070  0.8167E+02  0.9097E+02  0.3501E+03
  -0.060  0.9670E+02  0.9194E+02  0.3519E+03
  -0.050  0.9704E+02  0.9832E+02  0.3539E+03
  -0.040  0.7836E+02  0.8191E+02  0.3557E+03
  -0.030  0.6807E+02  0.6676E+02  0.3571E+03
  -0.020  0.6120E+02  0.6488E+02  0.3584E+03
  -0.010  0.7031E+02  0.6737E+02  0.3596E+03
   0.000  0.7627E+02  0.7527E+02  0.3611E+03
   0.010  0.5888E+02  0.6309E+02  0.3625E+03
   0.020  0.5987E+02  0.5889E+02  0.3637E+03
   0.030  0.6245E+02  0.6075E+02  0.3648E+03
   0.040  0.1426E+03  0.1461E+03  0.3668E+03
   0.050  0.8093E+02  0.8301E+02  0.3690E+03
   0.060  0.5569E+02  0.6138E+02  0.3705E+03
   0.070  0.5099E+02  0.4752E+02  0.3715E+03
   0.080  0.5881E+02  0.5838E+02  0.3726E+03
   0.090  0.3511E+02  0.3891E+02  0.3735E+03
   0.100  0.5099E+02  0.4552E+02  0.3744E+03
   0.110  0.1017E+03  0.9158E+02  0.3758E+03
   0.120  0.9670E+02  0.1028E+03  0.3779E+03
   0.130  0.6851E+02  0.6650E+02  0.3796E+03
   0.140  0.3363E+02  0.3777E+02  0.3806E+03
   0.150  0.2017E+02  0.2244E+02  0.3811E+03
   0.160  0.1365E+02  0.1453E+02  0.3815E+03
   0.170  0.1774E+02  0.1554E+02  0.3817E+03
   0.180  0.4779E+01  0.5233E+01  0.3819E+03
   0.190  0.1666E+01  0.1918E+01  0.3820E+03
   0.200  0.1657E+00  0.2409E+00  0.3820E+03
   0.210  0.0000E+00  0.0000E+00  0.3820E+03
   0.220  0.0000E+00  0.0000E+00  0.3820E+03
   0.230  0.0000E+00  0.0000E+00  0.3820E+03
   0.240  0.0000E+00  0.0000E+00  0.3820E+03
   0.250  0.0000E+00  0.0000E+00  0.3820E+03
   0.260  0.0000E+00  0.0000E+00  0.3820E+03
   0.270  0.0000E+00  0.0000E+00  0.3820E+03
   0.280  0.0000E+00  0.0000E+00  0.3820E+03
   0.290  0.0000E+00  0.0000E+00  0.3820E+03
   0.300  0.0000E+00  0.0000E+00  0.3820E+03
   0.310  0.0000E+00  0.0000E+00  0.3820E+03
   0.320  0.0000E+00  0.0000E+00  0.3820E+03
   0.330  0.0000E+00  0.0000E+00  0.3820E+03
   0.340  0.0000E+00  0.0000E+00  0.3820E+03
   0.350  0.3869E-05  0.0000E+00  0.3820E+03
   0.360  0.9659E-03  0.9322E-04  0.3820E+03
   0.370  0.7595E-02  0.2884E-02  0.3820E+03
   0.380  0.2536E-01  0.1436E-01  0.3820E+03
   0.390  0.5479E-01  0.3738E-01  0.3820E+03
   0.400  0.9594E-01  0.7195E-01  0.3820E+03
   0.410  0.1495E+00  0.1181E+00  0.3820E+03
   0.420  0.2161E+00  0.1764E+00  0.3820E+03
   0.430  0.2958E+00  0.2477E+00  0.3820E+03
   0.440  0.3884E+00  0.3319E+00  0.3820E+03
   0.450  0.4941E+00  0.4292E+00  0.3820E+03
   0.460  0.6128E+00  0.5393E+00  0.3820E+03
   0.470  0.7445E+00  0.6625E+00  0.3820E+03
   0.480  0.8912E+00  0.7986E+00  0.3821E+03
   0.490  0.1149E+01  0.9664E+00  0.3821E+03
   0.500  0.1695E+01  0.1359E+01  0.3821E+03
   0.510  0.2452E+01  0.1952E+01  0.3821E+03
   0.520  0.3366E+01  0.2784E+01  0.3822E+03
   0.530  0.4015E+01  0.3643E+01  0.3823E+03
   0.540  0.4375E+01  0.4200E+01  0.3824E+03
   0.550  0.4454E+01  0.4460E+01  0.3824E+03
   0.560  0.4253E+01  0.4429E+01  0.3825E+03
   0.570  0.3849E+01  0.4114E+01  0.3826E+03
   0.580  0.3760E+01  0.3757E+01  0.3827E+03
   0.590  0.4002E+01  0.3864E+01  0.3828E+03
   0.600  0.4260E+01  0.4128E+01  0.3828E+03
   0.610  0.4535E+01  0.4392E+01  0.3829E+03
   0.620  0.4825E+01  0.4676E+01  0.3830E+03
   0.630  0.5132E+01  0.4976E+01  0.3831E+03
   0.640  0.5457E+01  0.5293E+01  0.3832E+03
   0.650  0.5800E+01  0.5629E+01  0.3833E+03
   0.660  0.6159E+01  0.5983E+01  0.3835E+03
   0.670  0.6528E+01  0.6351E+01  0.3836E+03
   0.680  0.6855E+01  0.6711E+01  0.3837E+03
   0.690  0.7479E+01  0.7044E+01  0.3839E+03
   0.700  0.9334E+01  0.8387E+01  0.3840E+03
   0.710  0.1064E+02  0.1040E+02  0.3842E+03
   0.720  0.1121E+02  0.1098E+02  0.3844E+03
   0.730  0.1177E+02  0.1149E+02  0.3847E+03
   0.740  0.1220E+02  0.1193E+02  0.3849E+03
   0.750  0.1252E+02  0.1224E+02  0.3851E+03
   0.760  0.1189E+02  0.1252E+02  0.3854E+03
   0.770  0.1198E+02  0.1231E+02  0.3856E+03
   0.780  0.1067E+02  0.1103E+02  0.3859E+03
   0.790  0.1139E+02  0.1084E+02  0.3861E+03
   0.800  0.1203E+02  0.1168E+02  0.3863E+03
   0.810  0.1241E+02  0.1213E+02  0.3865E+03
   0.820  0.1276E+02  0.1251E+02  0.3868E+03
   0.830  0.1305E+02  0.1285E+02  0.3871E+03
   0.840  0.1328E+02  0.1313E+02  0.3873E+03
   0.850  0.1345E+02  0.1335E+02  0.3876E+03
   0.860  0.1355E+02  0.1351E+02  0.3878E+03
   0.870  0.1359E+02  0.1362E+02  0.3881E+03
   0.880  0.1359E+02  0.1365E+02  0.3884E+03
   0.890  0.1358E+02  0.1368E+02  0.3887E+03
   0.900  0.1384E+02  0.1370E+02  0.3889E+03
   0.910  0.1577E+02  0.1477E+02  0.3892E+03
   0.920  0.1716E+02  0.1680E+02  0.3895E+03
   0.930  0.1776E+02  0.1763E+02  0.3899E+03
   0.940  0.1806E+02  0.1783E+02  0.3903E+03
   0.950  0.1808E+02  0.1787E+02  0.3906E+03
   0.960  0.1840E+02  0.1790E+02  0.3910E+03
   0.970  0.1903E+02  0.1819E+02  0.3913E+03
   0.980  0.2321E+02  0.2040E+02  0.3917E+03
   0.990  0.2899E+02  0.2635E+02  0.3922E+03
   1.000  0.3603E+02  0.3299E+02  0.3929E+03
   1.010  0.3568E+02  0.3910E+02  0.3936E+03
   1.020  0.4598E+02  0.4729E+02  0.3944E+03
   1.030  0.5400E+02  0.5680E+02  0.3954E+03
   1.040  0.5825E+02  0.5196E+02  0.3965E+03
   1.050  0.6360E+02  0.6267E+02  0.3978E+03
   1.060  0.4972E+02  0.5131E+02  0.3989E+03
   1.070  0.5070E+02  0.5011E+02  0.3999E+03
   1.080  0.4845E+02  0.4804E+02  0.4009E+03
   1.090  0.8166E+02  0.5666E+02  0.4019E+03
   1.100  0.3620E+02  0.4178E+02  0.4029E+03
   1.110  0.2450E+02  0.2999E+02  0.4036E+03
   1.120  0.2313E+02  0.1567E+02  0.4041E+03
   1.130  0.2892E+02  0.2063E+02  0.4045E+03
   1.140  0.2775E+02  0.3134E+02  0.4050E+03
   1.150  0.1547E+02  0.2553E+02  0.4056E+03
   1.160  0.1353E+02  0.1385E+02  0.4059E+03
   1.170  0.1961E+02  0.1791E+02  0.4062E+03
   1.180  0.2232E+02  0.2249E+02  0.4066E+03
   1.190  0.2292E+02  0.2267E+02  0.4071E+03
   1.200  0.2371E+02  0.2255E+02  0.4075E+03
   1.210  0.2393E+02  0.2302E+02  0.4080E+03
   1.220  0.2510E+02  0.2312E+02  0.4085E+03
   1.230  0.2626E+02  0.2444E+02  0.4090E+03
   1.240  0.2726E+02  0.2548E+02  0.4095E+03
   1.250  0.2816E+02  0.2641E+02  0.4100E+03
   1.260  0.2868E+02  0.2725E+02  0.4106E+03
   1.270  0.2886E+02  0.2800E+02  0.4111E+03
   1.280  0.2776E+02  0.2811E+02  0.4117E+03
   1.290  0.2658E+02  0.2716E+02  0.4122E+03
   1.300  0.2492E+02  0.2603E+02  0.4128E+03
   1.310  0.2273E+02  0.2458E+02  0.4133E+03
   1.320  0.2064E+02  0.2263E+02  0.4137E+03
   1.330  0.1909E+02  0.2037E+02  0.4141E+03
   1.340  0.1757E+02  0.1855E+02  0.4145E+03
   1.350  0.1671E+02  0.1723E+02  0.4149E+03
   1.360  0.1620E+02  0.1628E+02  0.4152E+03
   1.370  0.1611E+02  0.1568E+02  0.4155E+03
   1.380  0.1631E+02  0.1537E+02  0.4158E+03
   1.390  0.1683E+02  0.1535E+02  0.4161E+03
   1.400  0.1815E+02  0.1544E+02  0.4165E+03
   1.410  0.2057E+02  0.1584E+02  0.4168E+03
   1.420  0.1961E+02  0.1790E+02  0.4172E+03
   1.430  0.1782E+02  0.2185E+02  0.4176E+03
   1.440  0.1526E+02  0.2010E+02  0.4180E+03
   1.450  0.1394E+02  0.1606E+02  0.4183E+03
   1.460  0.1252E+02  0.1520E+02  0.4186E+03
   1.470  0.1256E+02  0.1433E+02  0.4188E+03
   1.480  0.1314E+02  0.1341E+02  0.4191E+03
   1.490  0.1375E+02  0.1257E+02  0.4194E+03
   1.500  0.1449E+02  0.1276E+02  0.4196E+03
   1.510  0.1453E+02  0.1300E+02  0.4199E+03
   1.520  0.1444E+02  0.1324E+02  0.4202E+03
   1.530  0.1421E+02  0.1342E+02  0.4205E+03
   1.540  0.1382E+02  0.1381E+02  0.4207E+03
   1.550  0.1329E+02  0.1357E+02  0.4210E+03
   1.560  0.1260E+02  0.1318E+02  0.4213E+03
   1.570  0.1184E+02  0.1264E+02  0.4215E+03
   1.580  0.1140E+02  0.1198E+02  0.4218E+03
   1.590  0.1109E+02  0.1156E+02  0.4220E+03
   1.600  0.1081E+02  0.1128E+02  0.4222E+03
   1.610  0.1055E+02  0.1098E+02  0.4224E+03
   1.620  0.1029E+02  0.1067E+02  0.4227E+03
   1.630  0.1007E+02  0.1034E+02  0.4229E+03
   1.640  0.1041E+02  0.1003E+02  0.4231E+03
   1.650  0.1120E+02  0.1001E+02  0.4233E+03
   1.660  0.1261E+02  0.1011E+02  0.4235E+03
   1.670  0.1303E+02  0.1052E+02  0.4237E+03
   1.680  0.1196E+02  0.1061E+02  0.4240E+03
   1.690  0.9844E+01  0.1044E+02  0.4242E+03
   1.700  0.7743E+01  0.1046E+02  0.4244E+03
   1.710  0.6693E+01  0.9825E+01  0.4245E+03
   1.720  0.6497E+01  0.8555E+01  0.4247E+03
   1.730  0.7234E+01  0.7068E+01  0.4248E+03
   1.740  0.8806E+01  0.5706E+01  0.4250E+03
   1.750  0.1389E+02  0.7450E+01  0.4251E+03
   1.760  0.1016E+02  0.9835E+01  0.4254E+03
   1.770  0.7781E+01  0.1539E+02  0.4256E+03
   1.780  0.6948E+01  0.9685E+01  0.4258E+03
   1.790  0.7322E+01  0.7150E+01  0.4260E+03
   1.800  0.7302E+01  0.7493E+01  0.4261E+03
   1.810  0.7209E+01  0.8085E+01  0.4263E+03
   1.820  0.7314E+01  0.8611E+01  0.4264E+03
   1.830  0.7519E+01  0.8625E+01  0.4266E+03
   1.840  0.7747E+01  0.8312E+01  0.4268E+03
   1.850  0.7985E+01  0.8136E+01  0.4269E+03
   1.860  0.8224E+01  0.8262E+01  0.4271E+03
   1.870  0.8421E+01  0.8395E+01  0.4272E+03
   1.880  0.8579E+01  0.8507E+01  0.4274E+03
   1.890  0.8695E+01  0.8596E+01  0.4276E+03
   1.900  0.8767E+01  0.8659E+01  0.4278E+03
   1.910  0.8797E+01  0.8678E+01  0.4279E+03
   1.920  0.8783E+01  0.8655E+01  0.4281E+03
   1.930  0.8726E+01  0.8590E+01  0.4283E+03
   1.940  0.8627E+01  0.8480E+01  0.4285E+03
   1.950  0.8486E+01  0.8328E+01  0.4286E+03
   1.960  0.8355E+01  0.8147E+01  0.4288E+03
   1.970  0.8687E+01  0.7959E+01  0.4290E+03
   1.980  0.9121E+01  0.7817E+01  0.4291E+03
   1.990  0.9292E+01  0.7688E+01  0.4293E+03
   2.000  0.9200E+01  0.7578E+01  0.4295E+03
   2.010  0.8857E+01  0.7984E+01  0.4296E+03
   2.020  0.8261E+01  0.9368E+01  0.4298E+03
   2.030  0.7574E+01  0.9781E+01  0.4300E+03
   2.040  0.7088E+01  0.9133E+01  0.4301E+03
   2.050  0.6742E+01  0.7532E+01  0.4303E+03
   2.060  0.6565E+01  0.6298E+01  0.4304E+03
   2.070  0.6668E+01  0.5594E+01  0.4306E+03
   2.080  0.6941E+01  0.5221E+01  0.4307E+03
   2.090  0.7269E+01  0.5016E+01  0.4308E+03
   2.100  0.7602E+01  0.4965E+01  0.4309E+03
   2.110  0.7811E+01  0.5141E+01  0.4311E+03
   2.120  0.7963E+01  0.5677E+01  0.4312E+03
   2.130  0.8116E+01  0.6283E+01  0.4313E+03
   2.140  0.8263E+01  0.6979E+01  0.4315E+03
   2.150  0.8400E+01  0.8069E+01  0.4316E+03
   2.160  0.8558E+01  0.8798E+01  0.4318E+03
   2.170  0.8668E+01  0.9130E+01  0.4320E+03
   2.180  0.8697E+01  0.9408E+01  0.4322E+03
   2.190  0.8637E+01  0.9664E+01  0.4323E+03
   2.200  0.8248E+01  0.9960E+01  0.4325E+03
   2.210  0.7520E+01  0.9836E+01  0.4327E+03
   2.220  0.6752E+01  0.9171E+01  0.4329E+03
   2.230  0.6368E+01  0.8263E+01  0.4330E+03
   2.240  0.6177E+01  0.7333E+01  0.4332E+03
   2.250  0.5952E+01  0.6501E+01  0.4333E+03
   2.260  0.5919E+01  0.5932E+01  0.4334E+03
   2.270  0.5915E+01  0.5751E+01  0.4335E+03
   2.280  0.5946E+01  0.5665E+01  0.4336E+03
   2.290  0.5985E+01  0.5606E+01  0.4338E+03
   2.300  0.6003E+01  0.5582E+01  0.4339E+03
   2.310  0.5996E+01  0.5597E+01  0.4340E+03
   2.320  0.5970E+01  0.5681E+01  0.4341E+03
   2.330  0.5920E+01  0.5681E+01  0.4342E+03
   2.340  0.5833E+01  0.5680E+01  0.4343E+03
   2.350  0.5719E+01  0.5648E+01  0.4345E+03
   2.360  0.5615E+01  0.5583E+01  0.4346E+03
   2.370  0.5606E+01  0.5491E+01  0.4347E+03
   2.380  0.5645E+01  0.5367E+01  0.4348E+03
   2.390  0.5808E+01  0.5215E+01  0.4349E+03
   2.400  0.6028E+01  0.5065E+01  0.4350E+03
   2.410  0.6223E+01  0.4915E+01  0.4351E+03
   2.420  0.6379E+01  0.4833E+01  0.4352E+03
   2.430  0.6500E+01  0.4958E+01  0.4353E+03
   2.440  0.6585E+01  0.5368E+01  0.4355E+03
   2.450  0.6638E+01  0.5919E+01  0.4356E+03
   2.460  0.6684E+01  0.6542E+01  0.4357E+03
   2.470  0.7669E+01  0.6926E+01  0.4359E+03
   2.480  0.7951E+01  0.7725E+01  0.4360E+03
   2.490  0.8260E+01  0.8134E+01  0.4362E+03
   2.500  0.8695E+01  0.8615E+01  0.4363E+03
   2.510  0.9169E+01  0.9203E+01  0.4365E+03
   2.520  0.9617E+01  0.9764E+01  0.4367E+03
   2.530  0.1011E+02  0.1032E+02  0.4369E+03
   2.540  0.1063E+02  0.1092E+02  0.4371E+03
   2.550  0.1109E+02  0.1148E+02  0.4373E+03
   2.560  0.1154E+02  0.1196E+02  0.4376E+03
   2.570  0.1183E+02  0.1240E+02  0.4378E+03
   2.580  0.1215E+02  0.1286E+02  0.4380E+03
   2.590  0.1242E+02  0.1318E+02  0.4383E+03
   2.600  0.1268E+02  0.1350E+02  0.4386E+03
   2.610  0.1293E+02  0.1378E+02  0.4388E+03
   2.620  0.1325E+02  0.1404E+02  0.4391E+03
   2.630  0.1375E+02  0.1430E+02  0.4394E+03
   2.640  0.1426E+02  0.1462E+02  0.4397E+03
   2.650  0.1517E+02  0.1502E+02  0.4400E+03
   2.660  0.1601E+02  0.1573E+02  0.4403E+03
   2.670  0.1687E+02  0.1645E+02  0.4406E+03
   2.680  0.1778E+02  0.1719E+02  0.4409E+03
   2.690  0.2020E+02  0.1797E+02  0.4413E+03
   2.700  0.2312E+02  0.1886E+02  0.4417E+03
   2.710  0.2768E+02  0.2098E+02  0.4421E+03
   2.720  0.3146E+02  0.2511E+02  0.4427E+03
   2.730  0.3307E+02  0.3055E+02  0.4433E+03
   2.740  0.3481E+02  0.3418E+02  0.4439E+03
   2.750  0.4282E+02  0.3701E+02  0.4447E+03
   2.760  0.4677E+02  0.5598E+02  0.4456E+03
   2.770  0.3264E+02  0.4391E+02  0.4465E+03
   2.780  0.1921E+02  0.2723E+02  0.4471E+03
   2.790  0.1698E+02  0.1766E+02  0.4475E+03
   2.800  0.1617E+02  0.1777E+02  0.4478E+03
   2.810  0.1543E+02  0.1656E+02  0.4481E+03
   2.820  0.1586E+02  0.1572E+02  0.4485E+03
   2.830  0.2030E+02  0.1823E+02  0.4488E+03
   2.840  0.2585E+02  0.2230E+02  0.4492E+03
   2.850  0.2704E+02  0.2466E+02  0.4497E+03
   2.860  0.3185E+02  0.2558E+02  0.4503E+03
   2.870  0.2536E+02  0.2968E+02  0.4509E+03
   2.880  0.1685E+02  0.2318E+02  0.4514E+03
   2.890  0.1223E+02  0.1495E+02  0.4517E+03
   2.900  0.1379E+02  0.1287E+02  0.4520E+03
   2.910  0.1387E+02  0.1258E+02  0.4522E+03
   2.920  0.1443E+02  0.1237E+02  0.4525E+03
   2.930  0.1560E+02  0.1318E+02  0.4528E+03
   2.940  0.1646E+02  0.1403E+02  0.4531E+03
   2.950  0.1813E+02  0.1474E+02  0.4534E+03
   2.960  0.1863E+02  0.1473E+02  0.4537E+03
   2.970  0.1954E+02  0.1570E+02  0.4541E+03
   2.980  0.2109E+02  0.1607E+02  0.4544E+03
   2.990  0.2326E+02  0.1794E+02  0.4548E+03
   3.000  0.2497E+02  0.1925E+02  0.4552E+03
   3.010  0.2621E+02  0.2045E+02  0.4557E+03
   3.020  0.2674E+02  0.2156E+02  0.4562E+03
   3.030  0.2686E+02  0.2257E+02  0.4567E+03
   3.040  0.2693E+02  0.2416E+02  0.4572E+03
   3.050  0.2715E+02  0.2594E+02  0.4577E+03
   3.060  0.2755E+02  0.2728E+02  0.4582E+03
   3.070  0.2800E+02  0.2796E+02  0.4588E+03
   3.080  0.2861E+02  0.2857E+02  0.4593E+03
   3.090  0.2918E+02  0.2957E+02  0.4599E+03
   3.100  0.2857E+02  0.3064E+02  0.4605E+03
   3.110  0.3097E+02  0.3153E+02  0.4611E+03
   3.120  0.2997E+02  0.3287E+02  0.4617E+03
   3.130  0.2719E+02  0.3223E+02  0.4624E+03
   3.140  0.2523E+02  0.3043E+02  0.4629E+03
   3.150  0.2223E+02  0.2818E+02  0.4635E+03
   3.160  0.1512E+02  0.2687E+02  0.4639E+03
   3.170  0.1488E+02  0.2601E+02  0.4643E+03
   3.180  0.1470E+02  0.2693E+02  0.4647E+03
   3.190  0.1456E+02  0.1893E+02  0.4651E+03
   3.200  0.1435E+02  0.1810E+02  0.4654E+03
   3.210  0.1405E+02  0.1677E+02  0.4657E+03
   3.220  0.1379E+02  0.1536E+02  0.4660E+03
   3.230  0.1392E+02  0.1428E+02  0.4663E+03
   3.240  0.1507E+02  0.1419E+02  0.4666E+03
   3.250  0.1630E+02  0.1438E+02  0.4669E+03
   3.260  0.1818E+02  0.1432E+02  0.4672E+03
   3.270  0.2093E+02  0.1475E+02  0.4676E+03
   3.280  0.2597E+02  0.1587E+02  0.4679E+03
   3.290  0.2886E+02  0.2184E+02  0.4684E+03
   3.300  0.2993E+02  0.2621E+02  0.4689E+03
   3.310  0.3257E+02  0.2468E+02  0.4695E+03
   3.320  0.3477E+02  0.2634E+02  0.4701E+03
   3.330  0.3517E+02  0.2775E+02  0.4707E+03
   3.340  0.3319E+02  0.2805E+02  0.4713E+03
   3.350  0.3238E+02  0.2978E+02  0.4720E+03
   3.360  0.3148E+02  0.3113E+02  0.4726E+03
   3.370  0.3014E+02  0.3104E+02  0.4732E+03
   3.380  0.2926E+02  0.3158E+02  0.4738E+03
   3.390  0.2937E+02  0.3080E+02  0.4744E+03
   3.400  0.3123E+02  0.2929E+02  0.4750E+03
   3.410  0.3125E+02  0.2865E+02  0.4756E+03
   3.420  0.3200E+02  0.2832E+02  0.4762E+03
   3.430  0.3250E+02  0.2862E+02  0.4768E+03
   3.440  0.3315E+02  0.2847E+02  0.4774E+03
   3.450  0.3387E+02  0.2898E+02  0.4781E+03
   3.460  0.3358E+02  0.2971E+02  0.4787E+03
   3.470  0.3321E+02  0.3041E+02  0.4793E+03
   3.480  0.3343E+02  0.3140E+02  0.4800E+03
   3.490  0.3399E+02  0.3224E+02  0.4806E+03
   3.500  0.3399E+02  0.3282E+02  0.4813E+03
   3.510  0.3379E+02  0.3309E+02  0.4820E+03
   3.520  0.3319E+02  0.3285E+02  0.4826E+03
   3.530  0.3142E+02  0.3227E+02  0.4833E+03
   3.540  0.3146E+02  0.3225E+02  0.4839E+03
   3.550  0.3184E+02  0.3248E+02  0.4845E+03
   3.560  0.3077E+02  0.3312E+02  0.4852E+03
   3.570  0.3085E+02  0.3386E+02  0.4858E+03
   3.580  0.3043E+02  0.3362E+02  0.4865E+03
   3.590  0.3110E+02  0.3329E+02  0.4871E+03
   3.600  0.3139E+02  0.3337E+02  0.4878E+03
   3.610  0.2966E+02  0.3231E+02  0.4884E+03
   3.620  0.2930E+02  0.3068E+02  0.4890E+03
   3.630  0.3015E+02  0.3030E+02  0.4896E+03
   3.640  0.3127E+02  0.3074E+02  0.4902E+03
   3.650  0.3034E+02  0.2856E+02  0.4908E+03
   3.660  0.3122E+02  0.3055E+02  0.4914E+03
   3.670  0.3329E+02  0.2726E+02  0.4921E+03
   3.680  0.3123E+02  0.2771E+02  0.4927E+03
   3.690  0.3300E+02  0.2785E+02  0.4933E+03
   3.700  0.3051E+02  0.2864E+02  0.4939E+03
   3.710  0.2875E+02  0.2968E+02  0.4944E+03
   3.720  0.2664E+02  0.2827E+02  0.4950E+03
   3.730  0.2378E+02  0.2672E+02  0.4955E+03
   3.740  0.2582E+02  0.2606E+02  0.4960E+03
   3.750  0.2117E+02  0.2585E+02  0.4965E+03
   3.760  0.2153E+02  0.2746E+02  0.4970E+03
   3.770  0.2290E+02  0.2719E+02  0.4975E+03
   3.780  0.2508E+02  0.3012E+02  0.4980E+03
   3.790  0.2945E+02  0.2465E+02  0.4986E+03
   3.800  0.4314E+02  0.2743E+02  0.4992E+03
   3.810  0.4479E+02  0.2837E+02  0.4999E+03
   3.820  0.4266E+02  0.3073E+02  0.5006E+03
   3.830  0.3783E+02  0.4309E+02  0.5014E+03
   3.840  0.3536E+02  0.4439E+02  0.5022E+03
   3.850  0.3298E+02  0.3855E+02  0.5030E+03
   3.860  0.3208E+02  0.3860E+02  0.5037E+03
   3.870  0.3142E+02  0.3732E+02  0.5044E+03
   3.880  0.3212E+02  0.3598E+02  0.5051E+03
   3.890  0.3427E+02  0.3709E+02  0.5058E+03
   3.900  0.3578E+02  0.3404E+02  0.5065E+03
   3.910  0.3565E+02  0.3224E+02  0.5072E+03
   3.920  0.4474E+02  0.3067E+02  0.5079E+03
   3.930  0.2770E+02  0.2945E+02  0.5085E+03
   3.940  0.2684E+02  0.3042E+02  0.5091E+03
   3.950  0.2667E+02  0.3026E+02  0.5097E+03
   3.960  0.2494E+02  0.2712E+02  0.5102E+03
   3.970  0.2438E+02  0.2562E+02  0.5107E+03
   3.980  0.2394E+02  0.2405E+02  0.5112E+03
   3.990  0.2479E+02  0.2302E+02  0.5117E+03
   4.000  0.2512E+02  0.2280E+02  0.5122E+03
   4.010  0.2478E+02  0.2297E+02  0.5126E+03
   4.020  0.2397E+02  0.2347E+02  0.5131E+03
   4.030  0.2468E+02  0.2414E+02  0.5136E+03
   4.040  0.2535E+02  0.2486E+02  0.5141E+03
   4.050  0.2627E+02  0.2595E+02  0.5146E+03
   4.060  0.2751E+02  0.2687E+02  0.5151E+03
   4.070  0.3067E+02  0.3029E+02  0.5157E+03
   4.080  0.3010E+02  0.2858E+02  0.5163E+03
   4.090  0.3227E+02  0.2889E+02  0.5169E+03
   4.100  0.3425E+02  0.2932E+02  0.5175E+03
   4.110  0.3437E+02  0.3058E+02  0.5182E+03
   4.120  0.3025E+02  0.3203E+02  0.5188E+03
   4.130  0.3013E+02  0.3195E+02  0.5194E+03
   4.140  0.3058E+02  0.3155E+02  0.5201E+03
   4.150  0.3119E+02  0.3083E+02  0.5207E+03
   4.160  0.3228E+02  0.3062E+02  0.5213E+03
   4.170  0.3331E+02  0.3066E+02  0.5219E+03
   4.180  0.3109E+02  0.3300E+02  0.5226E+03
   4.190  0.3008E+02  0.3497E+02  0.5232E+03
   4.200  0.2894E+02  0.3283E+02  0.5239E+03
   4.210  0.2831E+02  0.3241E+02  0.5245E+03
   4.220  0.2803E+02  0.3100E+02  0.5251E+03
   4.230  0.2835E+02  0.2977E+02  0.5257E+03
   4.240  0.2890E+02  0.2914E+02  0.5262E+03
   4.250  0.2980E+02  0.2873E+02  0.5268E+03
   4.260  0.3128E+02  0.2844E+02  0.5274E+03
   4.270  0.3308E+02  0.2848E+02  0.5280E+03
   4.280  0.3626E+02  0.2886E+02  0.5287E+03
   4.290  0.3593E+02  0.3068E+02  0.5293E+03
   4.300  0.3505E+02  0.3312E+02  0.5300E+03
   4.310  0.3456E+02  0.3695E+02  0.5307E+03
   4.320  0.3518E+02  0.4171E+02  0.5314E+03
   4.330  0.3673E+02  0.4355E+02  0.5322E+03
   4.340  0.3299E+02  0.4381E+02  0.5330E+03
   4.350  0.3160E+02  0.4545E+02  0.5338E+03
   4.360  0.2926E+02  0.4288E+02  0.5345E+03
   4.370  0.2696E+02  0.3570E+02  0.5352E+03
   4.380  0.2524E+02  0.3265E+02  0.5358E+03
   4.390  0.2456E+02  0.2840E+02  0.5364E+03
   4.400  0.2522E+02  0.2539E+02  0.5369E+03
   4.410  0.2753E+02  0.2477E+02  0.5374E+03
   4.420  0.2716E+02  0.2419E+02  0.5379E+03
   4.430  0.2641E+02  0.2278E+02  0.5384E+03
   4.440  0.2520E+02  0.2172E+02  0.5389E+03
   4.450  0.2483E+02  0.2065E+02  0.5394E+03
   4.460  0.2463E+02  0.2061E+02  0.5398E+03
   4.470  0.2449E+02  0.2179E+02  0.5403E+03
   4.480  0.2409E+02  0.2273E+02  0.5407E+03
   4.490  0.2332E+02  0.2302E+02  0.5412E+03
   4.500  0.2238E+02  0.2253E+02  0.5417E+03
   4.510  0.2673E+02  0.2188E+02  0.5421E+03
   4.520  0.2912E+02  0.2198E+02  0.5426E+03
   4.530  0.2750E+02  0.2538E+02  0.5431E+03
   4.540  0.2817E+02  0.2318E+02  0.5436E+03
   4.550  0.2736E+02  0.2341E+02  0.5442E+03
   4.560  0.2841E+02  0.2469E+02  0.5447E+03
   4.570  0.2874E+02  0.2524E+02  0.5452E+03
   4.580  0.2844E+02  0.2622E+02  0.5457E+03
   4.590  0.2816E+02  0.2816E+02  0.5463E+03
   4.600  0.2850E+02  0.2864E+02  0.5469E+03
   4.610  0.2892E+02  0.2926E+02  0.5474E+03
   4.620  0.2954E+02  0.2958E+02  0.5481E+03
   4.630  0.2902E+02  0.3029E+02  0.5487E+03
   4.640  0.2865E+02  0.3146E+02  0.5493E+03
   4.650  0.3043E+02  0.3433E+02  0.5499E+03
   4.660  0.3775E+02  0.3749E+02  0.5506E+03
   4.670  0.4374E+02  0.3729E+02  0.5514E+03
   4.680  0.3208E+02  0.3666E+02  0.5521E+03
   4.690  0.3043E+02  0.3773E+02  0.5528E+03
   4.700  0.2350E+02  0.3326E+02  0.5534E+03
   4.710  0.2591E+02  0.2999E+02  0.5540E+03
   4.720  0.3031E+02  0.2945E+02  0.5546E+03
   4.730  0.3026E+02  0.3193E+02  0.5552E+03
   4.740  0.2735E+02  0.3401E+02  0.5558E+03
   4.750  0.2758E+02  0.2988E+02  0.5564E+03
   4.760  0.3234E+02  0.3081E+02  0.5570E+03
   4.770  0.3173E+02  0.3589E+02  0.5577E+03
   4.780  0.2335E+02  0.3028E+02  0.5583E+03
   4.790  0.2122E+02  0.2427E+02  0.5588E+03
   4.800  0.1978E+02  0.2204E+02  0.5592E+03
   4.810  0.1860E+02  0.2055E+02  0.5596E+03
   4.820  0.1760E+02  0.1940E+02  0.5600E+03
   4.830  0.1684E+02  0.1846E+02  0.5603E+03
   4.840  0.1629E+02  0.1771E+02  0.5607E+03
   4.850  0.1589E+02  0.1718E+02  0.5610E+03
   4.860  0.1558E+02  0.1680E+02  0.5614E+03
   4.870  0.1530E+02  0.1648E+02  0.5617E+03
   4.880  0.1502E+02  0.1620E+02  0.5620E+03
   4.890  0.1486E+02  0.1592E+02  0.5623E+03
   4.900  0.1712E+02  0.1562E+02  0.5626E+03
   4.910  0.1361E+02  0.1650E+02  0.5629E+03
   4.920  0.1346E+02  0.1467E+02  0.5632E+03
   4.930  0.1338E+02  0.1480E+02  0.5635E+03
   4.940  0.1443E+02  0.1520E+02  0.5638E+03
   4.950  0.1545E+02  0.1560E+02  0.5641E+03
   4.960  0.1517E+02  0.1574E+02  0.5644E+03
   4.970  0.1459E+02  0.1541E+02  0.5647E+03
   4.980  0.1452E+02  0.1532E+02  0.5650E+03
   4.990  0.1415E+02  0.1533E+02  0.5653E+03
   5.000  0.1442E+02  0.1510E+02  0.5656E+03
   5.010  0.1464E+02  0.1458E+02  0.5659E+03
   5.020  0.1660E+02  0.1375E+02  0.5662E+03
   5.030  0.1991E+02  0.1247E+02  0.5665E+03
   5.040  0.1842E+02  0.1299E+02  0.5668E+03
   5.050  0.1545E+02  0.1356E+02  0.5671E+03
   5.060  0.1360E+02  0.1462E+02  0.5674E+03
   5.070  0.1234E+02  0.1610E+02  0.5677E+03
   5.080  0.1129E+02  0.1599E+02  0.5680E+03
   5.090  0.1025E+02  0.1372E+02  0.5682E+03
   5.100  0.9656E+01  0.1187E+02  0.5685E+03
   5.110  0.9120E+01  0.1071E+02  0.5687E+03
   5.120  0.8586E+01  0.9867E+01  0.5689E+03
   5.130  0.8010E+01  0.9094E+01  0.5690E+03
   5.140  0.7560E+01  0.8306E+01  0.5692E+03
   5.150  0.7279E+01  0.7406E+01  0.5694E+03
   5.160  0.7186E+01  0.6713E+01  0.5695E+03
   5.170  0.8347E+01  0.6583E+01  0.5696E+03
   5.180  0.4659E+01  0.6511E+01  0.5698E+03
   5.190  0.7402E+01  0.6411E+01  0.5699E+03
   5.200  0.9936E+01  0.6288E+01  0.5700E+03
   5.210  0.1090E+02  0.6196E+01  0.5702E+03
   5.220  0.1125E+02  0.7391E+01  0.5704E+03
   5.230  0.1166E+02  0.9197E+01  0.5706E+03
   5.240  0.1214E+02  0.1113E+02  0.5708E+03
   5.250  0.1242E+02  0.1351E+02  0.5711E+03
   5.260  0.1259E+02  0.1427E+02  0.5713E+03
   5.270  0.1263E+02  0.1376E+02  0.5716E+03
   5.280  0.1215E+02  0.1344E+02  0.5718E+03
   5.290  0.1108E+02  0.1292E+02  0.5721E+03
   5.300  0.9906E+01  0.1241E+02  0.5723E+03
   5.310  0.8856E+01  0.1131E+02  0.5725E+03
   5.320  0.7882E+01  0.1031E+02  0.5727E+03
   5.330  0.6943E+01  0.9295E+01  0.5729E+03
   5.340  0.6102E+01  0.8275E+01  0.5731E+03
   5.350  0.5479E+01  0.7307E+01  0.5732E+03
   5.360  0.5380E+01  0.6418E+01  0.5733E+03
   5.370  0.5235E+01  0.5599E+01  0.5734E+03
   5.380  0.4667E+01  0.4922E+01  0.5735E+03
   5.390  0.3920E+01  0.4272E+01  0.5736E+03
   5.400  0.3034E+01  0.3753E+01  0.5737E+03
   5.410  0.1975E+01  0.3412E+01  0.5738E+03
   5.420  0.7751E+00  0.3463E+01  0.5738E+03
   5.430  0.2527E+00  0.3637E+01  0.5738E+03
   5.440  0.7340E-01  0.3564E+01  0.5739E+03
   5.450  0.5498E-02  0.3294E+01  0.5739E+03
   5.460  0.1082E-02  0.2827E+01  0.5739E+03
   5.470  0.2439E-03  0.2157E+01  0.5740E+03
   5.480  0.9091E-07  0.1289E+01  0.5740E+03
   5.490  0.0000E+00  0.4950E+00  0.5740E+03
   5.500  0.0000E+00  0.2402E+00  0.5740E+03
   5.510  0.0000E+00  0.9643E-01  0.5740E+03
   5.520  0.0000E+00  0.1902E-01  0.5740E+03
   5.530  0.0000E+00  0.1183E-02  0.5740E+03
   5.540  0.0000E+00  0.3419E-03  0.5740E+03
   5.550  0.0000E+00  0.1370E-04  0.5740E+03
   5.560  0.0000E+00  0.0000E+00  0.5740E+03
   5.570  0.0000E+00  0.0000E+00  0.5740E+03
   5.580  0.0000E+00  0.0000E+00  0.5740E+03
   5.590  0.0000E+00  0.0000E+00  0.5740E+03
   5.600  0.0000E+00  0.0000E+00  0.5740E+03
   5.610  0.0000E+00  0.0000E+00  0.5740E+03
   5.620  0.0000E+00  0.0000E+00  0.5740E+03
   5.630  0.0000E+00  0.0000E+00  0.5740E+03
   5.640  0.0000E+00  0.0000E+00  0.5740E+03
   5.650  0.0000E+00  0.0000E+00  0.5740E+03
   5.660  0.0000E+00  0.0000E+00  0.5740E+03
   5.670  0.0000E+00  0.0000E+00  0.5740E+03
   5.680  0.0000E+00  0.0000E+00  0.5740E+03
   5.690  0.0000E+00  0.0000E+00  0.5740E+03
   5.700  0.0000E+00  0.0000E+00  0.5740E+03
   5.710  0.0000E+00  0.0000E+00  0.5740E+03
   5.720  0.0000E+00  0.0000E+00  0.5740E+03
   5.730  0.0000E+00  0.0000E+00  0.5740E+03
   5.740  0.0000E+00  0.0000E+00  0.5740E+03
   5.750  0.0000E+00  0.0000E+00  0.5740E+03
   5.760  0.0000E+00  0.0000E+00  0.5740E+03
   5.770  0.0000E+00  0.0000E+00  0.5740E+03
   5.780  0.0000E+00  0.0000E+00  0.5740E+03
   5.790  0.0000E+00  0.0000E+00  0.5740E+03
   5.800  0.0000E+00  0.0000E+00  0.5740E+03
   5.810  0.0000E+00  0.0000E+00  0.5740E+03
   5.820  0.0000E+00  0.0000E+00  0.5740E+03
   5.830  0.0000E+00  0.0000E+00  0.5740E+03
   5.840  0.0000E+00  0.0000E+00  0.5740E+03
   5.850  0.0000E+00  0.0000E+00  0.5740E+03
   5.860  0.0000E+00  0.0000E+00  0.5740E+03
   5.870  0.0000E+00  0.0000E+00  0.5740E+03
   5.880  0.0000E+00  0.0000E+00  0.5740E+03
   5.890  0.0000E+00  0.0000E+00  0.5740E+03
   5.900  0.0000E+00  0.0000E+00  0.5740E+03
   5.910  0.0000E+00  0.0000E+00  0.5740E+03
   5.920  0.0000E+00  0.0000E+00  0.5740E+03
   5.930  0.0000E+00  0.0000E+00  0.5740E+03
   5.940  0.0000E+00  0.0000E+00  0.5740E+03
   5.950  0.0000E+00  0.0000E+00  0.5740E+03
   5.960  0.0000E+00  0.0000E+00  0.5740E+03
   5.970  0.0000E+00  0.0000E+00  0.5740E+03
   5.980  0.0000E+00  0.0000E+00  0.5740E+03
   5.990  0.0000E+00  0.0000E+00  0.5740E+03
   6.000  0.0000E+00  0.0000E+00  0.5740E+03
   6.010  0.0000E+00  0.0000E+00  0.5740E+03
   6.020  0.0000E+00  0.0000E+00  0.5740E+03
   6.030  0.0000E+00  0.0000E+00  0.5740E+03
   6.040  0.0000E+00  0.0000E+00  0.5740E+03
   6.050  0.0000E+00  0.0000E+00  0.5740E+03
   6.060  0.0000E+00  0.0000E+00  0.5740E+03
   6.070  0.0000E+00  0.0000E+00  0.5740E+03
   6.080  0.0000E+00  0.0000E+00  0.5740E+03
   6.090  0.0000E+00  0.0000E+00  0.5740E+03
   6.100  0.0000E+00  0.0000E+00  0.5740E+03
   6.110  0.0000E+00  0.0000E+00  0.5740E+03
   6.120  0.0000E+00  0.0000E+00  0.5740E+03
   6.130  0.0000E+00  0.0000E+00  0.5740E+03
   6.140  0.0000E+00  0.0000E+00  0.5740E+03
   6.150  0.0000E+00  0.0000E+00  0.5740E+03
   6.160  0.0000E+00  0.0000E+00  0.5740E+03
   6.170  0.0000E+00  0.0000E+00  0.5740E+03
   6.180  0.0000E+00  0.0000E+00  0.5740E+03
   6.190  0.0000E+00  0.0000E+00  0.5740E+03
   6.200  0.0000E+00  0.0000E+00  0.5740E+03
   6.210  0.0000E+00  0.0000E+00  0.5740E+03
   6.220  0.0000E+00  0.0000E+00  0.5740E+03
   6.230  0.0000E+00  0.0000E+00  0.5740E+03
   6.240  0.0000E+00  0.0000E+00  0.5740E+03
   6.250  0.0000E+00  0.0000E+00  0.5740E+03
   6.260  0.0000E+00  0.0000E+00  0.5740E+03
   6.270  0.0000E+00  0.0000E+00  0.5740E+03
   6.280  0.0000E+00  0.0000E+00  0.5740E+03
   6.290  0.0000E+00  0.0000E+00  0.5740E+03
   6.300  0.0000E+00  0.0000E+00  0.5740E+03
   6.310  0.0000E+00  0.0000E+00  0.5740E+03
   6.320  0.0000E+00  0.0000E+00  0.5740E+03
   6.330  0.0000E+00  0.0000E+00  0.5740E+03
   6.340  0.0000E+00  0.0000E+00  0.5740E+03
   6.350  0.0000E+00  0.0000E+00  0.5740E+03
   6.360  0.0000E+00  0.0000E+00  0.5740E+03
   6.370  0.0000E+00  0.0000E+00  0.5740E+03
   6.380  0.0000E+00  0.0000E+00  0.5740E+03
   6.390  0.0000E+00  0.0000E+00  0.5740E+03
   6.400  0.0000E+00  0.0000E+00  0.5740E+03
   6.410  0.0000E+00  0.0000E+00  0.5740E+03
   6.420  0.0000E+00  0.0000E+00  0.5740E+03
   6.430  0.0000E+00  0.0000E+00  0.5740E+03
   6.440  0.0000E+00  0.0000E+00  0.5740E+03
   6.450  0.0000E+00  0.0000E+00  0.5740E+03
   6.460  0.0000E+00  0.0000E+00  0.5740E+03
   6.470  0.0000E+00  0.0000E+00  0.5740E+03
   6.480  0.0000E+00  0.0000E+00  0.5740E+03
   6.490  0.0000E+00  0.0000E+00  0.5740E+03
   6.500  0.0000E+00  0.0000E+00  0.5740E+03
   6.510  0.0000E+00  0.0000E+00  0.5740E+03
   6.520  0.0000E+00  0.0000E+00  0.5740E+03
   6.530  0.0000E+00  0.0000E+00  0.5740E+03
   6.540  0.0000E+00  0.0000E+00  0.5740E+03
   6.550  0.0000E+00  0.0000E+00  0.5740E+03
   6.560  0.1673E+00  0.0000E+00  0.5740E+03
   6.570  0.2485E+01  0.0000E+00  0.5740E+03
   6.580  0.9297E+01  0.0000E+00  0.5741E+03
   6.590  0.3806E+02  0.0000E+00  0.5743E+03
   6.600  0.5003E+02  0.0000E+00  0.5748E+03
   6.610  0.6926E+02  0.0000E+00  0.5753E+03
   6.620  0.4495E+02  0.0000E+00  0.5760E+03
   6.630  0.4795E+02  0.0000E+00  0.5767E+03
   6.640  0.3431E+02  0.0000E+00  0.5770E+03
   6.650  0.3019E+02  0.0000E+00  0.5773E+03
   6.660  0.3058E+02  0.0000E+00  0.5776E+03
   6.670  0.4804E+02  0.0000E+00  0.5780E+03
   6.680  0.7771E+02  0.0000E+00  0.5787E+03
   6.690  0.6357E+01  0.0000E+00  0.5790E+03
   6.700  0.1083E+00  0.0000E+00  0.5790E+03
   6.710  0.0000E+00  0.0000E+00  0.5790E+03
   6.720  0.0000E+00  0.0000E+00  0.5790E+03
   6.730  0.0000E+00  0.0000E+00  0.5790E+03
   6.740  0.0000E+00  0.0000E+00  0.5790E+03
   6.750  0.0000E+00  0.0000E+00  0.5790E+03
   6.760  0.0000E+00  0.0000E+00  0.5790E+03
   6.770  0.0000E+00  0.0000E+00  0.5790E+03
   6.780  0.0000E+00  0.0000E+00  0.5790E+03
   6.790  0.0000E+00  0.0000E+00  0.5790E+03
   6.800  0.0000E+00  0.0000E+00  0.5790E+03
   6.810  0.0000E+00  0.0000E+00  0.5790E+03
   6.820  0.0000E+00  0.0000E+00  0.5790E+03
   6.830  0.0000E+00  0.0000E+00  0.5790E+03
   6.840  0.0000E+00  0.0000E+00  0.5790E+03
   6.850  0.0000E+00  0.0000E+00  0.5790E+03
   6.860  0.0000E+00  0.0000E+00  0.5790E+03
   6.870  0.0000E+00  0.0000E+00  0.5790E+03
   6.880  0.0000E+00  0.0000E+00  0.5790E+03
   6.890  0.0000E+00  0.0000E+00  0.5790E+03
   6.900  0.0000E+00  0.0000E+00  0.5790E+03
   6.910  0.0000E+00  0.0000E+00  0.5790E+03
   6.920  0.0000E+00  0.0000E+00  0.5790E+03
   6.930  0.0000E+00  0.0000E+00  0.5790E+03
   6.940  0.0000E+00  0.0000E+00  0.5790E+03
   6.950  0.0000E+00  0.0000E+00  0.5790E+03
   6.960  0.0000E+00  0.0000E+00  0.5790E+03
   6.970  0.0000E+00  0.0000E+00  0.5790E+03
   6.980  0.0000E+00  0.0000E+00  0.5790E+03
   6.990  0.0000E+00  0.0000E+00  0.5790E+03
   7.000  0.0000E+00  0.0000E+00  0.5790E+03
   7.010  0.0000E+00  0.0000E+00  0.5790E+03
   7.020  0.0000E+00  0.0000E+00  0.5790E+03
   7.030  0.0000E+00  0.0000E+00  0.5790E+03
   7.040  0.0000E+00  0.0000E+00  0.5790E+03
   7.050  0.0000E+00  0.0000E+00  0.5790E+03
   7.060  0.0000E+00  0.0000E+00  0.5790E+03
   7.070  0.0000E+00  0.0000E+00  0.5790E+03
   7.080  0.0000E+00  0.0000E+00  0.5790E+03
   7.090  0.0000E+00  0.0000E+00  0.5790E+03
   7.100  0.0000E+00  0.0000E+00  0.5790E+03
   7.110  0.0000E+00  0.0000E+00  0.5790E+03
   7.120  0.0000E+00  0.0000E+00  0.5790E+03
   7.130  0.0000E+00  0.0000E+00  0.5790E+03
   7.140  0.0000E+00  0.0000E+00  0.5790E+03
   7.150  0.0000E+00  0.0000E+00  0.5790E+03
   7.160  0.0000E+00  0.0000E+00  0.5790E+03
   7.170  0.0000E+00  0.0000E+00  0.5790E+03
   7.180  0.0000E+00  0.0000E+00  0.5790E+03
   7.190  0.0000E+00  0.0000E+00  0.5790E+03
   7.200  0.0000E+00  0.0000E+00  0.5790E+03
   7.210  0.0000E+00  0.0000E+00  0.5790E+03
   7.220  0.0000E+00  0.0000E+00  0.5790E+03
   7.230  0.0000E+00  0.0000E+00  0.5790E+03
   7.240  0.0000E+00  0.0000E+00  0.5790E+03
   7.250  0.0000E+00  0.0000E+00  0.5790E+03
   7.260  0.0000E+00  0.0000E+00  0.5790E+03
   7.270  0.0000E+00  0.0000E+00  0.5790E+03
   7.280  0.0000E+00  0.0000E+00  0.5790E+03
   7.290  0.0000E+00  0.0000E+00  0.5790E+03
   7.300  0.0000E+00  0.0000E+00  0.5790E+03
   7.310  0.0000E+00  0.0000E+00  0.5790E+03
   7.320  0.0000E+00  0.0000E+00  0.5790E+03
   7.330  0.0000E+00  0.0000E+00  0.5790E+03
   7.340  0.0000E+00  0.0000E+00  0.5790E+03
   7.350  0.0000E+00  0.0000E+00  0.5790E+03
   7.360  0.0000E+00  0.0000E+00  0.5790E+03
   7.370  0.0000E+00  0.0000E+00  0.5790E+03
   7.380  0.0000E+00  0.0000E+00  0.5790E+03
   7.390  0.0000E+00  0.0000E+00  0.5790E+03
   7.400  0.0000E+00  0.0000E+00  0.5790E+03
   7.410  0.0000E+00  0.0000E+00  0.5790E+03
   7.420  0.0000E+00  0.0000E+00  0.5790E+03
   7.430  0.0000E+00  0.0000E+00  0.5790E+03
   7.440  0.0000E+00  0.0000E+00  0.5790E+03
   7.450  0.0000E+00  0.0000E+00  0.5790E+03
   7.460  0.1470E-04  0.0000E+00  0.5790E+03
   7.470  0.8834E-04  0.0000E+00  0.5790E+03
   7.480  0.2239E-03  0.0000E+00  0.5790E+03
   7.490  0.4705E-03  0.0000E+00  0.5790E+03
   7.500  0.9474E-03  0.0000E+00  0.5790E+03
   7.510  0.1660E-02  0.0000E+00  0.5790E+03
   7.520  0.2608E-02  0.0000E+00  0.5790E+03
   7.530  0.3792E-02  0.0000E+00  0.5790E+03
   7.540  0.5211E-02  0.0000E+00  0.5790E+03
   7.550  0.6866E-02  0.0000E+00  0.5790E+03
   7.560  0.8756E-02  0.0000E+00  0.5790E+03
   7.570  0.1088E-01  0.8501E-04  0.5790E+03
   7.580  0.1324E-01  0.1773E-02  0.5790E+03
   7.590  0.1584E-01  0.5625E-02  0.5790E+03
   7.600  0.1867E-01  0.1164E-01  0.5790E+03
   7.610  0.2174E-01  0.1982E-01  0.5790E+03
   7.620  0.2505E-01  0.3017E-01  0.5790E+03
   7.630  0.2859E-01  0.4268E-01  0.5790E+03
   7.640  0.3236E-01  0.5736E-01  0.5790E+03
   7.650  0.3637E-01  0.7420E-01  0.5790E+03
   7.660  0.4062E-01  0.9320E-01  0.5790E+03
   7.670  0.4510E-01  0.1144E+00  0.5790E+03
   7.680  0.4982E-01  0.1377E+00  0.5790E+03
   7.690  0.5477E-01  0.1632E+00  0.5790E+03
   7.700  0.5996E-01  0.1909E+00  0.5790E+03
   7.710  0.6538E-01  0.2207E+00  0.5790E+03
   7.720  0.7104E-01  0.2527E+00  0.5790E+03
   7.730  0.7694E-01  0.2868E+00  0.5790E+03
   7.740  0.8307E-01  0.3232E+00  0.5790E+03
   7.750  0.8944E-01  0.3620E+00  0.5790E+03
   7.760  0.9604E-01  0.4034E+00  0.5790E+03
   7.770  0.1029E+00  0.4476E+00  0.5790E+03
   7.780  0.1100E+00  0.4971E+00  0.5790E+03
   7.790  0.1173E+00  0.5531E+00  0.5791E+03
   7.800  0.1248E+00  0.6155E+00  0.5791E+03
   7.810  0.1326E+00  0.5345E+01  0.5791E+03
   7.820  0.1406E+00  0.1852E+02  0.5792E+03
   7.830  0.1489E+00  0.9149E+02  0.5796E+03
   7.840  0.1573E+00  0.5768E+02  0.5804E+03
   7.850  0.1661E+00  0.2918E+02  0.5808E+03
   7.860  0.1750E+00  0.7601E+01  0.5810E+03
   7.870  0.1839E+00  0.3294E+00  0.5810E+03
   7.880  0.1921E+00  0.2701E+00  0.5810E+03
   7.890  0.2014E+00  0.2966E+00  0.5810E+03
   7.900  0.2122E+00  0.3161E+00  0.5810E+03
   7.910  0.2246E+00  0.3297E+00  0.5811E+03
   7.920  0.2394E+00  0.3425E+00  0.5811E+03
   7.930  0.2535E+00  0.3543E+00  0.5811E+03
   7.940  0.2668E+00  0.3656E+00  0.5811E+03
   7.950  0.2794E+00  0.3766E+00  0.5811E+03
   7.960  0.2915E+00  0.3873E+00  0.5811E+03
   7.970  0.3030E+00  0.3979E+00  0.5811E+03
   7.980  0.3142E+00  0.4084E+00  0.5811E+03
   7.990  0.3250E+00  0.4189E+00  0.5811E+03
   8.000  0.3355E+00  0.4294E+00  0.5811E+03
   8.010  0.3459E+00  0.4399E+00  0.5811E+03
   8.020  0.3560E+00  0.4504E+00  0.5811E+03
   8.030  0.3659E+00  0.4609E+00  0.5811E+03
   8.040  0.3757E+00  0.4714E+00  0.5811E+03
   8.050  0.3852E+00  0.4819E+00  0.5812E+03
   8.060  0.3946E+00  0.4924E+00  0.5812E+03
   8.070  0.4038E+00  0.5030E+00  0.5812E+03
   8.080  0.4128E+00  0.5135E+00  0.5812E+03
   8.090  0.4216E+00  0.5240E+00  0.5812E+03
   8.100  0.4302E+00  0.5346E+00  0.5812E+03
   8.110  0.4386E+00  0.5452E+00  0.5812E+03
   8.120  0.4469E+00  0.5557E+00  0.5812E+03
   8.130  0.4549E+00  0.5663E+00  0.5812E+03
   8.140  0.4628E+00  0.5766E+00  0.5812E+03
   8.150  0.4704E+00  0.5837E+00  0.5812E+03
   8.160  0.4762E+00  0.5882E+00  0.5813E+03
   8.170  0.4794E+00  0.5904E+00  0.5813E+03
   8.180  0.4802E+00  0.5938E+00  0.5813E+03
   8.190  0.4793E+00  0.5987E+00  0.5813E+03
   8.200  0.4806E+00  0.6045E+00  0.5813E+03
   8.210  0.4825E+00  0.6100E+00  0.5813E+03
   8.220  0.4860E+00  0.6150E+00  0.5813E+03
   8.230  0.4894E+00  0.6205E+00  0.5813E+03
   8.240  0.4927E+00  0.6270E+00  0.5813E+03
   8.250  0.4958E+00  0.6350E+00  0.5814E+03
   8.260  0.4991E+00  0.6447E+00  0.5814E+03
   8.270  0.5029E+00  0.6561E+00  0.5814E+03
   8.280  0.5071E+00  0.6692E+00  0.5814E+03
   8.290  0.5122E+00  0.6841E+00  0.5814E+03
   8.300  0.5181E+00  0.7007E+00  0.5814E+03
   8.310  0.5250E+00  0.7192E+00  0.5814E+03
   8.320  0.5328E+00  0.7400E+00  0.5814E+03
   8.330  0.5416E+00  0.7634E+00  0.5815E+03
   8.340  0.5520E+00  0.7882E+00  0.5815E+03
   8.350  0.5641E+00  0.8128E+00  0.5815E+03
   8.360  0.5775E+00  0.8376E+00  0.5815E+03
   8.370  0.5914E+00  0.8624E+00  0.5815E+03
   8.380  0.6055E+00  0.8870E+00  0.5815E+03
   8.390  0.6197E+00  0.9110E+00  0.5815E+03
   8.400  0.6342E+00  0.9355E+00  0.5816E+03
   8.410  0.6488E+00  0.9609E+00  0.5816E+03
   8.420  0.6633E+00  0.9874E+00  0.5816E+03
   8.430  0.6780E+00  0.1015E+01  0.5816E+03
   8.440  0.6929E+00  0.1044E+01  0.5816E+03
   8.450  0.7081E+00  0.1074E+01  0.5816E+03
   8.460  0.7235E+00  0.1106E+01  0.5817E+03
   8.470  0.7394E+00  0.1139E+01  0.5817E+03
   8.480  0.7556E+00  0.1174E+01  0.5817E+03
   8.490  0.7722E+00  0.1210E+01  0.5817E+03
   8.500  0.7892E+00  0.1247E+01  0.5817E+03
   8.510  0.8068E+00  0.1286E+01  0.5818E+03
   8.520  0.8249E+00  0.1327E+01  0.5818E+03
   8.530  0.8436E+00  0.1369E+01  0.5818E+03
   8.540  0.8629E+00  0.1412E+01  0.5818E+03
   8.550  0.8827E+00  0.1452E+01  0.5818E+03
   8.560  0.9031E+00  0.1488E+01  0.5819E+03
   8.570  0.9241E+00  0.1518E+01  0.5819E+03
   8.580  0.9456E+00  0.1543E+01  0.5819E+03
   8.590  0.9677E+00  0.1560E+01  0.5819E+03
   8.600  0.9904E+00  0.1568E+01  0.5820E+03
   8.610  0.1014E+01  0.1569E+01  0.5820E+03
   8.620  0.1037E+01  0.1562E+01  0.5820E+03
   8.630  0.1062E+01  0.1548E+01  0.5820E+03
   8.640  0.1087E+01  0.1527E+01  0.5821E+03
   8.650  0.1112E+01  0.1499E+01  0.5821E+03
   8.660  0.1138E+01  0.1463E+01  0.5821E+03
   8.670  0.1165E+01  0.1418E+01  0.5821E+03
   8.680  0.1192E+01  0.1375E+01  0.5822E+03
   8.690  0.1220E+01  0.1336E+01  0.5822E+03
   8.700  0.1248E+01  0.1306E+01  0.5822E+03
   8.710  0.1277E+01  0.1326E+01  0.5823E+03
   8.720  0.1307E+01  0.1451E+01  0.5823E+03
   8.730  0.1337E+01  0.1787E+01  0.5823E+03
   8.740  0.1366E+01  0.2244E+01  0.5823E+03
   8.750  0.1390E+01  0.2719E+01  0.5824E+03
   8.760  0.1410E+01  0.3250E+01  0.5824E+03
   8.770  0.1444E+01  0.3902E+01  0.5825E+03
   8.780  0.1500E+01  0.5078E+01  0.5825E+03
   8.790  0.1579E+01  0.7398E+01  0.5826E+03
   8.800  0.1677E+01  0.1158E+02  0.5827E+03
   8.810  0.1790E+01  0.1148E+02  0.5828E+03
   8.820  0.1921E+01  0.1402E+02  0.5830E+03
   8.830  0.2067E+01  0.1600E+02  0.5832E+03
   8.840  0.2251E+01  0.1620E+02  0.5834E+03
   8.850  0.2483E+01  0.1365E+02  0.5835E+03
   8.860  0.2820E+01  0.1317E+02  0.5837E+03
   8.870  0.3561E+01  0.1283E+02  0.5838E+03
   8.880  0.7284E+01  0.1222E+02  0.5840E+03
   8.890  0.6379E+01  0.1708E+02  0.5842E+03
   8.900  0.6237E+01  0.2186E+02  0.5845E+03
   8.910  0.6766E+01  0.1980E+02  0.5848E+03
   8.920  0.7190E+01  0.1818E+02  0.5850E+03
   8.930  0.7488E+01  0.1904E+02  0.5853E+03
   8.940  0.7646E+01  0.1820E+02  0.5856E+03
   8.950  0.7694E+01  0.1413E+02  0.5858E+03
   8.960  0.7716E+01  0.1066E+02  0.5860E+03
   8.970  0.7711E+01  0.9500E+01  0.5862E+03
   8.980  0.7671E+01  0.9414E+01  0.5863E+03
   8.990  0.7607E+01  0.8748E+01  0.5865E+03
   9.000  0.7618E+01  0.9611E+01  0.5867E+03
   9.010  0.7616E+01  0.1083E+02  0.5868E+03
   9.020  0.7395E+01  0.1224E+02  0.5870E+03
   9.030  0.7088E+01  0.1408E+02  0.5872E+03
   9.040  0.6742E+01  0.1507E+02  0.5875E+03
   9.050  0.6945E+01  0.1647E+02  0.5877E+03
   9.060  0.6949E+01  0.1793E+02  0.5879E+03
   9.070  0.6248E+01  0.1196E+02  0.5881E+03
   9.080  0.5360E+01  0.7754E+01  0.5883E+03
   9.090  0.5634E+01  0.6901E+01  0.5884E+03
   9.100  0.5937E+01  0.6282E+01  0.5886E+03
   9.110  0.6198E+01  0.5802E+01  0.5887E+03
   9.120  0.6404E+01  0.5719E+01  0.5888E+03
   9.130  0.6609E+01  0.5906E+01  0.5889E+03
   9.140  0.6812E+01  0.6152E+01  0.5890E+03
   9.150  0.7023E+01  0.6352E+01  0.5892E+03
   9.160  0.7310E+01  0.6471E+01  0.5893E+03
   9.170  0.7593E+01  0.6623E+01  0.5894E+03
   9.180  0.7892E+01  0.6784E+01  0.5896E+03
   9.190  0.8207E+01  0.7001E+01  0.5897E+03
   9.200  0.8537E+01  0.7222E+01  0.5899E+03
   9.210  0.8879E+01  0.7453E+01  0.5901E+03
   9.220  0.9227E+01  0.7695E+01  0.5902E+03
   9.230  0.9579E+01  0.7948E+01  0.5904E+03
   9.240  0.9938E+01  0.8200E+01  0.5906E+03
   9.250  0.1032E+02  0.8435E+01  0.5908E+03
   9.260  0.1069E+02  0.8665E+01  0.5910E+03
   9.270  0.1105E+02  0.8899E+01  0.5911E+03
   9.280  0.1141E+02  0.9128E+01  0.5913E+03
   9.290  0.1178E+02  0.9343E+01  0.5916E+03
   9.300  0.1216E+02  0.9551E+01  0.5918E+03
   9.310  0.1255E+02  0.9735E+01  0.5920E+03
   9.320  0.1292E+02  0.9905E+01  0.5922E+03
   9.330  0.1327E+02  0.1007E+02  0.5924E+03
   9.340  0.1372E+02  0.1037E+02  0.5927E+03
   9.350  0.1442E+02  0.1074E+02  0.5929E+03
   9.360  0.1523E+02  0.1104E+02  0.5932E+03
   9.370  0.1591E+02  0.1142E+02  0.5935E+03
   9.380  0.1633E+02  0.1186E+02  0.5937E+03
   9.390  0.1650E+02  0.1240E+02  0.5940E+03
   9.400  0.1641E+02  0.1300E+02  0.5943E+03
   9.410  0.1628E+02  0.1367E+02  0.5946E+03
   9.420  0.1632E+02  0.1442E+02  0.5949E+03
   9.430  0.1655E+02  0.1529E+02  0.5952E+03
   9.440  0.1698E+02  0.1573E+02  0.5955E+03
   9.450  0.1747E+02  0.1585E+02  0.5959E+03
   9.460  0.1771E+02  0.1726E+02  0.5962E+03
   9.470  0.1713E+02  0.1940E+02  0.5966E+03
   9.480  0.1826E+02  0.2178E+02  0.5970E+03
   9.490  0.1702E+02  0.3558E+02  0.5974E+03
   9.500  0.1537E+02  0.3495E+02  0.5980E+03
   9.510  0.1644E+02  0.2542E+02  0.5984E+03
   9.520  0.1615E+02  0.1854E+02  0.5988E+03
   9.530  0.1607E+02  0.1356E+02  0.5991E+03
   9.540  0.1540E+02  0.9307E+01  0.5994E+03
   9.550  0.1622E+02  0.8354E+01  0.5996E+03
   9.560  0.1737E+02  0.1014E+02  0.5999E+03
   9.570  0.1721E+02  0.1334E+02  0.6002E+03
   9.580  0.1651E+02  0.1785E+02  0.6005E+03
   9.590  0.1594E+02  0.1886E+02  0.6009E+03
   9.600  0.1556E+02  0.1898E+02  0.6012E+03
   9.610  0.1536E+02  0.1844E+02  0.6016E+03
   9.620  0.1514E+02  0.1775E+02  0.6019E+03
   9.630  0.1502E+02  0.1708E+02  0.6022E+03
   9.640  0.1505E+02  0.1646E+02  0.6025E+03
   9.650  0.1543E+02  0.1598E+02  0.6028E+03
   9.660  0.1508E+02  0.1561E+02  0.6032E+03
   9.670  0.1375E+02  0.1534E+02  0.6035E+03
   9.680  0.1285E+02  0.1518E+02  0.6037E+03
   9.690  0.1357E+02  0.1508E+02  0.6040E+03
   9.700  0.1459E+02  0.1508E+02  0.6043E+03
   9.710  0.1580E+02  0.1465E+02  0.6046E+03
   9.720  0.1687E+02  0.1453E+02  0.6049E+03
   9.730  0.1795E+02  0.1525E+02  0.6053E+03
   9.740  0.1923E+02  0.1672E+02  0.6056E+03
   9.750  0.2077E+02  0.1995E+02  0.6060E+03
   9.760  0.2109E+02  0.1902E+02  0.6064E+03
   9.770  0.2049E+02  0.2029E+02  0.6068E+03
   9.780  0.1954E+02  0.2108E+02  0.6072E+03
   9.790  0.1870E+02  0.2135E+02  0.6076E+03
   9.800  0.1831E+02  0.2077E+02  0.6080E+03
   9.810  0.1814E+02  0.2047E+02  0.6084E+03
   9.820  0.1820E+02  0.2024E+02  0.6088E+03
   9.830  0.1952E+02  0.2039E+02  0.6092E+03
   9.840  0.2282E+02  0.2105E+02  0.6096E+03
   9.850  0.2974E+02  0.2366E+02  0.6101E+03
   9.860  0.3568E+02  0.2969E+02  0.6107E+03
   9.870  0.3805E+02  0.3353E+02  0.6114E+03
   9.880  0.3942E+02  0.3504E+02  0.6121E+03
   9.890  0.4766E+02  0.3603E+02  0.6129E+03
   9.900  0.4038E+02  0.3873E+02  0.6137E+03
   9.910  0.3980E+02  0.3812E+02  0.6145E+03
   9.920  0.3560E+02  0.3337E+02  0.6152E+03
   9.930  0.3543E+02  0.3144E+02  0.6159E+03
   9.940  0.2779E+02  0.2949E+02  0.6165E+03
   9.950  0.2784E+02  0.2861E+02  0.6171E+03
   9.960  0.2933E+02  0.3388E+02  0.6177E+03
   9.970  0.3058E+02  0.2715E+02  0.6183E+03
   9.980  0.2996E+02  0.2628E+02  0.6189E+03
   9.990  0.2773E+02  0.2687E+02  0.6194E+03
  10.000  0.2876E+02  0.2840E+02  0.6200E+03
  10.010  0.3037E+02  0.2999E+02  0.6206E+03
  10.020  0.3187E+02  0.3108E+02  0.6212E+03
  10.030  0.3338E+02  0.3233E+02  0.6218E+03
  10.040  0.3419E+02  0.3259E+02  0.6225E+03
  10.050  0.3430E+02  0.3306E+02  0.6232E+03
  10.060  0.3361E+02  0.3360E+02  0.6239E+03
  10.070  0.3313E+02  0.3480E+02  0.6245E+03
  10.080  0.3326E+02  0.3327E+02  0.6252E+03
  10.090  0.3439E+02  0.3306E+02  0.6259E+03
  10.100  0.3441E+02  0.3222E+02  0.6265E+03
  10.110  0.3453E+02  0.3208E+02  0.6272E+03
  10.120  0.3239E+02  0.3130E+02  0.6279E+03
  10.130  0.2944E+02  0.3015E+02  0.6285E+03
  10.140  0.2848E+02  0.2724E+02  0.6291E+03
  10.150  0.2758E+02  0.2596E+02  0.6296E+03
  10.160  0.2653E+02  0.2378E+02  0.6301E+03
  10.170  0.2545E+02  0.2355E+02  0.6306E+03
  10.180  0.2416E+02  0.2328E+02  0.6311E+03
  10.190  0.2306E+02  0.2236E+02  0.6316E+03
  10.200  0.2125E+02  0.2225E+02  0.6320E+03
  10.210  0.2024E+02  0.2471E+02  0.6324E+03
  10.220  0.2023E+02  0.2532E+02  0.6329E+03
  10.230  0.2049E+02  0.3044E+02  0.6334E+03
  10.240  0.2068E+02  0.2520E+02  0.6338E+03
  10.250  0.2065E+02  0.2397E+02  0.6343E+03
  10.260  0.2040E+02  0.2318E+02  0.6347E+03
  10.270  0.2082E+02  0.2270E+02  0.6352E+03
  10.280  0.2142E+02  0.2256E+02  0.6356E+03
  10.290  0.2159E+02  0.2300E+02  0.6361E+03
  10.300  0.2135E+02  0.2408E+02  0.6365E+03
  10.310  0.2264E+02  0.2731E+02  0.6370E+03
  10.320  0.2654E+02  0.3576E+02  0.6375E+03
  10.330  0.3255E+02  0.2710E+02  0.6382E+03
  10.340  0.3452E+02  0.3239E+02  0.6388E+03
  10.350  0.3815E+02  0.2934E+02  0.6395E+03
  10.360  0.3136E+02  0.2793E+02  0.6401E+03
  10.370  0.2376E+02  0.3727E+02  0.6407E+03
  10.380  0.1933E+02  0.2585E+02  0.6413E+03
  10.390  0.1856E+02  0.2189E+02  0.6417E+03
  10.400  0.1937E+02  0.2125E+02  0.6421E+03
  10.410  0.2125E+02  0.1920E+02  0.6425E+03
  10.420  0.2055E+02  0.1899E+02  0.6429E+03
  10.430  0.1857E+02  0.1879E+02  0.6433E+03
  10.440  0.1883E+02  0.1865E+02  0.6436E+03
  10.450  0.1971E+02  0.1867E+02  0.6440E+03
  10.460  0.1714E+02  0.1873E+02  0.6444E+03
  10.470  0.1710E+02  0.1876E+02  0.6448E+03
  10.480  0.1714E+02  0.1992E+02  0.6451E+03
  10.490  0.1672E+02  0.2065E+02  0.6455E+03
  10.500  0.1649E+02  0.2052E+02  0.6459E+03
  10.510  0.1622E+02  0.1983E+02  0.6462E+03
  10.520  0.1577E+02  0.1915E+02  0.6466E+03
  10.530  0.1507E+02  0.1891E+02  0.6469E+03
  10.540  0.1440E+02  0.1774E+02  0.6473E+03
  10.550  0.1375E+02  0.1673E+02  0.6476E+03
  10.560  0.1300E+02  0.1642E+02  0.6479E+03
  10.570  0.1282E+02  0.1507E+02  0.6482E+03
  10.580  0.1280E+02  0.1284E+02  0.6484E+03
  10.590  0.1298E+02  0.1220E+02  0.6487E+03
  10.600  0.1318E+02  0.1202E+02  0.6489E+03
  10.610  0.1336E+02  0.1202E+02  0.6492E+03
  10.620  0.1357E+02  0.1195E+02  0.6494E+03
  10.630  0.1381E+02  0.1191E+02  0.6497E+03
  10.640  0.1402E+02  0.1188E+02  0.6500E+03
  10.650  0.1438E+02  0.1177E+02  0.6502E+03
  10.660  0.1521E+02  0.1180E+02  0.6505E+03
  10.670  0.1716E+02  0.1189E+02  0.6508E+03
  10.680  0.2003E+02  0.1247E+02  0.6511E+03
  10.690  0.2033E+02  0.1467E+02  0.6514E+03
  10.700  0.1852E+02  0.1615E+02  0.6518E+03
  10.710  0.1640E+02  0.1345E+02  0.6521E+03
  10.720  0.1625E+02  0.1290E+02  0.6524E+03
  10.730  0.1766E+02  0.1217E+02  0.6527E+03
  10.740  0.1816E+02  0.1193E+02  0.6530E+03
  10.750  0.1806E+02  0.1202E+02  0.6533E+03
  10.760  0.1746E+02  0.1225E+02  0.6536E+03
  10.770  0.1674E+02  0.1280E+02  0.6539E+03
  10.780  0.1697E+02  0.1560E+02  0.6542E+03
  10.790  0.1747E+02  0.2190E+02  0.6545E+03
  10.800  0.1749E+02  0.2199E+02  0.6550E+03
  10.810  0.1687E+02  0.2141E+02  0.6554E+03
  10.820  0.1446E+02  0.2215E+02  0.6557E+03
  10.830  0.1250E+02  0.1935E+02  0.6561E+03
  10.840  0.1123E+02  0.1680E+02  0.6564E+03
  10.850  0.8690E+01  0.1628E+02  0.6566E+03
  10.860  0.7277E+01  0.1620E+02  0.6569E+03
  10.870  0.7522E+01  0.1492E+02  0.6571E+03
  10.880  0.9793E+01  0.1396E+02  0.6573E+03
  10.890  0.1121E+02  0.1048E+02  0.6576E+03
  10.900  0.1142E+02  0.1122E+02  0.6578E+03
  10.910  0.1222E+02  0.1150E+02  0.6580E+03
  10.920  0.1359E+02  0.9358E+01  0.6583E+03
  10.930  0.1416E+02  0.9252E+01  0.6585E+03
  10.940  0.1366E+02  0.9791E+01  0.6587E+03
  10.950  0.1332E+02  0.1490E+02  0.6590E+03
  10.960  0.1351E+02  0.1305E+02  0.6593E+03
  10.970  0.1572E+02  0.1303E+02  0.6595E+03
  10.980  0.1225E+02  0.1303E+02  0.6598E+03
  10.990  0.1142E+02  0.1314E+02  0.6601E+03
  11.000  0.1293E+02  0.1337E+02  0.6603E+03
  11.010  0.1445E+02  0.1398E+02  0.6606E+03
  11.020  0.1595E+02  0.1425E+02  0.6609E+03
  11.030  0.1671E+02  0.1668E+02  0.6612E+03
  11.040  0.1726E+02  0.1636E+02  0.6615E+03
  11.050  0.2099E+02  0.1623E+02  0.6619E+03
  11.060  0.1824E+02  0.1695E+02  0.6623E+03
  11.070  0.1830E+02  0.1674E+02  0.6626E+03
  11.080  0.1749E+02  0.1681E+02  0.6629E+03
  11.090  0.1488E+02  0.1674E+02  0.6633E+03
  11.100  0.1407E+02  0.1597E+02  0.6636E+03
  11.110  0.1295E+02  0.1460E+02  0.6639E+03
  11.120  0.1195E+02  0.1372E+02  0.6641E+03
  11.130  0.1121E+02  0.1287E+02  0.6644E+03
  11.140  0.1066E+02  0.1190E+02  0.6646E+03
  11.150  0.1018E+02  0.1118E+02  0.6648E+03
  11.160  0.9568E+01  0.1114E+02  0.6651E+03
  11.170  0.8836E+01  0.1065E+02  0.6653E+03
  11.180  0.8023E+01  0.1030E+02  0.6654E+03
  11.190  0.7473E+01  0.9909E+01  0.6656E+03
  11.200  0.7244E+01  0.9502E+01  0.6658E+03
  11.210  0.7163E+01  0.9080E+01  0.6660E+03
  11.220  0.7097E+01  0.8646E+01  0.6661E+03
  11.230  0.6939E+01  0.8198E+01  0.6663E+03
  11.240  0.6836E+01  0.7805E+01  0.6664E+03
  11.250  0.6843E+01  0.7596E+01  0.6666E+03
  11.260  0.7037E+01  0.7482E+01  0.6667E+03
  11.270  0.7241E+01  0.7438E+01  0.6669E+03
  11.280  0.7486E+01  0.7490E+01  0.6670E+03
  11.290  0.7597E+01  0.7694E+01  0.6672E+03
  11.300  0.8199E+01  0.8100E+01  0.6673E+03
  11.310  0.9104E+01  0.8712E+01  0.6675E+03
  11.320  0.1041E+02  0.9475E+01  0.6677E+03
  11.330  0.1220E+02  0.1044E+02  0.6679E+03
  11.340  0.1404E+02  0.1162E+02  0.6681E+03
  11.350  0.1562E+02  0.1296E+02  0.6684E+03
  11.360  0.1717E+02  0.1445E+02  0.6687E+03
  11.370  0.1877E+02  0.1612E+02  0.6690E+03
  11.380  0.2042E+02  0.1804E+02  0.6694E+03
  11.390  0.2220E+02  0.2010E+02  0.6698E+03
  11.400  0.2360E+02  0.2229E+02  0.6702E+03
  11.410  0.2564E+02  0.2464E+02  0.6707E+03
  11.420  0.2718E+02  0.2689E+02  0.6712E+03
  11.430  0.2840E+02  0.2871E+02  0.6718E+03
  11.440  0.2959E+02  0.2979E+02  0.6724E+03
  11.450  0.3033E+02  0.3073E+02  0.6730E+03
  11.460  0.3062E+02  0.3032E+02  0.6736E+03
  11.470  0.2924E+02  0.2956E+02  0.6742E+03
  11.480  0.2663E+02  0.2805E+02  0.6748E+03
  11.490  0.2593E+02  0.2622E+02  0.6753E+03
  11.500  0.2489E+02  0.2555E+02  0.6758E+03
  11.510  0.2349E+02  0.2512E+02  0.6763E+03
  11.520  0.2242E+02  0.2449E+02  0.6768E+03
  11.530  0.2172E+02  0.2341E+02  0.6773E+03
  11.540  0.2139E+02  0.2181E+02  0.6777E+03
  11.550  0.2021E+02  0.2102E+02  0.6781E+03
  11.560  0.2000E+02  0.2039E+02  0.6786E+03
  11.570  0.2046E+02  0.2016E+02  0.6790E+03
  11.580  0.2151E+02  0.2059E+02  0.6794E+03
  11.590  0.2214E+02  0.2084E+02  0.6798E+03
  11.600  0.2279E+02  0.2095E+02  0.6802E+03
  11.610  0.2643E+02  0.2093E+02  0.6807E+03
  11.620  0.2319E+02  0.2412E+02  0.6811E+03
  11.630  0.2464E+02  0.2152E+02  0.6816E+03
  11.640  0.2581E+02  0.2135E+02  0.6821E+03
  11.650  0.2968E+02  0.2378E+02  0.6826E+03
  11.660  0.2845E+02  0.2364E+02  0.6831E+03
  11.670  0.2684E+02  0.2450E+02  0.6836E+03
  11.680  0.2584E+02  0.2479E+02  0.6841E+03
  11.690  0.2414E+02  0.2568E+02  0.6846E+03
  11.700  0.2289E+02  0.2295E+02  0.6851E+03
  11.710  0.2325E+02  0.1823E+02  0.6855E+03
  11.720  0.2874E+02  0.1787E+02  0.6860E+03
  11.730  0.3135E+02  0.1984E+02  0.6865E+03
  11.740  0.2406E+02  0.2426E+02  0.6870E+03
  11.750  0.2294E+02  0.2927E+02  0.6875E+03
  11.760  0.2346E+02  0.3017E+02  0.6880E+03
  11.770  0.2366E+02  0.3018E+02  0.6885E+03
  11.780  0.2533E+02  0.3084E+02  0.6891E+03
  11.790  0.2612E+02  0.2958E+02  0.6896E+03
  11.800  0.2486E+02  0.2727E+02  0.6902E+03
  11.810  0.2427E+02  0.2573E+02  0.6907E+03
  11.820  0.2335E+02  0.2480E+02  0.6912E+03
  11.830  0.2232E+02  0.2386E+02  0.6917E+03
  11.840  0.2120E+02  0.2289E+02  0.6921E+03
  11.850  0.2043E+02  0.2192E+02  0.6925E+03
  11.860  0.1950E+02  0.2078E+02  0.6930E+03
  11.870  0.1849E+02  0.2029E+02  0.6933E+03
  11.880  0.1741E+02  0.1947E+02  0.6937E+03
  11.890  0.1628E+02  0.1841E+02  0.6941E+03
  11.900  0.1504E+02  0.1734E+02  0.6944E+03
  11.910  0.1379E+02  0.1633E+02  0.6947E+03
  11.920  0.1265E+02  0.1541E+02  0.6950E+03
  11.930  0.1175E+02  0.1442E+02  0.6953E+03
  11.940  0.1089E+02  0.1351E+02  0.6955E+03
  11.950  0.1073E+02  0.1291E+02  0.6958E+03
  11.960  0.9862E+01  0.1205E+02  0.6960E+03
  11.970  0.9731E+01  0.1104E+02  0.6962E+03
  11.980  0.9036E+01  0.1028E+02  0.6964E+03
  11.990  0.8448E+01  0.9659E+01  0.6966E+03
  12.000  0.7842E+01  0.9021E+01  0.6968E+03
  12.010  0.7183E+01  0.8429E+01  0.6970E+03
  12.020  0.6465E+01  0.8667E+01  0.6971E+03
  12.030  0.5667E+01  0.7861E+01  0.6972E+03
  12.040  0.4778E+01  0.7228E+01  0.6974E+03
  12.050  0.3859E+01  0.6398E+01  0.6975E+03
  12.060  0.3129E+01  0.5434E+01  0.6976E+03
  12.070  0.2712E+01  0.4520E+01  0.6977E+03
  12.080  0.2304E+01  0.3589E+01  0.6977E+03
  12.090  0.1969E+01  0.2858E+01  0.6978E+03
  12.100  0.1662E+01  0.2398E+01  0.6978E+03
  12.110  0.1382E+01  0.1990E+01  0.6979E+03
  12.120  0.1130E+01  0.1646E+01  0.6979E+03
  12.130  0.9059E+00  0.1337E+01  0.6979E+03
  12.140  0.7088E+00  0.1063E+01  0.6979E+03
  12.150  0.5391E+00  0.8245E+00  0.6980E+03
  12.160  0.3969E+00  0.6212E+00  0.6980E+03
  12.170  0.2822E+00  0.4530E+00  0.6980E+03
  12.180  0.1949E+00  0.3201E+00  0.6980E+03
  12.190  0.1325E+00  0.2211E+00  0.6980E+03
  12.200  0.9324E-01  0.1530E+00  0.6980E+03
  12.210  0.7204E-01  0.1120E+00  0.6980E+03
  12.220  0.6170E-01  0.8883E-01  0.6980E+03
  12.230  0.5547E-01  0.7730E-01  0.6980E+03
  12.240  0.4996E-01  0.6944E-01  0.6980E+03
  12.250  0.4513E-01  0.6218E-01  0.6980E+03
  12.260  0.4089E-01  0.5552E-01  0.6980E+03
  12.270  0.3704E-01  0.4947E-01  0.6980E+03
  12.280  0.3340E-01  0.4401E-01  0.6980E+03
  12.290  0.2995E-01  0.3916E-01  0.6980E+03
  12.300  0.2669E-01  0.3490E-01  0.6980E+03
  12.310  0.2361E-01  0.3109E-01  0.6980E+03
  12.320  0.2073E-01  0.2760E-01  0.6980E+03
  12.330  0.1803E-01  0.2431E-01  0.6980E+03
  12.340  0.1552E-01  0.2124E-01  0.6980E+03
  12.350  0.1320E-01  0.1837E-01  0.6980E+03
  12.360  0.1107E-01  0.1571E-01  0.6980E+03
  12.370  0.9124E-02  0.1325E-01  0.6980E+03
  12.380  0.7368E-02  0.1101E-01  0.6980E+03
  12.390  0.5800E-02  0.8977E-02  0.6980E+03
  12.400  0.4420E-02  0.7150E-02  0.6980E+03
  12.410  0.3228E-02  0.5532E-02  0.6980E+03
  12.420  0.2225E-02  0.4123E-02  0.6980E+03
  12.430  0.1409E-02  0.2922E-02  0.6980E+03
  12.440  0.7825E-03  0.1929E-02  0.6980E+03
  12.450  0.3437E-03  0.1145E-02  0.6980E+03
  12.460  0.9310E-04  0.5696E-03  0.6980E+03
  12.470  0.7496E-05  0.2024E-03  0.6980E+03
  12.480  0.0000E+00  0.3901E-04  0.6980E+03
  12.490  0.0000E+00  0.0000E+00  0.6980E+03
  12.500  0.0000E+00  0.0000E+00  0.6980E+03
  12.510  0.0000E+00  0.0000E+00  0.6980E+03
  12.520  0.0000E+00  0.0000E+00  0.6980E+03
  12.530  0.0000E+00  0.0000E+00  0.6980E+03
  12.540  0.0000E+00  0.0000E+00  0.6980E+03
  12.550  0.0000E+00  0.0000E+00  0.6980E+03
  12.560  0.0000E+00  0.0000E+00  0.6980E+03
  12.570  0.0000E+00  0.0000E+00  0.6980E+03
  12.580  0.0000E+00  0.0000E+00  0.6980E+03
  12.590  0.0000E+00  0.0000E+00  0.6980E+03
  12.600  0.0000E+00  0.0000E+00  0.6980E+03
  12.610  0.0000E+00  0.0000E+00  0.6980E+03
  12.620  0.0000E+00  0.0000E+00  0.6980E+03
  12.630  0.0000E+00  0.0000E+00  0.6980E+03
  12.640  0.0000E+00  0.0000E+00  0.6980E+03
  12.650  0.0000E+00  0.0000E+00  0.6980E+03
  12.660  0.0000E+00  0.0000E+00  0.6980E+03
  12.670  0.0000E+00  0.0000E+00  0.6980E+03
  12.680  0.0000E+00  0.0000E+00  0.6980E+03
  12.690  0.0000E+00  0.0000E+00  0.6980E+03
  12.700  0.0000E+00  0.0000E+00  0.6980E+03
  12.710  0.0000E+00  0.0000E+00  0.6980E+03
  12.720  0.0000E+00  0.0000E+00  0.6980E+03
  12.730  0.0000E+00  0.0000E+00  0.6980E+03
  12.740  0.0000E+00  0.0000E+00  0.6980E+03
  12.750  0.0000E+00  0.0000E+00  0.6980E+03
  12.760  0.0000E+00  0.0000E+00  0.6980E+03
  12.770  0.0000E+00  0.0000E+00  0.6980E+03
  12.780  0.0000E+00  0.0000E+00  0.6980E+03
  12.790  0.0000E+00  0.0000E+00  0.6980E+03
  12.800  0.0000E+00  0.0000E+00  0.6980E+03
  12.810  0.0000E+00  0.0000E+00  0.6980E+03
  12.820  0.0000E+00  0.0000E+00  0.6980E+03
  12.830  0.0000E+00  0.0000E+00  0.6980E+03
  12.840  0.0000E+00  0.0000E+00  0.6980E+03
  12.850  0.0000E+00  0.0000E+00  0.6980E+03
  12.860  0.0000E+00  0.0000E+00  0.6980E+03
  12.870  0.0000E+00  0.0000E+00  0.6980E+03
  12.880  0.0000E+00  0.0000E+00  0.6980E+03
  12.890  0.0000E+00  0.0000E+00  0.6980E+03
  12.900  0.0000E+00  0.0000E+00  0.6980E+03
  12.910  0.0000E+00  0.0000E+00  0.6980E+03
  12.920  0.0000E+00  0.0000E+00  0.6980E+03
  12.930  0.0000E+00  0.0000E+00  0.6980E+03
  12.940  0.0000E+00  0.0000E+00  0.6980E+03
  12.950  0.0000E+00  0.0000E+00  0.6980E+03
  12.960  0.0000E+00  0.0000E+00  0.6980E+03
  12.970  0.0000E+00  0.0000E+00  0.6980E+03
  12.980  0.0000E+00  0.0000E+00  0.6980E+03
  12.990  0.0000E+00  0.0000E+00  0.6980E+03
  13.000  0.0000E+00  0.0000E+00  0.6980E+03
  13.010  0.0000E+00  0.0000E+00  0.6980E+03
  13.020  0.0000E+00  0.0000E+00  0.6980E+03
  13.030  0.0000E+00  0.0000E+00  0.6980E+03
  13.040  0.0000E+00  0.0000E+00  0.6980E+03
  13.050  0.0000E+00  0.0000E+00  0.6980E+03
  13.060  0.0000E+00  0.0000E+00  0.6980E+03
  13.070  0.0000E+00  0.0000E+00  0.6980E+03
  13.080  0.0000E+00  0.0000E+00  0.6980E+03
  13.090  0.0000E+00  0.0000E+00  0.6980E+03
  13.100  0.0000E+00  0.0000E+00  0.6980E+03
  13.110  0.0000E+00  0.0000E+00  0.6980E+03
  13.120  0.0000E+00  0.0000E+00  0.6980E+03
  13.130  0.0000E+00  0.0000E+00  0.6980E+03
  13.140  0.0000E+00  0.0000E+00  0.6980E+03
  13.150  0.0000E+00  0.0000E+00  0.6980E+03
  13.160  0.0000E+00  0.0000E+00  0.6980E+03
  13.170  0.0000E+00  0.0000E+00  0.6980E+03
  13.180  0.0000E+00  0.0000E+00  0.6980E+03
  13.190  0.0000E+00  0.0000E+00  0.6980E+03
  13.200  0.0000E+00  0.0000E+00  0.6980E+03
  13.210  0.0000E+00  0.0000E+00  0.6980E+03
  13.220  0.0000E+00  0.0000E+00  0.6980E+03
  13.230  0.0000E+00  0.0000E+00  0.6980E+03
  13.240  0.0000E+00  0.0000E+00  0.6980E+03
  13.250  0.0000E+00  0.0000E+00  0.6980E+03
  13.260  0.0000E+00  0.0000E+00  0.6980E+03
  13.270  0.0000E+00  0.0000E+00  0.6980E+03
  13.280  0.0000E+00  0.0000E+00  0.6980E+03
  13.290  0.0000E+00  0.0000E+00  0.6980E+03
  13.300  0.0000E+00  0.0000E+00  0.6980E+03
  13.310  0.0000E+00  0.0000E+00  0.6980E+03
  13.320  0.0000E+00  0.0000E+00  0.6980E+03
  13.330  0.0000E+00  0.0000E+00  0.6980E+03
  13.340  0.0000E+00  0.0000E+00  0.6980E+03
  13.350  0.0000E+00  0.0000E+00  0.6980E+03
  13.360  0.0000E+00  0.0000E+00  0.6980E+03
  13.370  0.0000E+00  0.0000E+00  0.6980E+03
  13.380  0.0000E+00  0.0000E+00  0.6980E+03
  13.390  0.0000E+00  0.0000E+00  0.6980E+03
  13.400  0.0000E+00  0.0000E+00  0.6980E+03
  13.410  0.0000E+00  0.0000E+00  0.6980E+03
  13.420  0.0000E+00  0.0000E+00  0.6980E+03
  13.430  0.0000E+00  0.0000E+00  0.6980E+03
  13.440  0.0000E+00  0.0000E+00  0.6980E+03
  13.450  0.0000E+00  0.0000E+00  0.6980E+03
  13.460  0.0000E+00  0.0000E+00  0.6980E+03
  13.470  0.0000E+00  0.0000E+00  0.6980E+03
  13.480  0.0000E+00  0.0000E+00  0.6980E+03
  13.490  0.0000E+00  0.0000E+00  0.6980E+03
  13.500  0.0000E+00  0.0000E+00  0.6980E+03
  13.510  0.0000E+00  0.0000E+00  0.6980E+03
  13.520  0.0000E+00  0.0000E+00  0.6980E+03
  13.530  0.0000E+00  0.0000E+00  0.6980E+03
  13.540  0.0000E+00  0.0000E+00  0.6980E+03
  13.550  0.0000E+00  0.0000E+00  0.6980E+03
  13.560  0.0000E+00  0.0000E+00  0.6980E+03
  13.570  0.0000E+00  0.0000E+00  0.6980E+03
  13.580  0.0000E+00  0.0000E+00  0.6980E+03
  13.590  0.0000E+00  0.0000E+00  0.6980E+03
  13.600  0.0000E+00  0.0000E+00  0.6980E+03
  13.610  0.0000E+00  0.0000E+00  0.6980E+03
  13.620  0.0000E+00  0.0000E+00  0.6980E+03
  13.630  0.0000E+00  0.0000E+00  0.6980E+03
  13.640  0.0000E+00  0.0000E+00  0.6980E+03
  13.650  0.0000E+00  0.0000E+00  0.6980E+03
  13.660  0.0000E+00  0.0000E+00  0.6980E+03
  13.670  0.0000E+00  0.0000E+00  0.6980E+03
  13.680  0.0000E+00  0.0000E+00  0.6980E+03
  13.690  0.0000E+00  0.0000E+00  0.6980E+03
  13.700  0.0000E+00  0.0000E+00  0.6980E+03
  13.710  0.0000E+00  0.0000E+00  0.6980E+03
  13.720  0.0000E+00  0.0000E+00  0.6980E+03
  13.730  0.0000E+00  0.0000E+00  0.6980E+03
  13.740  0.0000E+00  0.0000E+00  0.6980E+03
  13.750  0.0000E+00  0.0000E+00  0.6980E+03
  13.760  0.0000E+00  0.0000E+00  0.6980E+03
  13.770  0.0000E+00  0.0000E+00  0.6980E+03
  13.780  0.0000E+00  0.0000E+00  0.6980E+03
  13.790  0.0000E+00  0.0000E+00  0.6980E+03
  13.800  0.0000E+00  0.0000E+00  0.6980E+03
  13.810  0.0000E+00  0.0000E+00  0.6980E+03
  13.820  0.0000E+00  0.0000E+00  0.6980E+03
  13.830  0.0000E+00  0.0000E+00  0.6980E+03
  13.840  0.0000E+00  0.0000E+00  0.6980E+03
  13.850  0.0000E+00  0.0000E+00  0.6980E+03
  13.860  0.0000E+00  0.0000E+00  0.6980E+03
  13.870  0.0000E+00  0.0000E+00  0.6980E+03
  13.880  0.0000E+00  0.0000E+00  0.6980E+03
  13.890  0.0000E+00  0.0000E+00  0.6980E+03
  13.900  0.0000E+00  0.0000E+00  0.6980E+03
  13.910  0.0000E+00  0.0000E+00  0.6980E+03
  13.920  0.0000E+00  0.0000E+00  0.6980E+03
  13.930  0.0000E+00  0.0000E+00  0.6980E+03
  13.940  0.0000E+00  0.0000E+00  0.6980E+03
  13.950  0.0000E+00  0.0000E+00  0.6980E+03
  13.960  0.0000E+00  0.0000E+00  0.6980E+03
  13.970  0.0000E+00  0.0000E+00  0.6980E+03
  13.980  0.0000E+00  0.0000E+00  0.6980E+03
  13.990  0.0000E+00  0.0000E+00  0.6980E+03
  14.000  0.0000E+00  0.0000E+00  0.6980E+03
  14.010  0.0000E+00  0.0000E+00  0.6980E+03
  14.020  0.0000E+00  0.0000E+00  0.6980E+03
  14.030  0.0000E+00  0.0000E+00  0.6980E+03
  14.040  0.0000E+00  0.0000E+00  0.6980E+03
  14.050  0.0000E+00  0.0000E+00  0.6980E+03
  14.060  0.0000E+00  0.0000E+00  0.6980E+03
  14.070  0.0000E+00  0.0000E+00  0.6980E+03
  14.080  0.0000E+00  0.0000E+00  0.6980E+03
  14.090  0.0000E+00  0.0000E+00  0.6980E+03
  14.100  0.0000E+00  0.0000E+00  0.6980E+03
  14.110  0.0000E+00  0.0000E+00  0.6980E+03
  14.120  0.0000E+00  0.0000E+00  0.6980E+03
  14.130  0.0000E+00  0.0000E+00  0.6980E+03
  14.140  0.0000E+00  0.0000E+00  0.6980E+03
  14.150  0.0000E+00  0.0000E+00  0.6980E+03
  14.160  0.0000E+00  0.0000E+00  0.6980E+03
  14.170  0.0000E+00  0.0000E+00  0.6980E+03
  14.180  0.0000E+00  0.0000E+00  0.6980E+03
  14.190  0.0000E+00  0.0000E+00  0.6980E+03
  14.200  0.0000E+00  0.0000E+00  0.6980E+03
  14.210  0.0000E+00  0.0000E+00  0.6980E+03
  14.220  0.0000E+00  0.0000E+00  0.6980E+03
  14.230  0.0000E+00  0.0000E+00  0.6980E+03
  14.240  0.0000E+00  0.0000E+00  0.6980E+03
  14.250  0.0000E+00  0.0000E+00  0.6980E+03
  14.260  0.0000E+00  0.0000E+00  0.6980E+03
  14.270  0.0000E+00  0.0000E+00  0.6980E+03
  14.280  0.0000E+00  0.0000E+00  0.6980E+03
  14.290  0.0000E+00  0.0000E+00  0.6980E+03
  14.300  0.0000E+00  0.0000E+00  0.6980E+03
  14.310  0.0000E+00  0.0000E+00  0.6980E+03
  14.320  0.0000E+00  0.0000E+00  0.6980E+03
  14.330  0.0000E+00  0.0000E+00  0.6980E+03
  14.340  0.0000E+00  0.0000E+00  0.6980E+03
  14.350  0.0000E+00  0.0000E+00  0.6980E+03
  14.360  0.0000E+00  0.0000E+00  0.6980E+03
  14.370  0.0000E+00  0.0000E+00  0.6980E+03
  14.380  0.0000E+00  0.0000E+00  0.6980E+03
  14.390  0.0000E+00  0.0000E+00  0.6980E+03
  14.400  0.0000E+00  0.0000E+00  0.6980E+03
  14.410  0.0000E+00  0.0000E+00  0.6980E+03
  14.420  0.0000E+00  0.0000E+00  0.6980E+03
  14.430  0.0000E+00  0.0000E+00  0.6980E+03
  14.440  0.0000E+00  0.0000E+00  0.6980E+03
  14.450  0.0000E+00  0.0000E+00  0.6980E+03
  14.460  0.0000E+00  0.0000E+00  0.6980E+03
  14.470  0.0000E+00  0.0000E+00  0.6980E+03
  14.480  0.0000E+00  0.0000E+00  0.6980E+03
  14.490  0.0000E+00  0.0000E+00  0.6980E+03
  14.500  0.0000E+00  0.0000E+00  0.6980E+03
  14.510  0.0000E+00  0.0000E+00  0.6980E+03
  14.520  0.0000E+00  0.0000E+00  0.6980E+03
  14.530  0.0000E+00  0.0000E+00  0.6980E+03
  14.540  0.0000E+00  0.0000E+00  0.6980E+03
  14.550  0.0000E+00  0.0000E+00  0.6980E+03
  14.560  0.0000E+00  0.0000E+00  0.6980E+03
  14.570  0.0000E+00  0.0000E+00  0.6980E+03
  14.580  0.0000E+00  0.0000E+00  0.6980E+03
  14.590  0.0000E+00  0.0000E+00  0.6980E+03
  14.600  0.0000E+00  0.0000E+00  0.6980E+03
  14.610  0.0000E+00  0.0000E+00  0.6980E+03
  14.620  0.0000E+00  0.0000E+00  0.6980E+03
  14.630  0.0000E+00  0.0000E+00  0.6980E+03
  14.640  0.0000E+00  0.0000E+00  0.6980E+03
  14.650  0.0000E+00  0.0000E+00  0.6980E+03
  14.660  0.0000E+00  0.0000E+00  0.6980E+03
  14.670  0.0000E+00  0.0000E+00  0.6980E+03
  14.680  0.0000E+00  0.0000E+00  0.6980E+03
  14.690  0.0000E+00  0.0000E+00  0.6980E+03
  14.700  0.0000E+00  0.0000E+00  0.6980E+03
  14.710  0.0000E+00  0.0000E+00  0.6980E+03
  14.720  0.0000E+00  0.0000E+00  0.6980E+03
  14.730  0.0000E+00  0.0000E+00  0.6980E+03
  14.740  0.0000E+00  0.0000E+00  0.6980E+03
  14.750  0.0000E+00  0.0000E+00  0.6980E+03
  14.760  0.0000E+00  0.0000E+00  0.6980E+03
  14.770  0.0000E+00  0.0000E+00  0.6980E+03
  14.780  0.0000E+00  0.0000E+00  0.6980E+03
  14.790  0.0000E+00  0.0000E+00  0.6980E+03
  14.800  0.0000E+00  0.0000E+00  0.6980E+03
  14.810  0.0000E+00  0.0000E+00  0.6980E+03
  14.820  0.0000E+00  0.0000E+00  0.6980E+03
  14.830  0.0000E+00  0.0000E+00  0.6980E+03
  14.840  0.0000E+00  0.0000E+00  0.6980E+03
  14.850  0.0000E+00  0.0000E+00  0.6980E+03
  14.860  0.0000E+00  0.0000E+00  0.6980E+03
  14.870  0.0000E+00  0.0000E+00  0.6980E+03
  14.880  0.0000E+00  0.0000E+00  0.6980E+03
  14.890  0.0000E+00  0.0000E+00  0.6980E+03
  14.900  0.0000E+00  0.0000E+00  0.6980E+03
  14.910  0.0000E+00  0.0000E+00  0.6980E+03
  14.920  0.0000E+00  0.0000E+00  0.6980E+03
  14.930  0.0000E+00  0.0000E+00  0.6980E+03
  14.940  0.0000E+00  0.0000E+00  0.6980E+03
  14.950  0.0000E+00  0.0000E+00  0.6980E+03
  14.960  0.0000E+00  0.0000E+00  0.6980E+03
  14.970  0.0000E+00  0.0000E+00  0.6980E+03
  14.980  0.0000E+00  0.0000E+00  0.6980E+03
  14.990  0.0000E+00  0.0000E+00  0.6980E+03
  15.000  0.0000E+00  0.0000E+00  0.6980E+03
