# E (eV)   ldos(E)   pdos(E)    pdos(E)    pdos(E)   
   0.000  0.410E-01  0.137E-01  0.137E-01  0.137E-01
   0.010  0.565E-01  0.188E-01  0.188E-01  0.188E-01
   0.020  0.927E-01  0.309E-01  0.309E-01  0.309E-01
   0.030  0.915E-01  0.305E-01  0.305E-01  0.305E-01
   0.040  0.723E-01  0.241E-01  0.241E-01  0.241E-01
   0.050  0.491E-01  0.164E-01  0.164E-01  0.164E-01
   0.060  0.311E-01  0.104E-01  0.104E-01  0.104E-01
   0.070  0.187E-01  0.623E-02  0.623E-02  0.623E-02
   0.080  0.202E-01  0.673E-02  0.673E-02  0.673E-02
   0.090  0.884E-02  0.295E-02  0.295E-02  0.295E-02
   0.100  0.292E-02  0.972E-03  0.972E-03  0.972E-03
   0.110  0.462E-03  0.154E-03  0.154E-03  0.154E-03
   0.120  0.622E-03  0.207E-03  0.207E-03  0.207E-03
   0.130  0.930E-03  0.310E-03  0.310E-03  0.310E-03
   0.140  0.130E-02  0.434E-03  0.434E-03  0.434E-03
   0.150  0.174E-02  0.580E-03  0.580E-03  0.580E-03
   0.160  0.224E-02  0.748E-03  0.748E-03  0.748E-03
   0.170  0.282E-02  0.938E-03  0.938E-03  0.938E-03
   0.180  0.346E-02  0.115E-02  0.115E-02  0.115E-02
   0.190  0.416E-02  0.139E-02  0.139E-02  0.139E-02
   0.200  0.494E-02  0.165E-02  0.165E-02  0.165E-02
   0.210  0.581E-02  0.194E-02  0.194E-02  0.194E-02
   0.220  0.740E-02  0.247E-02  0.247E-02  0.247E-02
   0.230  0.116E-01  0.386E-02  0.386E-02  0.386E-02
   0.240  0.164E-01  0.546E-02  0.546E-02  0.546E-02
   0.250  0.204E-01  0.681E-02  0.681E-02  0.681E-02
   0.260  0.238E-01  0.793E-02  0.793E-02  0.793E-02
   0.270  0.266E-01  0.887E-02  0.887E-02  0.887E-02
   0.280  0.289E-01  0.963E-02  0.963E-02  0.963E-02
   0.290  0.307E-01  0.102E-01  0.102E-01  0.102E-01
   0.300  0.321E-01  0.107E-01  0.107E-01  0.107E-01
   0.310  0.331E-01  0.110E-01  0.110E-01  0.110E-01
   0.320  0.338E-01  0.113E-01  0.113E-01  0.113E-01
   0.330  0.341E-01  0.114E-01  0.114E-01  0.114E-01
   0.340  0.340E-01  0.113E-01  0.113E-01  0.113E-01
   0.350  0.346E-01  0.115E-01  0.115E-01  0.115E-01
   0.360  0.363E-01  0.121E-01  0.121E-01  0.121E-01
   0.370  0.384E-01  0.128E-01  0.128E-01  0.128E-01
   0.380  0.405E-01  0.135E-01  0.135E-01  0.135E-01
   0.390  0.426E-01  0.142E-01  0.142E-01  0.142E-01
   0.400  0.447E-01  0.149E-01  0.149E-01  0.149E-01
   0.410  0.468E-01  0.156E-01  0.156E-01  0.156E-01
   0.420  0.489E-01  0.163E-01  0.163E-01  0.163E-01
   0.430  0.509E-01  0.170E-01  0.170E-01  0.170E-01
   0.440  0.528E-01  0.176E-01  0.176E-01  0.176E-01
   0.450  0.539E-01  0.180E-01  0.180E-01  0.180E-01
   0.460  0.648E-01  0.216E-01  0.216E-01  0.216E-01
   0.470  0.902E-01  0.301E-01  0.301E-01  0.301E-01
   0.480  0.922E-01  0.307E-01  0.307E-01  0.307E-01
   0.490  0.924E-01  0.308E-01  0.308E-01  0.308E-01
   0.500  0.919E-01  0.306E-01  0.306E-01  0.306E-01
   0.510  0.907E-01  0.302E-01  0.302E-01  0.302E-01
   0.520  0.895E-01  0.298E-01  0.298E-01  0.298E-01
   0.530  0.896E-01  0.299E-01  0.299E-01  0.299E-01
   0.540  0.908E-01  0.303E-01  0.303E-01  0.303E-01
   0.550  0.828E-01  0.276E-01  0.276E-01  0.276E-01
   0.560  0.809E-01  0.270E-01  0.270E-01  0.270E-01
   0.570  0.818E-01  0.273E-01  0.273E-01  0.273E-01
   0.580  0.828E-01  0.276E-01  0.276E-01  0.276E-01
   0.590  0.838E-01  0.279E-01  0.279E-01  0.279E-01
   0.600  0.849E-01  0.283E-01  0.283E-01  0.283E-01
   0.610  0.861E-01  0.287E-01  0.287E-01  0.287E-01
   0.620  0.872E-01  0.291E-01  0.291E-01  0.291E-01
   0.630  0.884E-01  0.295E-01  0.295E-01  0.295E-01
   0.640  0.896E-01  0.299E-01  0.299E-01  0.299E-01
   0.650  0.953E-01  0.318E-01  0.318E-01  0.318E-01
   0.660  0.107E+00  0.356E-01  0.356E-01  0.356E-01
   0.670  0.115E+00  0.383E-01  0.383E-01  0.383E-01
   0.680  0.121E+00  0.403E-01  0.403E-01  0.403E-01
   0.690  0.128E+00  0.428E-01  0.428E-01  0.428E-01
   0.700  0.138E+00  0.459E-01  0.459E-01  0.459E-01
   0.710  0.141E+00  0.471E-01  0.471E-01  0.471E-01
   0.720  0.120E+00  0.402E-01  0.402E-01  0.402E-01
   0.730  0.107E+00  0.358E-01  0.358E-01  0.358E-01
   0.740  0.108E+00  0.362E-01  0.362E-01  0.362E-01
   0.750  0.114E+00  0.381E-01  0.381E-01  0.381E-01
   0.760  0.121E+00  0.405E-01  0.405E-01  0.405E-01
   0.770  0.133E+00  0.442E-01  0.442E-01  0.442E-01
   0.780  0.252E+00  0.839E-01  0.839E-01  0.839E-01
   0.790  0.178E+00  0.595E-01  0.595E-01  0.595E-01
   0.800  0.182E+00  0.607E-01  0.607E-01  0.607E-01
   0.810  0.301E+00  0.100E+00  0.100E+00  0.100E+00
   0.820  0.199E+00  0.664E-01  0.664E-01  0.664E-01
   0.830  0.103E+00  0.345E-01  0.345E-01  0.345E-01
   0.840  0.591E-01  0.197E-01  0.197E-01  0.197E-01
   0.850  0.537E-01  0.179E-01  0.179E-01  0.179E-01
   0.860  0.483E-01  0.161E-01  0.161E-01  0.161E-01
   0.870  0.443E-01  0.148E-01  0.148E-01  0.148E-01
   0.880  0.396E-01  0.132E-01  0.132E-01  0.132E-01
   0.890  0.332E-01  0.111E-01  0.111E-01  0.111E-01
   0.900  0.241E-01  0.804E-02  0.804E-02  0.804E-02
   0.910  0.187E-01  0.623E-02  0.623E-02  0.623E-02
   0.920  0.258E-01  0.859E-02  0.859E-02  0.859E-02
   0.930  0.419E-01  0.140E-01  0.140E-01  0.140E-01
   0.940  0.524E-01  0.175E-01  0.175E-01  0.175E-01
   0.950  0.593E-01  0.198E-01  0.198E-01  0.198E-01
   0.960  0.665E-01  0.222E-01  0.222E-01  0.222E-01
   0.970  0.749E-01  0.250E-01  0.250E-01  0.250E-01
   0.980  0.826E-01  0.275E-01  0.275E-01  0.275E-01
   0.990  0.884E-01  0.295E-01  0.295E-01  0.295E-01
   1.000  0.931E-01  0.310E-01  0.310E-01  0.310E-01
   1.010  0.973E-01  0.324E-01  0.324E-01  0.324E-01
   1.020  0.101E+00  0.337E-01  0.337E-01  0.337E-01
   1.030  0.104E+00  0.347E-01  0.347E-01  0.347E-01
   1.040  0.106E+00  0.355E-01  0.355E-01  0.355E-01
   1.050  0.108E+00  0.360E-01  0.360E-01  0.360E-01
   1.060  0.108E+00  0.362E-01  0.362E-01  0.362E-01
   1.070  0.108E+00  0.359E-01  0.359E-01  0.359E-01
   1.080  0.105E+00  0.352E-01  0.352E-01  0.352E-01
   1.090  0.102E+00  0.339E-01  0.339E-01  0.339E-01
   1.100  0.962E-01  0.321E-01  0.321E-01  0.321E-01
   1.110  0.883E-01  0.294E-01  0.294E-01  0.294E-01
   1.120  0.798E-01  0.266E-01  0.266E-01  0.266E-01
   1.130  0.738E-01  0.246E-01  0.246E-01  0.246E-01
   1.140  0.685E-01  0.228E-01  0.228E-01  0.228E-01
   1.150  0.643E-01  0.214E-01  0.214E-01  0.214E-01
   1.160  0.607E-01  0.202E-01  0.202E-01  0.202E-01
   1.170  0.569E-01  0.190E-01  0.190E-01  0.190E-01
   1.180  0.531E-01  0.177E-01  0.177E-01  0.177E-01
   1.190  0.493E-01  0.164E-01  0.164E-01  0.164E-01
   1.200  0.455E-01  0.152E-01  0.152E-01  0.152E-01
   1.210  0.421E-01  0.140E-01  0.140E-01  0.140E-01
   1.220  0.407E-01  0.136E-01  0.136E-01  0.136E-01
   1.230  0.412E-01  0.137E-01  0.137E-01  0.137E-01
   1.240  0.418E-01  0.139E-01  0.139E-01  0.139E-01
   1.250  0.423E-01  0.141E-01  0.141E-01  0.141E-01
   1.260  0.428E-01  0.143E-01  0.143E-01  0.143E-01
   1.270  0.431E-01  0.144E-01  0.144E-01  0.144E-01
   1.280  0.433E-01  0.144E-01  0.144E-01  0.144E-01
   1.290  0.435E-01  0.145E-01  0.145E-01  0.145E-01
   1.300  0.435E-01  0.145E-01  0.145E-01  0.145E-01
   1.310  0.435E-01  0.145E-01  0.145E-01  0.145E-01
   1.320  0.434E-01  0.145E-01  0.145E-01  0.145E-01
   1.330  0.433E-01  0.144E-01  0.144E-01  0.144E-01
   1.340  0.431E-01  0.144E-01  0.144E-01  0.144E-01
   1.350  0.429E-01  0.143E-01  0.143E-01  0.143E-01
   1.360  0.425E-01  0.142E-01  0.142E-01  0.142E-01
   1.370  0.420E-01  0.140E-01  0.140E-01  0.140E-01
   1.380  0.414E-01  0.138E-01  0.138E-01  0.138E-01
   1.390  0.406E-01  0.135E-01  0.135E-01  0.135E-01
   1.400  0.397E-01  0.132E-01  0.132E-01  0.132E-01
   1.410  0.389E-01  0.130E-01  0.130E-01  0.130E-01
   1.420  0.380E-01  0.127E-01  0.127E-01  0.127E-01
   1.430  0.370E-01  0.123E-01  0.123E-01  0.123E-01
   1.440  0.361E-01  0.120E-01  0.120E-01  0.120E-01
   1.450  0.353E-01  0.118E-01  0.118E-01  0.118E-01
   1.460  0.349E-01  0.116E-01  0.116E-01  0.116E-01
   1.470  0.352E-01  0.117E-01  0.117E-01  0.117E-01
   1.480  0.356E-01  0.119E-01  0.119E-01  0.119E-01
   1.490  0.363E-01  0.121E-01  0.121E-01  0.121E-01
   1.500  0.383E-01  0.128E-01  0.128E-01  0.128E-01
   1.510  0.411E-01  0.137E-01  0.137E-01  0.137E-01
   1.520  0.428E-01  0.143E-01  0.143E-01  0.143E-01
   1.530  0.416E-01  0.139E-01  0.139E-01  0.139E-01
   1.540  0.377E-01  0.126E-01  0.126E-01  0.126E-01
   1.550  0.324E-01  0.108E-01  0.108E-01  0.108E-01
   1.560  0.273E-01  0.912E-02  0.912E-02  0.912E-02
   1.570  0.243E-01  0.809E-02  0.809E-02  0.809E-02
   1.580  0.232E-01  0.772E-02  0.772E-02  0.772E-02
   1.590  0.234E-01  0.782E-02  0.782E-02  0.782E-02
   1.600  0.247E-01  0.822E-02  0.822E-02  0.822E-02
   1.610  0.265E-01  0.882E-02  0.882E-02  0.882E-02
   1.620  0.280E-01  0.932E-02  0.932E-02  0.932E-02
   1.630  0.292E-01  0.972E-02  0.972E-02  0.972E-02
   1.640  0.301E-01  0.100E-01  0.100E-01  0.100E-01
   1.650  0.307E-01  0.102E-01  0.102E-01  0.102E-01
   1.660  0.311E-01  0.104E-01  0.104E-01  0.104E-01
   1.670  0.313E-01  0.104E-01  0.104E-01  0.104E-01
   1.680  0.312E-01  0.104E-01  0.104E-01  0.104E-01
   1.690  0.311E-01  0.104E-01  0.104E-01  0.104E-01
   1.700  0.307E-01  0.102E-01  0.102E-01  0.102E-01
   1.710  0.302E-01  0.101E-01  0.101E-01  0.101E-01
   1.720  0.296E-01  0.988E-02  0.988E-02  0.988E-02
   1.730  0.290E-01  0.966E-02  0.966E-02  0.966E-02
   1.740  0.283E-01  0.942E-02  0.942E-02  0.942E-02
   1.750  0.276E-01  0.918E-02  0.918E-02  0.918E-02
   1.760  0.270E-01  0.899E-02  0.899E-02  0.899E-02
   1.770  0.265E-01  0.884E-02  0.884E-02  0.884E-02
   1.780  0.261E-01  0.870E-02  0.870E-02  0.870E-02
   1.790  0.257E-01  0.856E-02  0.856E-02  0.856E-02
   1.800  0.253E-01  0.842E-02  0.842E-02  0.842E-02
   1.810  0.250E-01  0.832E-02  0.832E-02  0.832E-02
   1.820  0.246E-01  0.820E-02  0.820E-02  0.820E-02
   1.830  0.242E-01  0.807E-02  0.807E-02  0.807E-02
   1.840  0.238E-01  0.794E-02  0.794E-02  0.794E-02
   1.850  0.236E-01  0.786E-02  0.786E-02  0.786E-02
   1.860  0.236E-01  0.785E-02  0.785E-02  0.785E-02
   1.870  0.237E-01  0.791E-02  0.791E-02  0.791E-02
   1.880  0.240E-01  0.799E-02  0.799E-02  0.799E-02
   1.890  0.242E-01  0.806E-02  0.806E-02  0.806E-02
   1.900  0.244E-01  0.815E-02  0.815E-02  0.815E-02
   1.910  0.247E-01  0.824E-02  0.824E-02  0.824E-02
   1.920  0.250E-01  0.834E-02  0.834E-02  0.834E-02
   1.930  0.253E-01  0.842E-02  0.842E-02  0.842E-02
   1.940  0.255E-01  0.850E-02  0.850E-02  0.850E-02
   1.950  0.257E-01  0.858E-02  0.858E-02  0.858E-02
   1.960  0.259E-01  0.865E-02  0.865E-02  0.865E-02
   1.970  0.262E-01  0.872E-02  0.872E-02  0.872E-02
   1.980  0.264E-01  0.880E-02  0.880E-02  0.880E-02
   1.990  0.266E-01  0.887E-02  0.887E-02  0.887E-02
   2.000  0.269E-01  0.896E-02  0.896E-02  0.896E-02
   2.010  0.268E-01  0.893E-02  0.893E-02  0.893E-02
   2.020  0.269E-01  0.897E-02  0.897E-02  0.897E-02
   2.030  0.282E-01  0.939E-02  0.939E-02  0.939E-02
   2.040  0.311E-01  0.104E-01  0.104E-01  0.104E-01
   2.050  0.277E-01  0.922E-02  0.922E-02  0.922E-02
   2.060  0.261E-01  0.870E-02  0.870E-02  0.870E-02
   2.070  0.258E-01  0.861E-02  0.861E-02  0.861E-02
   2.080  0.257E-01  0.858E-02  0.858E-02  0.858E-02
   2.090  0.258E-01  0.861E-02  0.861E-02  0.861E-02
   2.100  0.262E-01  0.872E-02  0.872E-02  0.872E-02
   2.110  0.267E-01  0.892E-02  0.892E-02  0.892E-02
   2.120  0.275E-01  0.917E-02  0.917E-02  0.917E-02
   2.130  0.283E-01  0.945E-02  0.945E-02  0.945E-02
   2.140  0.292E-01  0.974E-02  0.974E-02  0.974E-02
   2.150  0.302E-01  0.101E-01  0.101E-01  0.101E-01
   2.160  0.311E-01  0.104E-01  0.104E-01  0.104E-01
   2.170  0.321E-01  0.107E-01  0.107E-01  0.107E-01
   2.180  0.331E-01  0.110E-01  0.110E-01  0.110E-01
   2.190  0.341E-01  0.114E-01  0.114E-01  0.114E-01
   2.200  0.351E-01  0.117E-01  0.117E-01  0.117E-01
   2.210  0.363E-01  0.121E-01  0.121E-01  0.121E-01
   2.220  0.505E-01  0.168E-01  0.168E-01  0.168E-01
   2.230  0.601E-01  0.200E-01  0.200E-01  0.200E-01
   2.240  0.695E-01  0.232E-01  0.232E-01  0.232E-01
   2.250  0.822E-01  0.274E-01  0.274E-01  0.274E-01
   2.260  0.963E-01  0.321E-01  0.321E-01  0.321E-01
   2.270  0.109E+00  0.363E-01  0.363E-01  0.363E-01
   2.280  0.120E+00  0.399E-01  0.399E-01  0.399E-01
   2.290  0.130E+00  0.433E-01  0.433E-01  0.433E-01
   2.300  0.139E+00  0.464E-01  0.464E-01  0.464E-01
   2.310  0.148E+00  0.492E-01  0.492E-01  0.492E-01
   2.320  0.155E+00  0.515E-01  0.515E-01  0.515E-01
   2.330  0.161E+00  0.538E-01  0.538E-01  0.538E-01
   2.340  0.167E+00  0.558E-01  0.558E-01  0.558E-01
   2.350  0.172E+00  0.575E-01  0.575E-01  0.575E-01
   2.360  0.186E+00  0.620E-01  0.620E-01  0.620E-01
   2.370  0.198E+00  0.660E-01  0.660E-01  0.660E-01
   2.380  0.205E+00  0.685E-01  0.685E-01  0.685E-01
   2.390  0.212E+00  0.705E-01  0.705E-01  0.705E-01
   2.400  0.220E+00  0.732E-01  0.732E-01  0.732E-01
   2.410  0.225E+00  0.749E-01  0.749E-01  0.749E-01
   2.420  0.239E+00  0.796E-01  0.796E-01  0.796E-01
   2.430  0.261E+00  0.871E-01  0.871E-01  0.871E-01
   2.440  0.303E+00  0.101E+00  0.101E+00  0.101E+00
   2.450  0.366E+00  0.122E+00  0.122E+00  0.122E+00
   2.460  0.428E+00  0.143E+00  0.143E+00  0.143E+00
   2.470  0.497E+00  0.166E+00  0.166E+00  0.166E+00
   2.480  0.550E+00  0.183E+00  0.183E+00  0.183E+00
   2.490  0.621E+00  0.207E+00  0.207E+00  0.207E+00
   2.500  0.485E+00  0.162E+00  0.162E+00  0.162E+00
   2.510  0.349E+00  0.116E+00  0.116E+00  0.116E+00
   2.520  0.265E+00  0.883E-01  0.883E-01  0.883E-01
   2.530  0.235E+00  0.784E-01  0.784E-01  0.784E-01
   2.540  0.211E+00  0.702E-01  0.702E-01  0.702E-01
   2.550  0.188E+00  0.626E-01  0.626E-01  0.626E-01
   2.560  0.161E+00  0.535E-01  0.535E-01  0.535E-01
   2.570  0.209E+00  0.696E-01  0.696E-01  0.696E-01
   2.580  0.419E+00  0.140E+00  0.140E+00  0.140E+00
   2.590  0.367E+00  0.122E+00  0.122E+00  0.122E+00
   2.600  0.235E+00  0.782E-01  0.782E-01  0.782E-01
   2.610  0.157E+00  0.524E-01  0.524E-01  0.524E-01
   2.620  0.152E+00  0.506E-01  0.506E-01  0.506E-01
   2.630  0.155E+00  0.517E-01  0.517E-01  0.517E-01
   2.640  0.159E+00  0.529E-01  0.529E-01  0.529E-01
   2.650  0.160E+00  0.533E-01  0.533E-01  0.533E-01
   2.660  0.154E+00  0.514E-01  0.514E-01  0.514E-01
   2.670  0.150E+00  0.500E-01  0.500E-01  0.500E-01
   2.680  0.153E+00  0.511E-01  0.511E-01  0.511E-01
   2.690  0.158E+00  0.526E-01  0.526E-01  0.526E-01
   2.700  0.163E+00  0.542E-01  0.542E-01  0.542E-01
   2.710  0.168E+00  0.561E-01  0.561E-01  0.561E-01
   2.720  0.174E+00  0.582E-01  0.582E-01  0.582E-01
   2.730  0.181E+00  0.603E-01  0.603E-01  0.603E-01
   2.740  0.188E+00  0.626E-01  0.626E-01  0.626E-01
   2.750  0.195E+00  0.651E-01  0.651E-01  0.651E-01
   2.760  0.229E+00  0.764E-01  0.764E-01  0.764E-01
   2.770  0.264E+00  0.881E-01  0.881E-01  0.881E-01
   2.780  0.298E+00  0.995E-01  0.995E-01  0.995E-01
   2.790  0.327E+00  0.109E+00  0.109E+00  0.109E+00
   2.800  0.351E+00  0.117E+00  0.117E+00  0.117E+00
   2.810  0.370E+00  0.123E+00  0.123E+00  0.123E+00
   2.820  0.397E+00  0.132E+00  0.132E+00  0.132E+00
   2.830  0.414E+00  0.138E+00  0.138E+00  0.138E+00
   2.840  0.302E+00  0.101E+00  0.101E+00  0.101E+00
   2.850  0.278E+00  0.926E-01  0.926E-01  0.926E-01
   2.860  0.264E+00  0.879E-01  0.879E-01  0.879E-01
   2.870  0.257E+00  0.856E-01  0.856E-01  0.856E-01
   2.880  0.251E+00  0.838E-01  0.838E-01  0.838E-01
   2.890  0.247E+00  0.822E-01  0.822E-01  0.822E-01
   2.900  0.240E+00  0.800E-01  0.800E-01  0.800E-01
   2.910  0.232E+00  0.775E-01  0.775E-01  0.775E-01
   2.920  0.224E+00  0.747E-01  0.747E-01  0.747E-01
   2.930  0.215E+00  0.716E-01  0.716E-01  0.716E-01
   2.940  0.207E+00  0.691E-01  0.691E-01  0.691E-01
   2.950  0.207E+00  0.691E-01  0.691E-01  0.691E-01
   2.960  0.190E+00  0.634E-01  0.634E-01  0.634E-01
   2.970  0.173E+00  0.575E-01  0.575E-01  0.575E-01
   2.980  0.226E+00  0.753E-01  0.753E-01  0.753E-01
   2.990  0.231E+00  0.769E-01  0.769E-01  0.769E-01
   3.000  0.259E+00  0.862E-01  0.862E-01  0.862E-01
   3.010  0.277E+00  0.925E-01  0.925E-01  0.925E-01
   3.020  0.299E+00  0.995E-01  0.995E-01  0.995E-01
   3.030  0.358E+00  0.119E+00  0.119E+00  0.119E+00
   3.040  0.365E+00  0.122E+00  0.122E+00  0.122E+00
   3.050  0.369E+00  0.123E+00  0.123E+00  0.123E+00
   3.060  0.366E+00  0.122E+00  0.122E+00  0.122E+00
   3.070  0.365E+00  0.122E+00  0.122E+00  0.122E+00
   3.080  0.367E+00  0.122E+00  0.122E+00  0.122E+00
   3.090  0.371E+00  0.124E+00  0.124E+00  0.124E+00
   3.100  0.341E+00  0.114E+00  0.114E+00  0.114E+00
   3.110  0.496E+00  0.165E+00  0.165E+00  0.165E+00
   3.120  0.343E+00  0.114E+00  0.114E+00  0.114E+00
   3.130  0.331E+00  0.110E+00  0.110E+00  0.110E+00
   3.140  0.326E+00  0.109E+00  0.109E+00  0.109E+00
   3.150  0.331E+00  0.110E+00  0.110E+00  0.110E+00
   3.160  0.334E+00  0.111E+00  0.111E+00  0.111E+00
   3.170  0.333E+00  0.111E+00  0.111E+00  0.111E+00
   3.180  0.335E+00  0.112E+00  0.112E+00  0.112E+00
   3.190  0.336E+00  0.112E+00  0.112E+00  0.112E+00
   3.200  0.334E+00  0.111E+00  0.111E+00  0.111E+00
   3.210  0.327E+00  0.109E+00  0.109E+00  0.109E+00
   3.220  0.318E+00  0.106E+00  0.106E+00  0.106E+00
   3.230  0.315E+00  0.105E+00  0.105E+00  0.105E+00
   3.240  0.322E+00  0.107E+00  0.107E+00  0.107E+00
   3.250  0.331E+00  0.110E+00  0.110E+00  0.110E+00
   3.260  0.345E+00  0.115E+00  0.115E+00  0.115E+00
   3.270  0.339E+00  0.113E+00  0.113E+00  0.113E+00
   3.280  0.326E+00  0.109E+00  0.109E+00  0.109E+00
   3.290  0.311E+00  0.104E+00  0.104E+00  0.104E+00
   3.300  0.292E+00  0.972E-01  0.972E-01  0.972E-01
   3.310  0.269E+00  0.895E-01  0.895E-01  0.895E-01
   3.320  0.259E+00  0.865E-01  0.865E-01  0.865E-01
   3.330  0.259E+00  0.863E-01  0.863E-01  0.863E-01
   3.340  0.263E+00  0.878E-01  0.878E-01  0.878E-01
   3.350  0.272E+00  0.906E-01  0.906E-01  0.906E-01
   3.360  0.278E+00  0.927E-01  0.927E-01  0.927E-01
   3.370  0.282E+00  0.942E-01  0.942E-01  0.942E-01
   3.380  0.296E+00  0.986E-01  0.986E-01  0.986E-01
   3.390  0.265E+00  0.883E-01  0.883E-01  0.883E-01
   3.400  0.247E+00  0.823E-01  0.823E-01  0.823E-01
   3.410  0.228E+00  0.758E-01  0.758E-01  0.758E-01
   3.420  0.217E+00  0.722E-01  0.722E-01  0.722E-01
   3.430  0.213E+00  0.709E-01  0.709E-01  0.709E-01
   3.440  0.215E+00  0.716E-01  0.716E-01  0.716E-01
   3.450  0.219E+00  0.731E-01  0.731E-01  0.731E-01
   3.460  0.228E+00  0.760E-01  0.760E-01  0.760E-01
   3.470  0.253E+00  0.845E-01  0.845E-01  0.845E-01
   3.480  0.262E+00  0.874E-01  0.874E-01  0.874E-01
   3.490  0.305E+00  0.102E+00  0.102E+00  0.102E+00
   3.500  0.337E+00  0.112E+00  0.112E+00  0.112E+00
   3.510  0.407E+00  0.136E+00  0.136E+00  0.136E+00
   3.520  0.481E+00  0.160E+00  0.160E+00  0.160E+00
   3.530  0.482E+00  0.161E+00  0.161E+00  0.161E+00
   3.540  0.443E+00  0.148E+00  0.148E+00  0.148E+00
   3.550  0.414E+00  0.138E+00  0.138E+00  0.138E+00
   3.560  0.374E+00  0.125E+00  0.125E+00  0.125E+00
   3.570  0.345E+00  0.115E+00  0.115E+00  0.115E+00
   3.580  0.322E+00  0.107E+00  0.107E+00  0.107E+00
   3.590  0.303E+00  0.101E+00  0.101E+00  0.101E+00
   3.600  0.291E+00  0.970E-01  0.970E-01  0.970E-01
   3.610  0.311E+00  0.104E+00  0.104E+00  0.104E+00
   3.620  0.289E+00  0.965E-01  0.965E-01  0.965E-01
   3.630  0.248E+00  0.827E-01  0.827E-01  0.827E-01
   3.640  0.218E+00  0.726E-01  0.726E-01  0.726E-01
   3.650  0.195E+00  0.650E-01  0.650E-01  0.650E-01
   3.660  0.178E+00  0.594E-01  0.594E-01  0.594E-01
   3.670  0.167E+00  0.558E-01  0.558E-01  0.558E-01
   3.680  0.159E+00  0.531E-01  0.531E-01  0.531E-01
   3.690  0.154E+00  0.512E-01  0.512E-01  0.512E-01
   3.700  0.151E+00  0.504E-01  0.504E-01  0.504E-01
   3.710  0.152E+00  0.506E-01  0.506E-01  0.506E-01
   3.720  0.156E+00  0.519E-01  0.519E-01  0.519E-01
   3.730  0.161E+00  0.538E-01  0.538E-01  0.538E-01
   3.740  0.173E+00  0.577E-01  0.577E-01  0.577E-01
   3.750  0.186E+00  0.622E-01  0.622E-01  0.622E-01
   3.760  0.200E+00  0.666E-01  0.666E-01  0.666E-01
   3.770  0.211E+00  0.705E-01  0.705E-01  0.705E-01
   3.780  0.227E+00  0.758E-01  0.758E-01  0.758E-01
   3.790  0.243E+00  0.811E-01  0.811E-01  0.811E-01
   3.800  0.257E+00  0.856E-01  0.856E-01  0.856E-01
   3.810  0.270E+00  0.899E-01  0.899E-01  0.899E-01
   3.820  0.287E+00  0.955E-01  0.955E-01  0.955E-01
   3.830  0.303E+00  0.101E+00  0.101E+00  0.101E+00
   3.840  0.308E+00  0.103E+00  0.103E+00  0.103E+00
   3.850  0.304E+00  0.101E+00  0.101E+00  0.101E+00
   3.860  0.294E+00  0.982E-01  0.982E-01  0.982E-01
   3.870  0.276E+00  0.921E-01  0.921E-01  0.921E-01
   3.880  0.263E+00  0.877E-01  0.877E-01  0.877E-01
   3.890  0.256E+00  0.853E-01  0.853E-01  0.853E-01
   3.900  0.252E+00  0.839E-01  0.839E-01  0.839E-01
   3.910  0.277E+00  0.923E-01  0.923E-01  0.923E-01
   3.920  0.273E+00  0.912E-01  0.912E-01  0.912E-01
   3.930  0.225E+00  0.750E-01  0.750E-01  0.750E-01
   3.940  0.222E+00  0.741E-01  0.741E-01  0.741E-01
   3.950  0.221E+00  0.737E-01  0.737E-01  0.737E-01
   3.960  0.224E+00  0.746E-01  0.746E-01  0.746E-01
   3.970  0.239E+00  0.796E-01  0.796E-01  0.796E-01
   3.980  0.259E+00  0.864E-01  0.864E-01  0.864E-01
   3.990  0.283E+00  0.944E-01  0.944E-01  0.944E-01
   4.000  0.312E+00  0.104E+00  0.104E+00  0.104E+00
   4.010  0.338E+00  0.113E+00  0.113E+00  0.113E+00
   4.020  0.349E+00  0.116E+00  0.116E+00  0.116E+00
   4.030  0.373E+00  0.124E+00  0.124E+00  0.124E+00
   4.040  0.367E+00  0.122E+00  0.122E+00  0.122E+00
   4.050  0.295E+00  0.984E-01  0.984E-01  0.984E-01
   4.060  0.211E+00  0.702E-01  0.702E-01  0.702E-01
   4.070  0.193E+00  0.642E-01  0.642E-01  0.642E-01
   4.080  0.188E+00  0.626E-01  0.626E-01  0.626E-01
   4.090  0.187E+00  0.622E-01  0.622E-01  0.622E-01
   4.100  0.181E+00  0.604E-01  0.604E-01  0.604E-01
   4.110  0.174E+00  0.581E-01  0.581E-01  0.581E-01
   4.120  0.170E+00  0.567E-01  0.567E-01  0.567E-01
   4.130  0.167E+00  0.556E-01  0.556E-01  0.556E-01
   4.140  0.162E+00  0.539E-01  0.539E-01  0.539E-01
   4.150  0.159E+00  0.531E-01  0.531E-01  0.531E-01
   4.160  0.156E+00  0.519E-01  0.519E-01  0.519E-01
   4.170  0.147E+00  0.488E-01  0.488E-01  0.488E-01
   4.180  0.135E+00  0.451E-01  0.451E-01  0.451E-01
   4.190  0.126E+00  0.419E-01  0.419E-01  0.419E-01
   4.200  0.119E+00  0.395E-01  0.395E-01  0.395E-01
   4.210  0.117E+00  0.391E-01  0.391E-01  0.391E-01
   4.220  0.122E+00  0.405E-01  0.405E-01  0.405E-01
   4.230  0.127E+00  0.422E-01  0.422E-01  0.422E-01
   4.240  0.132E+00  0.439E-01  0.439E-01  0.439E-01
   4.250  0.136E+00  0.453E-01  0.453E-01  0.453E-01
   4.260  0.141E+00  0.469E-01  0.469E-01  0.469E-01
   4.270  0.154E+00  0.513E-01  0.513E-01  0.513E-01
   4.280  0.191E+00  0.638E-01  0.638E-01  0.638E-01
   4.290  0.214E+00  0.713E-01  0.713E-01  0.713E-01
   4.300  0.235E+00  0.783E-01  0.783E-01  0.783E-01
   4.310  0.233E+00  0.778E-01  0.778E-01  0.778E-01
   4.320  0.256E+00  0.852E-01  0.852E-01  0.852E-01
   4.330  0.277E+00  0.924E-01  0.924E-01  0.924E-01
   4.340  0.282E+00  0.940E-01  0.940E-01  0.940E-01
   4.350  0.258E+00  0.860E-01  0.860E-01  0.860E-01
   4.360  0.231E+00  0.769E-01  0.769E-01  0.769E-01
   4.370  0.191E+00  0.635E-01  0.635E-01  0.635E-01
   4.380  0.162E+00  0.540E-01  0.540E-01  0.540E-01
   4.390  0.169E+00  0.563E-01  0.563E-01  0.563E-01
   4.400  0.204E+00  0.679E-01  0.679E-01  0.679E-01
   4.410  0.222E+00  0.739E-01  0.739E-01  0.739E-01
   4.420  0.225E+00  0.750E-01  0.750E-01  0.750E-01
   4.430  0.209E+00  0.697E-01  0.697E-01  0.697E-01
   4.440  0.167E+00  0.558E-01  0.558E-01  0.558E-01
   4.450  0.141E+00  0.471E-01  0.471E-01  0.471E-01
   4.460  0.129E+00  0.430E-01  0.430E-01  0.430E-01
   4.470  0.120E+00  0.400E-01  0.400E-01  0.400E-01
   4.480  0.113E+00  0.377E-01  0.377E-01  0.377E-01
   4.490  0.107E+00  0.358E-01  0.358E-01  0.358E-01
   4.500  0.102E+00  0.340E-01  0.340E-01  0.340E-01
   4.510  0.979E-01  0.326E-01  0.326E-01  0.326E-01
   4.520  0.945E-01  0.315E-01  0.315E-01  0.315E-01
   4.530  0.917E-01  0.306E-01  0.306E-01  0.306E-01
   4.540  0.890E-01  0.297E-01  0.297E-01  0.297E-01
   4.550  0.862E-01  0.287E-01  0.287E-01  0.287E-01
   4.560  0.833E-01  0.278E-01  0.278E-01  0.278E-01
   4.570  0.804E-01  0.268E-01  0.268E-01  0.268E-01
   4.580  0.776E-01  0.259E-01  0.259E-01  0.259E-01
   4.590  0.753E-01  0.251E-01  0.251E-01  0.251E-01
   4.600  0.739E-01  0.246E-01  0.246E-01  0.246E-01
   4.610  0.785E-01  0.262E-01  0.262E-01  0.262E-01
   4.620  0.896E-01  0.299E-01  0.299E-01  0.299E-01
   4.630  0.863E-01  0.288E-01  0.288E-01  0.288E-01
   4.640  0.704E-01  0.235E-01  0.235E-01  0.235E-01
   4.650  0.668E-01  0.223E-01  0.223E-01  0.223E-01
   4.660  0.657E-01  0.219E-01  0.219E-01  0.219E-01
   4.670  0.646E-01  0.215E-01  0.215E-01  0.215E-01
   4.680  0.635E-01  0.212E-01  0.212E-01  0.212E-01
   4.690  0.625E-01  0.208E-01  0.208E-01  0.208E-01
   4.700  0.633E-01  0.211E-01  0.211E-01  0.211E-01
   4.710  0.682E-01  0.227E-01  0.227E-01  0.227E-01
   4.720  0.712E-01  0.237E-01  0.237E-01  0.237E-01
   4.730  0.531E-01  0.177E-01  0.177E-01  0.177E-01
   4.740  0.494E-01  0.165E-01  0.165E-01  0.165E-01
   4.750  0.629E-01  0.210E-01  0.210E-01  0.210E-01
   4.760  0.618E-01  0.206E-01  0.206E-01  0.206E-01
   4.770  0.563E-01  0.188E-01  0.188E-01  0.188E-01
   4.780  0.506E-01  0.169E-01  0.169E-01  0.169E-01
   4.790  0.446E-01  0.149E-01  0.149E-01  0.149E-01
   4.800  0.383E-01  0.128E-01  0.128E-01  0.128E-01
   4.810  0.322E-01  0.107E-01  0.107E-01  0.107E-01
   4.820  0.272E-01  0.906E-02  0.906E-02  0.906E-02
   4.830  0.241E-01  0.804E-02  0.804E-02  0.804E-02
   4.840  0.218E-01  0.728E-02  0.728E-02  0.728E-02
   4.850  0.202E-01  0.673E-02  0.673E-02  0.673E-02
   4.860  0.190E-01  0.633E-02  0.633E-02  0.633E-02
   4.870  0.181E-01  0.605E-02  0.605E-02  0.605E-02
   4.880  0.175E-01  0.583E-02  0.583E-02  0.583E-02
   4.890  0.177E-01  0.589E-02  0.589E-02  0.589E-02
   4.900  0.217E-01  0.724E-02  0.724E-02  0.724E-02
   4.910  0.294E-01  0.981E-02  0.981E-02  0.981E-02
   4.920  0.399E-01  0.133E-01  0.133E-01  0.133E-01
   4.930  0.401E-01  0.134E-01  0.134E-01  0.134E-01
   4.940  0.377E-01  0.126E-01  0.126E-01  0.126E-01
   4.950  0.455E-01  0.152E-01  0.152E-01  0.152E-01
   4.960  0.483E-01  0.161E-01  0.161E-01  0.161E-01
   4.970  0.452E-01  0.151E-01  0.151E-01  0.151E-01
   4.980  0.391E-01  0.130E-01  0.130E-01  0.130E-01
   4.990  0.356E-01  0.119E-01  0.119E-01  0.119E-01
   5.000  0.303E-01  0.101E-01  0.101E-01  0.101E-01
   5.010  0.250E-01  0.835E-02  0.835E-02  0.835E-02
   5.020  0.204E-01  0.679E-02  0.679E-02  0.679E-02
   5.030  0.166E-01  0.554E-02  0.554E-02  0.554E-02
   5.040  0.137E-01  0.457E-02  0.457E-02  0.457E-02
   5.050  0.116E-01  0.385E-02  0.385E-02  0.385E-02
   5.060  0.992E-02  0.331E-02  0.331E-02  0.331E-02
   5.070  0.848E-02  0.283E-02  0.283E-02  0.283E-02
   5.080  0.723E-02  0.241E-02  0.241E-02  0.241E-02
   5.090  0.625E-02  0.208E-02  0.208E-02  0.208E-02
   5.100  0.567E-02  0.189E-02  0.189E-02  0.189E-02
   5.110  0.591E-02  0.197E-02  0.197E-02  0.197E-02
   5.120  0.608E-02  0.203E-02  0.203E-02  0.203E-02
   5.130  0.582E-02  0.194E-02  0.194E-02  0.194E-02
   5.140  0.521E-02  0.174E-02  0.174E-02  0.174E-02
   5.150  0.428E-02  0.143E-02  0.143E-02  0.143E-02
   5.160  0.310E-02  0.103E-02  0.103E-02  0.103E-02
   5.170  0.174E-02  0.579E-03  0.579E-03  0.579E-03
   5.180  0.669E-03  0.223E-03  0.223E-03  0.223E-03
   5.190  0.320E-03  0.107E-03  0.107E-03  0.107E-03
   5.200  0.130E-03  0.433E-04  0.433E-04  0.433E-04
   5.210  0.293E-04  0.975E-05  0.975E-05  0.975E-05
   5.220  0.190E-05  0.634E-06  0.634E-06  0.634E-06
   5.230  0.239E-06  0.796E-07  0.796E-07  0.796E-07
   5.240  0.000E+00  0.000E+00  0.000E+00  0.000E+00
   5.250  0.000E+00  0.000E+00  0.000E+00  0.000E+00
   5.260  0.000E+00  0.000E+00  0.000E+00  0.000E+00
   5.270  0.000E+00  0.000E+00  0.000E+00  0.000E+00
   5.280  0.000E+00  0.000E+00  0.000E+00  0.000E+00
   5.290  0.000E+00  0.000E+00  0.000E+00  0.000E+00
   5.300  0.000E+00  0.000E+00  0.000E+00  0.000E+00
   5.310  0.000E+00  0.000E+00  0.000E+00  0.000E+00
   5.320  0.000E+00  0.000E+00  0.000E+00  0.000E+00
   5.330  0.000E+00  0.000E+00  0.000E+00  0.000E+00
   5.340  0.000E+00  0.000E+00  0.000E+00  0.000E+00
   5.350  0.000E+00  0.000E+00  0.000E+00  0.000E+00
   5.360  0.000E+00  0.000E+00  0.000E+00  0.000E+00
   5.370  0.000E+00  0.000E+00  0.000E+00  0.000E+00
   5.380  0.000E+00  0.000E+00  0.000E+00  0.000E+00
   5.390  0.000E+00  0.000E+00  0.000E+00  0.000E+00
   5.400  0.000E+00  0.000E+00  0.000E+00  0.000E+00
   5.410  0.000E+00  0.000E+00  0.000E+00  0.000E+00
   5.420  0.000E+00  0.000E+00  0.000E+00  0.000E+00
   5.430  0.000E+00  0.000E+00  0.000E+00  0.000E+00
   5.440  0.000E+00  0.000E+00  0.000E+00  0.000E+00
   5.450  0.000E+00  0.000E+00  0.000E+00  0.000E+00
   5.460  0.000E+00  0.000E+00  0.000E+00  0.000E+00
   5.470  0.000E+00  0.000E+00  0.000E+00  0.000E+00
   5.480  0.000E+00  0.000E+00  0.000E+00  0.000E+00
   5.490  0.000E+00  0.000E+00  0.000E+00  0.000E+00
   5.500  0.000E+00  0.000E+00  0.000E+00  0.000E+00
   5.510  0.000E+00  0.000E+00  0.000E+00  0.000E+00
   5.520  0.000E+00  0.000E+00  0.000E+00  0.000E+00
   5.530  0.000E+00  0.000E+00  0.000E+00  0.000E+00
   5.540  0.000E+00  0.000E+00  0.000E+00  0.000E+00
   5.550  0.000E+00  0.000E+00  0.000E+00  0.000E+00
   5.560  0.000E+00  0.000E+00  0.000E+00  0.000E+00
   5.570  0.000E+00  0.000E+00  0.000E+00  0.000E+00
   5.580  0.000E+00  0.000E+00  0.000E+00  0.000E+00
   5.590  0.000E+00  0.000E+00  0.000E+00  0.000E+00
   5.600  0.000E+00  0.000E+00  0.000E+00  0.000E+00
   5.610  0.000E+00  0.000E+00  0.000E+00  0.000E+00
   5.620  0.000E+00  0.000E+00  0.000E+00  0.000E+00
   5.630  0.000E+00  0.000E+00  0.000E+00  0.000E+00
   5.640  0.000E+00  0.000E+00  0.000E+00  0.000E+00
   5.650  0.000E+00  0.000E+00  0.000E+00  0.000E+00
   5.660  0.000E+00  0.000E+00  0.000E+00  0.000E+00
   5.670  0.000E+00  0.000E+00  0.000E+00  0.000E+00
   5.680  0.000E+00  0.000E+00  0.000E+00  0.000E+00
   5.690  0.000E+00  0.000E+00  0.000E+00  0.000E+00
   5.700  0.000E+00  0.000E+00  0.000E+00  0.000E+00
   5.710  0.000E+00  0.000E+00  0.000E+00  0.000E+00
   5.720  0.000E+00  0.000E+00  0.000E+00  0.000E+00
   5.730  0.000E+00  0.000E+00  0.000E+00  0.000E+00
   5.740  0.000E+00  0.000E+00  0.000E+00  0.000E+00
   5.750  0.000E+00  0.000E+00  0.000E+00  0.000E+00
   5.760  0.000E+00  0.000E+00  0.000E+00  0.000E+00
   5.770  0.000E+00  0.000E+00  0.000E+00  0.000E+00
   5.780  0.000E+00  0.000E+00  0.000E+00  0.000E+00
   5.790  0.000E+00  0.000E+00  0.000E+00  0.000E+00
   5.800  0.000E+00  0.000E+00  0.000E+00  0.000E+00
   5.810  0.000E+00  0.000E+00  0.000E+00  0.000E+00
   5.820  0.000E+00  0.000E+00  0.000E+00  0.000E+00
   5.830  0.000E+00  0.000E+00  0.000E+00  0.000E+00
   5.840  0.000E+00  0.000E+00  0.000E+00  0.000E+00
   5.850  0.000E+00  0.000E+00  0.000E+00  0.000E+00
   5.860  0.000E+00  0.000E+00  0.000E+00  0.000E+00
   5.870  0.000E+00  0.000E+00  0.000E+00  0.000E+00
   5.880  0.000E+00  0.000E+00  0.000E+00  0.000E+00
   5.890  0.000E+00  0.000E+00  0.000E+00  0.000E+00
   5.900  0.000E+00  0.000E+00  0.000E+00  0.000E+00
   5.910  0.000E+00  0.000E+00  0.000E+00  0.000E+00
   5.920  0.000E+00  0.000E+00  0.000E+00  0.000E+00
   5.930  0.000E+00  0.000E+00  0.000E+00  0.000E+00
   5.940  0.000E+00  0.000E+00  0.000E+00  0.000E+00
   5.950  0.000E+00  0.000E+00  0.000E+00  0.000E+00
   5.960  0.000E+00  0.000E+00  0.000E+00  0.000E+00
   5.970  0.000E+00  0.000E+00  0.000E+00  0.000E+00
   5.980  0.000E+00  0.000E+00  0.000E+00  0.000E+00
   5.990  0.000E+00  0.000E+00  0.000E+00  0.000E+00
   6.000  0.000E+00  0.000E+00  0.000E+00  0.000E+00
   6.010  0.000E+00  0.000E+00  0.000E+00  0.000E+00
   6.020  0.000E+00  0.000E+00  0.000E+00  0.000E+00
   6.030  0.000E+00  0.000E+00  0.000E+00  0.000E+00
   6.040  0.000E+00  0.000E+00  0.000E+00  0.000E+00
   6.050  0.000E+00  0.000E+00  0.000E+00  0.000E+00
   6.060  0.000E+00  0.000E+00  0.000E+00  0.000E+00
   6.070  0.000E+00  0.000E+00  0.000E+00  0.000E+00
   6.080  0.000E+00  0.000E+00  0.000E+00  0.000E+00
   6.090  0.000E+00  0.000E+00  0.000E+00  0.000E+00
   6.100  0.000E+00  0.000E+00  0.000E+00  0.000E+00
   6.110  0.000E+00  0.000E+00  0.000E+00  0.000E+00
   6.120  0.000E+00  0.000E+00  0.000E+00  0.000E+00
   6.130  0.000E+00  0.000E+00  0.000E+00  0.000E+00
   6.140  0.000E+00  0.000E+00  0.000E+00  0.000E+00
   6.150  0.000E+00  0.000E+00  0.000E+00  0.000E+00
   6.160  0.000E+00  0.000E+00  0.000E+00  0.000E+00
   6.170  0.000E+00  0.000E+00  0.000E+00  0.000E+00
   6.180  0.000E+00  0.000E+00  0.000E+00  0.000E+00
   6.190  0.000E+00  0.000E+00  0.000E+00  0.000E+00
   6.200  0.000E+00  0.000E+00  0.000E+00  0.000E+00
   6.210  0.000E+00  0.000E+00  0.000E+00  0.000E+00
   6.220  0.000E+00  0.000E+00  0.000E+00  0.000E+00
   6.230  0.000E+00  0.000E+00  0.000E+00  0.000E+00
   6.240  0.000E+00  0.000E+00  0.000E+00  0.000E+00
   6.250  0.000E+00  0.000E+00  0.000E+00  0.000E+00
   6.260  0.000E+00  0.000E+00  0.000E+00  0.000E+00
   6.270  0.000E+00  0.000E+00  0.000E+00  0.000E+00
   6.280  0.000E+00  0.000E+00  0.000E+00  0.000E+00
   6.290  0.000E+00  0.000E+00  0.000E+00  0.000E+00
   6.300  0.000E+00  0.000E+00  0.000E+00  0.000E+00
   6.310  0.000E+00  0.000E+00  0.000E+00  0.000E+00
   6.320  0.000E+00  0.000E+00  0.000E+00  0.000E+00
   6.330  0.000E+00  0.000E+00  0.000E+00  0.000E+00
   6.340  0.000E+00  0.000E+00  0.000E+00  0.000E+00
   6.350  0.000E+00  0.000E+00  0.000E+00  0.000E+00
   6.360  0.000E+00  0.000E+00  0.000E+00  0.000E+00
   6.370  0.000E+00  0.000E+00  0.000E+00  0.000E+00
   6.380  0.000E+00  0.000E+00  0.000E+00  0.000E+00
   6.390  0.000E+00  0.000E+00  0.000E+00  0.000E+00
   6.400  0.000E+00  0.000E+00  0.000E+00  0.000E+00
   6.410  0.000E+00  0.000E+00  0.000E+00  0.000E+00
   6.420  0.000E+00  0.000E+00  0.000E+00  0.000E+00
   6.430  0.000E+00  0.000E+00  0.000E+00  0.000E+00
   6.440  0.000E+00  0.000E+00  0.000E+00  0.000E+00
   6.450  0.000E+00  0.000E+00  0.000E+00  0.000E+00
   6.460  0.000E+00  0.000E+00  0.000E+00  0.000E+00
   6.470  0.000E+00  0.000E+00  0.000E+00  0.000E+00
   6.480  0.000E+00  0.000E+00  0.000E+00  0.000E+00
   6.490  0.000E+00  0.000E+00  0.000E+00  0.000E+00
   6.500  0.000E+00  0.000E+00  0.000E+00  0.000E+00
   6.510  0.000E+00  0.000E+00  0.000E+00  0.000E+00
   6.520  0.000E+00  0.000E+00  0.000E+00  0.000E+00
   6.530  0.000E+00  0.000E+00  0.000E+00  0.000E+00
   6.540  0.000E+00  0.000E+00  0.000E+00  0.000E+00
   6.550  0.000E+00  0.000E+00  0.000E+00  0.000E+00
   6.560  0.000E+00  0.000E+00  0.000E+00  0.000E+00
   6.570  0.000E+00  0.000E+00  0.000E+00  0.000E+00
   6.580  0.000E+00  0.000E+00  0.000E+00  0.000E+00
   6.590  0.000E+00  0.000E+00  0.000E+00  0.000E+00
   6.600  0.000E+00  0.000E+00  0.000E+00  0.000E+00
   6.610  0.000E+00  0.000E+00  0.000E+00  0.000E+00
   6.620  0.000E+00  0.000E+00  0.000E+00  0.000E+00
   6.630  0.000E+00  0.000E+00  0.000E+00  0.000E+00
   6.640  0.000E+00  0.000E+00  0.000E+00  0.000E+00
   6.650  0.000E+00  0.000E+00  0.000E+00  0.000E+00
   6.660  0.000E+00  0.000E+00  0.000E+00  0.000E+00
   6.670  0.000E+00  0.000E+00  0.000E+00  0.000E+00
   6.680  0.000E+00  0.000E+00  0.000E+00  0.000E+00
   6.690  0.000E+00  0.000E+00  0.000E+00  0.000E+00
   6.700  0.000E+00  0.000E+00  0.000E+00  0.000E+00
   6.710  0.000E+00  0.000E+00  0.000E+00  0.000E+00
   6.720  0.000E+00  0.000E+00  0.000E+00  0.000E+00
   6.730  0.000E+00  0.000E+00  0.000E+00  0.000E+00
   6.740  0.000E+00  0.000E+00  0.000E+00  0.000E+00
   6.750  0.000E+00  0.000E+00  0.000E+00  0.000E+00
   6.760  0.000E+00  0.000E+00  0.000E+00  0.000E+00
   6.770  0.000E+00  0.000E+00  0.000E+00  0.000E+00
   6.780  0.000E+00  0.000E+00  0.000E+00  0.000E+00
   6.790  0.000E+00  0.000E+00  0.000E+00  0.000E+00
   6.800  0.000E+00  0.000E+00  0.000E+00  0.000E+00
   6.810  0.000E+00  0.000E+00  0.000E+00  0.000E+00
   6.820  0.000E+00  0.000E+00  0.000E+00  0.000E+00
   6.830  0.000E+00  0.000E+00  0.000E+00  0.000E+00
   6.840  0.000E+00  0.000E+00  0.000E+00  0.000E+00
   6.850  0.000E+00  0.000E+00  0.000E+00  0.000E+00
   6.860  0.000E+00  0.000E+00  0.000E+00  0.000E+00
   6.870  0.000E+00  0.000E+00  0.000E+00  0.000E+00
   6.880  0.000E+00  0.000E+00  0.000E+00  0.000E+00
   6.890  0.000E+00  0.000E+00  0.000E+00  0.000E+00
   6.900  0.000E+00  0.000E+00  0.000E+00  0.000E+00
   6.910  0.000E+00  0.000E+00  0.000E+00  0.000E+00
   6.920  0.000E+00  0.000E+00  0.000E+00  0.000E+00
   6.930  0.000E+00  0.000E+00  0.000E+00  0.000E+00
   6.940  0.000E+00  0.000E+00  0.000E+00  0.000E+00
   6.950  0.000E+00  0.000E+00  0.000E+00  0.000E+00
   6.960  0.000E+00  0.000E+00  0.000E+00  0.000E+00
   6.970  0.000E+00  0.000E+00  0.000E+00  0.000E+00
   6.980  0.000E+00  0.000E+00  0.000E+00  0.000E+00
   6.990  0.000E+00  0.000E+00  0.000E+00  0.000E+00
   7.000  0.000E+00  0.000E+00  0.000E+00  0.000E+00
   7.010  0.000E+00  0.000E+00  0.000E+00  0.000E+00
   7.020  0.000E+00  0.000E+00  0.000E+00  0.000E+00
   7.030  0.000E+00  0.000E+00  0.000E+00  0.000E+00
   7.040  0.000E+00  0.000E+00  0.000E+00  0.000E+00
   7.050  0.000E+00  0.000E+00  0.000E+00  0.000E+00
   7.060  0.000E+00  0.000E+00  0.000E+00  0.000E+00
   7.070  0.000E+00  0.000E+00  0.000E+00  0.000E+00
   7.080  0.000E+00  0.000E+00  0.000E+00  0.000E+00
   7.090  0.000E+00  0.000E+00  0.000E+00  0.000E+00
   7.100  0.000E+00  0.000E+00  0.000E+00  0.000E+00
   7.110  0.000E+00  0.000E+00  0.000E+00  0.000E+00
   7.120  0.000E+00  0.000E+00  0.000E+00  0.000E+00
   7.130  0.000E+00  0.000E+00  0.000E+00  0.000E+00
   7.140  0.000E+00  0.000E+00  0.000E+00  0.000E+00
   7.150  0.000E+00  0.000E+00  0.000E+00  0.000E+00
   7.160  0.000E+00  0.000E+00  0.000E+00  0.000E+00
   7.170  0.000E+00  0.000E+00  0.000E+00  0.000E+00
   7.180  0.000E+00  0.000E+00  0.000E+00  0.000E+00
   7.190  0.000E+00  0.000E+00  0.000E+00  0.000E+00
   7.200  0.000E+00  0.000E+00  0.000E+00  0.000E+00
   7.210  0.000E+00  0.000E+00  0.000E+00  0.000E+00
   7.220  0.000E+00  0.000E+00  0.000E+00  0.000E+00
   7.230  0.000E+00  0.000E+00  0.000E+00  0.000E+00
   7.240  0.000E+00  0.000E+00  0.000E+00  0.000E+00
   7.250  0.000E+00  0.000E+00  0.000E+00  0.000E+00
   7.260  0.000E+00  0.000E+00  0.000E+00  0.000E+00
   7.270  0.000E+00  0.000E+00  0.000E+00  0.000E+00
   7.280  0.000E+00  0.000E+00  0.000E+00  0.000E+00
   7.290  0.000E+00  0.000E+00  0.000E+00  0.000E+00
   7.300  0.000E+00  0.000E+00  0.000E+00  0.000E+00
   7.310  0.000E+00  0.000E+00  0.000E+00  0.000E+00
   7.320  0.000E+00  0.000E+00  0.000E+00  0.000E+00
   7.330  0.000E+00  0.000E+00  0.000E+00  0.000E+00
   7.340  0.000E+00  0.000E+00  0.000E+00  0.000E+00
   7.350  0.000E+00  0.000E+00  0.000E+00  0.000E+00
   7.360  0.000E+00  0.000E+00  0.000E+00  0.000E+00
   7.370  0.000E+00  0.000E+00  0.000E+00  0.000E+00
   7.380  0.000E+00  0.000E+00  0.000E+00  0.000E+00
   7.390  0.000E+00  0.000E+00  0.000E+00  0.000E+00
   7.400  0.000E+00  0.000E+00  0.000E+00  0.000E+00
   7.410  0.000E+00  0.000E+00  0.000E+00  0.000E+00
   7.420  0.000E+00  0.000E+00  0.000E+00  0.000E+00
   7.430  0.000E+00  0.000E+00  0.000E+00  0.000E+00
   7.440  0.000E+00  0.000E+00  0.000E+00  0.000E+00
   7.450  0.000E+00  0.000E+00  0.000E+00  0.000E+00
   7.460  0.000E+00  0.000E+00  0.000E+00  0.000E+00
   7.470  0.000E+00  0.000E+00  0.000E+00  0.000E+00
   7.480 -0.216E-07 -0.721E-08 -0.721E-08 -0.721E-08
   7.490 -0.103E-06 -0.344E-07 -0.344E-07 -0.344E-07
   7.500 -0.229E-06 -0.763E-07 -0.763E-07 -0.763E-07
   7.510 -0.430E-06 -0.143E-06 -0.143E-06 -0.143E-06
   7.520 -0.817E-06 -0.272E-06 -0.272E-06 -0.272E-06
   7.530 -0.133E-05 -0.443E-06 -0.443E-06 -0.443E-06
   7.540 -0.190E-05 -0.632E-06 -0.632E-06 -0.632E-06
   7.550 -0.245E-05 -0.815E-06 -0.815E-06 -0.815E-06
   7.560 -0.291E-05 -0.969E-06 -0.969E-06 -0.969E-06
   7.570 -0.320E-05 -0.107E-05 -0.107E-05 -0.107E-05
   7.580 -0.327E-05 -0.109E-05 -0.109E-05 -0.109E-05
   7.590 -0.303E-05 -0.101E-05 -0.101E-05 -0.101E-05
   7.600 -0.241E-05 -0.803E-06 -0.803E-06 -0.803E-06
   7.610 -0.134E-05 -0.447E-06 -0.447E-06 -0.447E-06
   7.620  0.248E-06  0.827E-07  0.827E-07  0.827E-07
   7.630  0.243E-05  0.810E-06  0.810E-06  0.810E-06
   7.640  0.528E-05  0.176E-05  0.176E-05  0.176E-05
   7.650  0.886E-05  0.295E-05  0.295E-05  0.295E-05
   7.660  0.133E-04  0.442E-05  0.442E-05  0.442E-05
   7.670  0.185E-04  0.618E-05  0.618E-05  0.618E-05
   7.680  0.248E-04  0.825E-05  0.825E-05  0.825E-05
   7.690  0.320E-04  0.107E-04  0.107E-04  0.107E-04
   7.700  0.404E-04  0.135E-04  0.135E-04  0.135E-04
   7.710  0.499E-04  0.166E-04  0.166E-04  0.166E-04
   7.720  0.606E-04  0.202E-04  0.202E-04  0.202E-04
   7.730  0.727E-04  0.242E-04  0.242E-04  0.242E-04
   7.740  0.862E-04  0.287E-04  0.287E-04  0.287E-04
   7.750  0.101E-03  0.337E-04  0.337E-04  0.337E-04
   7.760  0.118E-03  0.392E-04  0.392E-04  0.392E-04
   7.770  0.136E-03  0.452E-04  0.452E-04  0.452E-04
   7.780  0.155E-03  0.518E-04  0.518E-04  0.518E-04
   7.790  0.177E-03  0.589E-04  0.589E-04  0.589E-04
   7.800  0.200E-03  0.667E-04  0.667E-04  0.667E-04
   7.810  0.225E-03  0.751E-04  0.751E-04  0.751E-04
   7.820  0.252E-03  0.841E-04  0.841E-04  0.841E-04
   7.830  0.281E-03  0.938E-04  0.938E-04  0.938E-04
   7.840  0.311E-03  0.104E-03  0.104E-03  0.104E-03
   7.850  0.343E-03  0.114E-03  0.114E-03  0.114E-03
   7.860  0.378E-03  0.126E-03  0.126E-03  0.126E-03
   7.870  0.417E-03  0.139E-03  0.139E-03  0.139E-03
   7.880  0.462E-03  0.154E-03  0.154E-03  0.154E-03
   7.890  0.509E-03  0.170E-03  0.170E-03  0.170E-03
   7.900  0.556E-03  0.185E-03  0.185E-03  0.185E-03
   7.910  0.605E-03  0.202E-03  0.202E-03  0.202E-03
   7.920  0.654E-03  0.218E-03  0.218E-03  0.218E-03
   7.930  0.704E-03  0.235E-03  0.235E-03  0.235E-03
   7.940  0.755E-03  0.252E-03  0.252E-03  0.252E-03
   7.950  0.808E-03  0.269E-03  0.269E-03  0.269E-03
   7.960  0.862E-03  0.287E-03  0.287E-03  0.287E-03
   7.970  0.917E-03  0.306E-03  0.306E-03  0.306E-03
   7.980  0.973E-03  0.324E-03  0.324E-03  0.324E-03
   7.990  0.103E-02  0.344E-03  0.344E-03  0.344E-03
   8.000  0.109E-02  0.364E-03  0.364E-03  0.364E-03
   8.010  0.115E-02  0.384E-03  0.384E-03  0.384E-03
   8.020  0.121E-02  0.405E-03  0.405E-03  0.405E-03
   8.030  0.128E-02  0.426E-03  0.426E-03  0.426E-03
   8.040  0.134E-02  0.448E-03  0.448E-03  0.448E-03
   8.050  0.141E-02  0.470E-03  0.470E-03  0.470E-03
   8.060  0.148E-02  0.493E-03  0.493E-03  0.493E-03
   8.070  0.155E-02  0.516E-03  0.516E-03  0.516E-03
   8.080  0.162E-02  0.540E-03  0.540E-03  0.540E-03
   8.090  0.169E-02  0.565E-03  0.565E-03  0.565E-03
   8.100  0.177E-02  0.589E-03  0.589E-03  0.589E-03
   8.110  0.184E-02  0.612E-03  0.612E-03  0.612E-03
   8.120  0.190E-02  0.634E-03  0.634E-03  0.634E-03
   8.130  0.196E-02  0.654E-03  0.654E-03  0.654E-03
   8.140  0.201E-02  0.671E-03  0.671E-03  0.671E-03
   8.150  0.208E-02  0.692E-03  0.692E-03  0.692E-03
   8.160  0.214E-02  0.715E-03  0.715E-03  0.715E-03
   8.170  0.222E-02  0.739E-03  0.739E-03  0.739E-03
   8.180  0.229E-02  0.764E-03  0.764E-03  0.764E-03
   8.190  0.237E-02  0.789E-03  0.789E-03  0.789E-03
   8.200  0.244E-02  0.814E-03  0.814E-03  0.814E-03
   8.210  0.252E-02  0.840E-03  0.840E-03  0.840E-03
   8.220  0.260E-02  0.867E-03  0.867E-03  0.867E-03
   8.230  0.269E-02  0.896E-03  0.896E-03  0.896E-03
   8.240  0.278E-02  0.926E-03  0.926E-03  0.926E-03
   8.250  0.288E-02  0.959E-03  0.959E-03  0.959E-03
   8.260  0.298E-02  0.993E-03  0.993E-03  0.993E-03
   8.270  0.309E-02  0.103E-02  0.103E-02  0.103E-02
   8.280  0.321E-02  0.107E-02  0.107E-02  0.107E-02
   8.290  0.334E-02  0.111E-02  0.111E-02  0.111E-02
   8.300  0.348E-02  0.116E-02  0.116E-02  0.116E-02
   8.310  0.364E-02  0.121E-02  0.121E-02  0.121E-02
   8.320  0.380E-02  0.127E-02  0.127E-02  0.127E-02
   8.330  0.396E-02  0.132E-02  0.132E-02  0.132E-02
   8.340  0.413E-02  0.138E-02  0.138E-02  0.138E-02
   8.350  0.431E-02  0.144E-02  0.144E-02  0.144E-02
   8.360  0.449E-02  0.150E-02  0.150E-02  0.150E-02
   8.370  0.467E-02  0.156E-02  0.156E-02  0.156E-02
   8.380  0.486E-02  0.162E-02  0.162E-02  0.162E-02
   8.390  0.506E-02  0.169E-02  0.169E-02  0.169E-02
   8.400  0.526E-02  0.175E-02  0.175E-02  0.175E-02
   8.410  0.546E-02  0.182E-02  0.182E-02  0.182E-02
   8.420  0.567E-02  0.189E-02  0.189E-02  0.189E-02
   8.430  0.589E-02  0.196E-02  0.196E-02  0.196E-02
   8.440  0.612E-02  0.204E-02  0.204E-02  0.204E-02
   8.450  0.636E-02  0.212E-02  0.212E-02  0.212E-02
   8.460  0.660E-02  0.220E-02  0.220E-02  0.220E-02
   8.470  0.685E-02  0.228E-02  0.228E-02  0.228E-02
   8.480  0.711E-02  0.237E-02  0.237E-02  0.237E-02
   8.490  0.738E-02  0.246E-02  0.246E-02  0.246E-02
   8.500  0.766E-02  0.255E-02  0.255E-02  0.255E-02
   8.510  0.795E-02  0.265E-02  0.265E-02  0.265E-02
   8.520  0.825E-02  0.275E-02  0.275E-02  0.275E-02
   8.530  0.856E-02  0.285E-02  0.285E-02  0.285E-02
   8.540  0.888E-02  0.296E-02  0.296E-02  0.296E-02
   8.550  0.921E-02  0.307E-02  0.307E-02  0.307E-02
   8.560  0.955E-02  0.318E-02  0.318E-02  0.318E-02
   8.570  0.991E-02  0.330E-02  0.330E-02  0.330E-02
   8.580  0.103E-01  0.342E-02  0.342E-02  0.342E-02
   8.590  0.106E-01  0.355E-02  0.355E-02  0.355E-02
   8.600  0.110E-01  0.368E-02  0.368E-02  0.368E-02
   8.610  0.114E-01  0.381E-02  0.381E-02  0.381E-02
   8.620  0.118E-01  0.395E-02  0.395E-02  0.395E-02
   8.630  0.123E-01  0.409E-02  0.409E-02  0.409E-02
   8.640  0.127E-01  0.423E-02  0.423E-02  0.423E-02
   8.650  0.131E-01  0.438E-02  0.438E-02  0.438E-02
   8.660  0.136E-01  0.454E-02  0.454E-02  0.454E-02
   8.670  0.141E-01  0.469E-02  0.469E-02  0.469E-02
   8.680  0.145E-01  0.484E-02  0.484E-02  0.484E-02
   8.690  0.149E-01  0.497E-02  0.497E-02  0.497E-02
   8.700  0.153E-01  0.509E-02  0.509E-02  0.509E-02
   8.710  0.156E-01  0.520E-02  0.520E-02  0.520E-02
   8.720  0.159E-01  0.531E-02  0.531E-02  0.531E-02
   8.730  0.162E-01  0.540E-02  0.540E-02  0.540E-02
   8.740  0.164E-01  0.547E-02  0.547E-02  0.547E-02
   8.750  0.166E-01  0.554E-02  0.554E-02  0.554E-02
   8.760  0.168E-01  0.560E-02  0.560E-02  0.560E-02
   8.770  0.172E-01  0.573E-02  0.573E-02  0.573E-02
   8.780  0.179E-01  0.598E-02  0.598E-02  0.598E-02
   8.790  0.203E-01  0.677E-02  0.677E-02  0.677E-02
   8.800  0.245E-01  0.815E-02  0.815E-02  0.815E-02
   8.810  0.266E-01  0.886E-02  0.886E-02  0.886E-02
   8.820  0.289E-01  0.963E-02  0.963E-02  0.963E-02
   8.830  0.315E-01  0.105E-01  0.105E-01  0.105E-01
   8.840  0.346E-01  0.115E-01  0.115E-01  0.115E-01
   8.850  0.383E-01  0.128E-01  0.128E-01  0.128E-01
   8.860  0.428E-01  0.143E-01  0.143E-01  0.143E-01
   8.870  0.476E-01  0.159E-01  0.159E-01  0.159E-01
   8.880  0.521E-01  0.174E-01  0.174E-01  0.174E-01
   8.890  0.561E-01  0.187E-01  0.187E-01  0.187E-01
   8.900  0.599E-01  0.200E-01  0.200E-01  0.200E-01
   8.910  0.630E-01  0.210E-01  0.210E-01  0.210E-01
   8.920  0.665E-01  0.222E-01  0.222E-01  0.222E-01
   8.930  0.703E-01  0.234E-01  0.234E-01  0.234E-01
   8.940  0.740E-01  0.247E-01  0.247E-01  0.247E-01
   8.950  0.776E-01  0.259E-01  0.259E-01  0.259E-01
   8.960  0.806E-01  0.269E-01  0.269E-01  0.269E-01
   8.970  0.862E-01  0.287E-01  0.287E-01  0.287E-01
   8.980  0.975E-01  0.325E-01  0.325E-01  0.325E-01
   8.990  0.987E-01  0.329E-01  0.329E-01  0.329E-01
   9.000  0.933E-01  0.311E-01  0.311E-01  0.311E-01
   9.010  0.863E-01  0.288E-01  0.288E-01  0.288E-01
   9.020  0.886E-01  0.295E-01  0.295E-01  0.295E-01
   9.030  0.925E-01  0.308E-01  0.308E-01  0.308E-01
   9.040  0.103E+00  0.343E-01  0.343E-01  0.343E-01
   9.050  0.112E+00  0.372E-01  0.372E-01  0.372E-01
   9.060  0.104E+00  0.345E-01  0.345E-01  0.345E-01
   9.070  0.110E+00  0.366E-01  0.366E-01  0.366E-01
   9.080  0.117E+00  0.389E-01  0.389E-01  0.389E-01
   9.090  0.124E+00  0.413E-01  0.413E-01  0.413E-01
   9.100  0.130E+00  0.435E-01  0.435E-01  0.435E-01
   9.110  0.137E+00  0.457E-01  0.457E-01  0.457E-01
   9.120  0.144E+00  0.479E-01  0.479E-01  0.479E-01
   9.130  0.151E+00  0.503E-01  0.503E-01  0.503E-01
   9.140  0.159E+00  0.529E-01  0.529E-01  0.529E-01
   9.150  0.167E+00  0.555E-01  0.555E-01  0.555E-01
   9.160  0.175E+00  0.583E-01  0.583E-01  0.583E-01
   9.170  0.184E+00  0.612E-01  0.612E-01  0.612E-01
   9.180  0.193E+00  0.642E-01  0.642E-01  0.642E-01
   9.190  0.202E+00  0.672E-01  0.672E-01  0.672E-01
   9.200  0.213E+00  0.709E-01  0.709E-01  0.709E-01
   9.210  0.225E+00  0.749E-01  0.749E-01  0.749E-01
   9.220  0.235E+00  0.785E-01  0.785E-01  0.785E-01
   9.230  0.245E+00  0.818E-01  0.818E-01  0.818E-01
   9.240  0.256E+00  0.853E-01  0.853E-01  0.853E-01
   9.250  0.267E+00  0.889E-01  0.889E-01  0.889E-01
   9.260  0.278E+00  0.927E-01  0.927E-01  0.927E-01
   9.270  0.289E+00  0.965E-01  0.965E-01  0.965E-01
   9.280  0.300E+00  0.100E+00  0.100E+00  0.100E+00
   9.290  0.310E+00  0.103E+00  0.103E+00  0.103E+00
   9.300  0.322E+00  0.107E+00  0.107E+00  0.107E+00
   9.310  0.350E+00  0.117E+00  0.117E+00  0.117E+00
   9.320  0.376E+00  0.125E+00  0.125E+00  0.125E+00
   9.330  0.389E+00  0.130E+00  0.130E+00  0.130E+00
   9.340  0.389E+00  0.130E+00  0.130E+00  0.130E+00
   9.350  0.383E+00  0.128E+00  0.128E+00  0.128E+00
   9.360  0.367E+00  0.122E+00  0.122E+00  0.122E+00
   9.370  0.346E+00  0.115E+00  0.115E+00  0.115E+00
   9.380  0.328E+00  0.109E+00  0.109E+00  0.109E+00
   9.390  0.313E+00  0.104E+00  0.104E+00  0.104E+00
   9.400  0.299E+00  0.997E-01  0.997E-01  0.997E-01
   9.410  0.282E+00  0.942E-01  0.942E-01  0.942E-01
   9.420  0.273E+00  0.911E-01  0.911E-01  0.911E-01
   9.430  0.251E+00  0.836E-01  0.836E-01  0.836E-01
   9.440  0.241E+00  0.803E-01  0.803E-01  0.803E-01
   9.450  0.241E+00  0.802E-01  0.802E-01  0.802E-01
   9.460  0.237E+00  0.791E-01  0.791E-01  0.791E-01
   9.470  0.242E+00  0.807E-01  0.807E-01  0.807E-01
   9.480  0.249E+00  0.829E-01  0.829E-01  0.829E-01
   9.490  0.259E+00  0.863E-01  0.863E-01  0.863E-01
   9.500  0.269E+00  0.897E-01  0.897E-01  0.897E-01
   9.510  0.277E+00  0.923E-01  0.923E-01  0.923E-01
   9.520  0.282E+00  0.939E-01  0.939E-01  0.939E-01
   9.530  0.284E+00  0.948E-01  0.948E-01  0.948E-01
   9.540  0.295E+00  0.983E-01  0.983E-01  0.983E-01
   9.550  0.299E+00  0.995E-01  0.995E-01  0.995E-01
   9.560  0.285E+00  0.951E-01  0.951E-01  0.951E-01
   9.570  0.275E+00  0.918E-01  0.918E-01  0.918E-01
   9.580  0.271E+00  0.903E-01  0.903E-01  0.903E-01
   9.590  0.265E+00  0.885E-01  0.885E-01  0.885E-01
   9.600  0.261E+00  0.869E-01  0.869E-01  0.869E-01
   9.610  0.262E+00  0.874E-01  0.874E-01  0.874E-01
   9.620  0.275E+00  0.918E-01  0.918E-01  0.918E-01
   9.630  0.295E+00  0.983E-01  0.983E-01  0.983E-01
   9.640  0.319E+00  0.106E+00  0.106E+00  0.106E+00
   9.650  0.341E+00  0.114E+00  0.114E+00  0.114E+00
   9.660  0.363E+00  0.121E+00  0.121E+00  0.121E+00
   9.670  0.386E+00  0.129E+00  0.129E+00  0.129E+00
   9.680  0.400E+00  0.133E+00  0.133E+00  0.133E+00
   9.690  0.419E+00  0.140E+00  0.140E+00  0.140E+00
   9.700  0.645E+00  0.215E+00  0.215E+00  0.215E+00
   9.710  0.380E+00  0.127E+00  0.127E+00  0.127E+00
   9.720  0.350E+00  0.117E+00  0.117E+00  0.117E+00
   9.730  0.329E+00  0.110E+00  0.110E+00  0.110E+00
   9.740  0.313E+00  0.104E+00  0.104E+00  0.104E+00
   9.750  0.302E+00  0.101E+00  0.101E+00  0.101E+00
   9.760  0.293E+00  0.975E-01  0.975E-01  0.975E-01
   9.770  0.284E+00  0.946E-01  0.946E-01  0.946E-01
   9.780  0.273E+00  0.911E-01  0.911E-01  0.911E-01
   9.790  0.299E+00  0.996E-01  0.996E-01  0.996E-01
   9.800  0.439E+00  0.146E+00  0.146E+00  0.146E+00
   9.810  0.713E+00  0.238E+00  0.238E+00  0.238E+00
   9.820  0.826E+00  0.275E+00  0.275E+00  0.275E+00
   9.830  0.936E+00  0.312E+00  0.312E+00  0.312E+00
   9.840  0.820E+00  0.273E+00  0.273E+00  0.273E+00
   9.850  0.709E+00  0.236E+00  0.236E+00  0.236E+00
   9.860  0.667E+00  0.222E+00  0.222E+00  0.222E+00
   9.870  0.554E+00  0.185E+00  0.185E+00  0.185E+00
   9.880  0.533E+00  0.178E+00  0.178E+00  0.178E+00
   9.890  0.533E+00  0.178E+00  0.178E+00  0.178E+00
   9.900  0.568E+00  0.189E+00  0.189E+00  0.189E+00
   9.910  0.609E+00  0.203E+00  0.203E+00  0.203E+00
   9.920  0.629E+00  0.210E+00  0.210E+00  0.210E+00
   9.930  0.641E+00  0.214E+00  0.214E+00  0.214E+00
   9.940  0.646E+00  0.215E+00  0.215E+00  0.215E+00
   9.950  0.646E+00  0.215E+00  0.215E+00  0.215E+00
   9.960  0.644E+00  0.215E+00  0.215E+00  0.215E+00
   9.970  0.636E+00  0.212E+00  0.212E+00  0.212E+00
   9.980  0.627E+00  0.209E+00  0.209E+00  0.209E+00
   9.990  0.614E+00  0.205E+00  0.205E+00  0.205E+00
  10.000  0.595E+00  0.198E+00  0.198E+00  0.198E+00
  10.010  0.578E+00  0.193E+00  0.193E+00  0.193E+00
  10.020  0.604E+00  0.201E+00  0.201E+00  0.201E+00
  10.030  0.685E+00  0.228E+00  0.228E+00  0.228E+00
  10.040  0.663E+00  0.221E+00  0.221E+00  0.221E+00
  10.050  0.631E+00  0.210E+00  0.210E+00  0.210E+00
  10.060  0.556E+00  0.185E+00  0.185E+00  0.185E+00
  10.070  0.512E+00  0.171E+00  0.171E+00  0.171E+00
  10.080  0.467E+00  0.156E+00  0.156E+00  0.156E+00
  10.090  0.417E+00  0.139E+00  0.139E+00  0.139E+00
  10.100  0.372E+00  0.124E+00  0.124E+00  0.124E+00
  10.110  0.342E+00  0.114E+00  0.114E+00  0.114E+00
  10.120  0.322E+00  0.107E+00  0.107E+00  0.107E+00
  10.130  0.304E+00  0.101E+00  0.101E+00  0.101E+00
  10.140  0.289E+00  0.962E-01  0.962E-01  0.962E-01
  10.150  0.276E+00  0.919E-01  0.919E-01  0.919E-01
  10.160  0.266E+00  0.888E-01  0.888E-01  0.888E-01
  10.170  0.258E+00  0.860E-01  0.860E-01  0.860E-01
  10.180  0.251E+00  0.835E-01  0.835E-01  0.835E-01
  10.190  0.243E+00  0.811E-01  0.811E-01  0.811E-01
  10.200  0.236E+00  0.787E-01  0.787E-01  0.787E-01
  10.210  0.229E+00  0.763E-01  0.763E-01  0.763E-01
  10.220  0.220E+00  0.734E-01  0.734E-01  0.734E-01
  10.230  0.211E+00  0.705E-01  0.705E-01  0.705E-01
  10.240  0.240E+00  0.801E-01  0.801E-01  0.801E-01
  10.250  0.299E+00  0.997E-01  0.997E-01  0.997E-01
  10.260  0.508E+00  0.169E+00  0.169E+00  0.169E+00
  10.270  0.618E+00  0.206E+00  0.206E+00  0.206E+00
  10.280  0.602E+00  0.201E+00  0.201E+00  0.201E+00
  10.290  0.578E+00  0.193E+00  0.193E+00  0.193E+00
  10.300  0.524E+00  0.175E+00  0.175E+00  0.175E+00
  10.310  0.429E+00  0.143E+00  0.143E+00  0.143E+00
  10.320  0.309E+00  0.103E+00  0.103E+00  0.103E+00
  10.330  0.195E+00  0.649E-01  0.649E-01  0.649E-01
  10.340  0.149E+00  0.498E-01  0.498E-01  0.498E-01
  10.350  0.153E+00  0.509E-01  0.509E-01  0.509E-01
  10.360  0.174E+00  0.579E-01  0.579E-01  0.579E-01
  10.370  0.203E+00  0.676E-01  0.676E-01  0.676E-01
  10.380  0.225E+00  0.749E-01  0.749E-01  0.749E-01
  10.390  0.241E+00  0.803E-01  0.803E-01  0.803E-01
  10.400  0.255E+00  0.850E-01  0.850E-01  0.850E-01
  10.410  0.268E+00  0.894E-01  0.894E-01  0.894E-01
  10.420  0.281E+00  0.938E-01  0.938E-01  0.938E-01
  10.430  0.294E+00  0.979E-01  0.979E-01  0.979E-01
  10.440  0.306E+00  0.102E+00  0.102E+00  0.102E+00
  10.450  0.318E+00  0.106E+00  0.106E+00  0.106E+00
  10.460  0.331E+00  0.110E+00  0.110E+00  0.110E+00
  10.470  0.342E+00  0.114E+00  0.114E+00  0.114E+00
  10.480  0.354E+00  0.118E+00  0.118E+00  0.118E+00
  10.490  0.364E+00  0.121E+00  0.121E+00  0.121E+00
  10.500  0.373E+00  0.124E+00  0.124E+00  0.124E+00
  10.510  0.381E+00  0.127E+00  0.127E+00  0.127E+00
  10.520  0.389E+00  0.130E+00  0.130E+00  0.130E+00
  10.530  0.395E+00  0.132E+00  0.132E+00  0.132E+00
  10.540  0.395E+00  0.132E+00  0.132E+00  0.132E+00
  10.550  0.390E+00  0.130E+00  0.130E+00  0.130E+00
  10.560  0.389E+00  0.130E+00  0.130E+00  0.130E+00
  10.570  0.389E+00  0.130E+00  0.130E+00  0.130E+00
  10.580  0.384E+00  0.128E+00  0.128E+00  0.128E+00
  10.590  0.378E+00  0.126E+00  0.126E+00  0.126E+00
  10.600  0.382E+00  0.127E+00  0.127E+00  0.127E+00
  10.610  0.406E+00  0.135E+00  0.135E+00  0.135E+00
  10.620  0.419E+00  0.140E+00  0.140E+00  0.140E+00
  10.630  0.428E+00  0.143E+00  0.143E+00  0.143E+00
  10.640  0.448E+00  0.149E+00  0.149E+00  0.149E+00
  10.650  0.474E+00  0.158E+00  0.158E+00  0.158E+00
  10.660  0.418E+00  0.139E+00  0.139E+00  0.139E+00
  10.670  0.408E+00  0.136E+00  0.136E+00  0.136E+00
  10.680  0.396E+00  0.132E+00  0.132E+00  0.132E+00
  10.690  0.362E+00  0.121E+00  0.121E+00  0.121E+00
  10.700  0.332E+00  0.111E+00  0.111E+00  0.111E+00
  10.710  0.255E+00  0.850E-01  0.850E-01  0.850E-01
  10.720  0.158E+00  0.526E-01  0.526E-01  0.526E-01
  10.730  0.144E+00  0.479E-01  0.479E-01  0.479E-01
  10.740  0.140E+00  0.467E-01  0.467E-01  0.467E-01
  10.750  0.137E+00  0.456E-01  0.456E-01  0.456E-01
  10.760  0.133E+00  0.445E-01  0.445E-01  0.445E-01
  10.770  0.130E+00  0.432E-01  0.432E-01  0.432E-01
  10.780  0.125E+00  0.416E-01  0.416E-01  0.416E-01
  10.790  0.119E+00  0.398E-01  0.398E-01  0.398E-01
  10.800  0.113E+00  0.376E-01  0.376E-01  0.376E-01
  10.810  0.108E+00  0.359E-01  0.359E-01  0.359E-01
  10.820  0.134E+00  0.446E-01  0.446E-01  0.446E-01
  10.830  0.160E+00  0.533E-01  0.533E-01  0.533E-01
  10.840  0.157E+00  0.523E-01  0.523E-01  0.523E-01
  10.850  0.160E+00  0.534E-01  0.534E-01  0.534E-01
  10.860  0.169E+00  0.563E-01  0.563E-01  0.563E-01
  10.870  0.178E+00  0.593E-01  0.593E-01  0.593E-01
  10.880  0.186E+00  0.620E-01  0.620E-01  0.620E-01
  10.890  0.204E+00  0.681E-01  0.681E-01  0.681E-01
  10.900  0.224E+00  0.748E-01  0.748E-01  0.748E-01
  10.910  0.220E+00  0.733E-01  0.733E-01  0.733E-01
  10.920  0.226E+00  0.755E-01  0.755E-01  0.755E-01
  10.930  0.290E+00  0.966E-01  0.966E-01  0.966E-01
  10.940  0.327E+00  0.109E+00  0.109E+00  0.109E+00
  10.950  0.411E+00  0.137E+00  0.137E+00  0.137E+00
  10.960  0.474E+00  0.158E+00  0.158E+00  0.158E+00
  10.970  0.520E+00  0.173E+00  0.173E+00  0.173E+00
  10.980  0.349E+00  0.116E+00  0.116E+00  0.116E+00
  10.990  0.360E+00  0.120E+00  0.120E+00  0.120E+00
  11.000  0.353E+00  0.118E+00  0.118E+00  0.118E+00
  11.010  0.336E+00  0.112E+00  0.112E+00  0.112E+00
  11.020  0.320E+00  0.107E+00  0.107E+00  0.107E+00
  11.030  0.303E+00  0.101E+00  0.101E+00  0.101E+00
  11.040  0.285E+00  0.951E-01  0.951E-01  0.951E-01
  11.050  0.268E+00  0.892E-01  0.892E-01  0.892E-01
  11.060  0.250E+00  0.834E-01  0.834E-01  0.834E-01
  11.070  0.234E+00  0.780E-01  0.780E-01  0.780E-01
  11.080  0.220E+00  0.732E-01  0.732E-01  0.732E-01
  11.090  0.208E+00  0.694E-01  0.694E-01  0.694E-01
  11.100  0.200E+00  0.666E-01  0.666E-01  0.666E-01
  11.110  0.194E+00  0.648E-01  0.648E-01  0.648E-01
  11.120  0.190E+00  0.633E-01  0.633E-01  0.633E-01
  11.130  0.186E+00  0.619E-01  0.619E-01  0.619E-01
  11.140  0.182E+00  0.607E-01  0.607E-01  0.607E-01
  11.150  0.179E+00  0.596E-01  0.596E-01  0.596E-01
  11.160  0.176E+00  0.587E-01  0.587E-01  0.587E-01
  11.170  0.174E+00  0.580E-01  0.580E-01  0.580E-01
  11.180  0.172E+00  0.574E-01  0.574E-01  0.574E-01
  11.190  0.171E+00  0.571E-01  0.571E-01  0.571E-01
  11.200  0.170E+00  0.568E-01  0.568E-01  0.568E-01
  11.210  0.170E+00  0.567E-01  0.567E-01  0.567E-01
  11.220  0.171E+00  0.569E-01  0.569E-01  0.569E-01
  11.230  0.172E+00  0.573E-01  0.573E-01  0.573E-01
  11.240  0.174E+00  0.580E-01  0.580E-01  0.580E-01
  11.250  0.177E+00  0.590E-01  0.590E-01  0.590E-01
  11.260  0.192E+00  0.640E-01  0.640E-01  0.640E-01
  11.270  0.245E+00  0.818E-01  0.818E-01  0.818E-01
  11.280  0.314E+00  0.105E+00  0.105E+00  0.105E+00
  11.290  0.392E+00  0.131E+00  0.131E+00  0.131E+00
  11.300  0.488E+00  0.163E+00  0.163E+00  0.163E+00
  11.310  0.595E+00  0.198E+00  0.198E+00  0.198E+00
  11.320  0.688E+00  0.229E+00  0.229E+00  0.229E+00
  11.330  0.771E+00  0.257E+00  0.257E+00  0.257E+00
  11.340  0.931E+00  0.310E+00  0.310E+00  0.310E+00
  11.350  0.806E+00  0.269E+00  0.269E+00  0.269E+00
  11.360  0.802E+00  0.267E+00  0.267E+00  0.267E+00
  11.370  0.829E+00  0.276E+00  0.276E+00  0.276E+00
  11.380  0.686E+00  0.229E+00  0.229E+00  0.229E+00
  11.390  0.651E+00  0.217E+00  0.217E+00  0.217E+00
  11.400  0.642E+00  0.214E+00  0.214E+00  0.214E+00
  11.410  0.623E+00  0.208E+00  0.208E+00  0.208E+00
  11.420  0.602E+00  0.201E+00  0.201E+00  0.201E+00
  11.430  0.583E+00  0.194E+00  0.194E+00  0.194E+00
  11.440  0.567E+00  0.189E+00  0.189E+00  0.189E+00
  11.450  0.557E+00  0.186E+00  0.186E+00  0.186E+00
  11.460  0.561E+00  0.187E+00  0.187E+00  0.187E+00
  11.470  0.633E+00  0.211E+00  0.211E+00  0.211E+00
  11.480  0.688E+00  0.229E+00  0.229E+00  0.229E+00
  11.490  0.722E+00  0.241E+00  0.241E+00  0.241E+00
  11.500  0.768E+00  0.256E+00  0.256E+00  0.256E+00
  11.510  0.806E+00  0.269E+00  0.269E+00  0.269E+00
  11.520  0.830E+00  0.277E+00  0.277E+00  0.277E+00
  11.530  0.840E+00  0.280E+00  0.280E+00  0.280E+00
  11.540  0.838E+00  0.279E+00  0.279E+00  0.279E+00
  11.550  0.824E+00  0.275E+00  0.275E+00  0.275E+00
  11.560  0.799E+00  0.266E+00  0.266E+00  0.266E+00
  11.570  0.792E+00  0.264E+00  0.264E+00  0.264E+00
  11.580  0.812E+00  0.271E+00  0.271E+00  0.271E+00
  11.590  0.843E+00  0.281E+00  0.281E+00  0.281E+00
  11.600  0.888E+00  0.296E+00  0.296E+00  0.296E+00
  11.610  0.945E+00  0.315E+00  0.315E+00  0.315E+00
  11.620  0.979E+00  0.326E+00  0.326E+00  0.326E+00
  11.630  0.976E+00  0.325E+00  0.325E+00  0.325E+00
  11.640  0.931E+00  0.310E+00  0.310E+00  0.310E+00
  11.650  0.844E+00  0.281E+00  0.281E+00  0.281E+00
  11.660  0.773E+00  0.258E+00  0.258E+00  0.258E+00
  11.670  0.733E+00  0.244E+00  0.244E+00  0.244E+00
  11.680  0.698E+00  0.233E+00  0.233E+00  0.233E+00
  11.690  0.684E+00  0.228E+00  0.228E+00  0.228E+00
  11.700  0.772E+00  0.257E+00  0.257E+00  0.257E+00
  11.710  0.826E+00  0.275E+00  0.275E+00  0.275E+00
  11.720  0.836E+00  0.279E+00  0.279E+00  0.279E+00
  11.730  0.830E+00  0.277E+00  0.277E+00  0.277E+00
  11.740  0.803E+00  0.268E+00  0.268E+00  0.268E+00
  11.750  0.758E+00  0.253E+00  0.253E+00  0.253E+00
  11.760  0.712E+00  0.237E+00  0.237E+00  0.237E+00
  11.770  0.687E+00  0.229E+00  0.229E+00  0.229E+00
  11.780  0.658E+00  0.219E+00  0.219E+00  0.219E+00
  11.790  0.624E+00  0.208E+00  0.208E+00  0.208E+00
  11.800  0.586E+00  0.195E+00  0.195E+00  0.195E+00
  11.810  0.542E+00  0.181E+00  0.181E+00  0.181E+00
  11.820  0.488E+00  0.163E+00  0.163E+00  0.163E+00
  11.830  0.456E+00  0.152E+00  0.152E+00  0.152E+00
  11.840  0.408E+00  0.136E+00  0.136E+00  0.136E+00
  11.850  0.371E+00  0.124E+00  0.124E+00  0.124E+00
  11.860  0.333E+00  0.111E+00  0.111E+00  0.111E+00
  11.870  0.292E+00  0.974E-01  0.974E-01  0.974E-01
  11.880  0.261E+00  0.870E-01  0.870E-01  0.870E-01
  11.890  0.245E+00  0.816E-01  0.816E-01  0.816E-01
  11.900  0.239E+00  0.797E-01  0.797E-01  0.797E-01
  11.910  0.251E+00  0.838E-01  0.838E-01  0.838E-01
  11.920  0.254E+00  0.846E-01  0.846E-01  0.846E-01
  11.930  0.251E+00  0.837E-01  0.837E-01  0.837E-01
  11.940  0.231E+00  0.771E-01  0.771E-01  0.771E-01
  11.950  0.182E+00  0.607E-01  0.607E-01  0.607E-01
  11.960  0.149E+00  0.497E-01  0.497E-01  0.497E-01
  11.970  0.131E+00  0.436E-01  0.436E-01  0.436E-01
  11.980  0.112E+00  0.373E-01  0.373E-01  0.373E-01
  11.990  0.937E-01  0.312E-01  0.312E-01  0.312E-01
  12.000  0.756E-01  0.252E-01  0.252E-01  0.252E-01
  12.010  0.613E-01  0.204E-01  0.204E-01  0.204E-01
