# E (eV)   ldos(E)   pdos(E)    pdos(E)    pdos(E)   
   0.000  0.103E+00  0.332E-01  0.351E-01  0.351E-01
   0.010  0.131E+00  0.432E-01  0.437E-01  0.437E-01
   0.020  0.132E+00  0.445E-01  0.438E-01  0.438E-01
   0.030  0.850E-01  0.286E-01  0.282E-01  0.282E-01
   0.040  0.517E-01  0.174E-01  0.172E-01  0.172E-01
   0.050  0.320E-01  0.109E-01  0.106E-01  0.106E-01
   0.060  0.178E-01  0.622E-02  0.581E-02  0.581E-02
   0.070  0.906E-02  0.294E-02  0.306E-02  0.306E-02
   0.080  0.609E-02  0.198E-02  0.206E-02  0.206E-02
   0.090  0.166E-02  0.537E-03  0.561E-03  0.561E-03
   0.100  0.102E-02  0.327E-03  0.347E-03  0.347E-03
   0.110  0.163E-02  0.530E-03  0.552E-03  0.552E-03
   0.120  0.270E-02  0.877E-03  0.911E-03  0.911E-03
   0.130  0.402E-02  0.131E-02  0.135E-02  0.135E-02
   0.140  0.558E-02  0.182E-02  0.188E-02  0.188E-02
   0.150  0.739E-02  0.240E-02  0.249E-02  0.249E-02
   0.160  0.943E-02  0.307E-02  0.318E-02  0.318E-02
   0.170  0.117E-01  0.381E-02  0.395E-02  0.395E-02
   0.180  0.142E-01  0.462E-02  0.479E-02  0.479E-02
   0.190  0.169E-01  0.550E-02  0.571E-02  0.571E-02
   0.200  0.198E-01  0.645E-02  0.669E-02  0.669E-02
   0.210  0.230E-01  0.749E-02  0.776E-02  0.776E-02
   0.220  0.286E-01  0.932E-02  0.965E-02  0.965E-02
   0.230  0.432E-01  0.141E-01  0.145E-01  0.145E-01
   0.240  0.600E-01  0.197E-01  0.202E-01  0.202E-01
   0.250  0.743E-01  0.244E-01  0.249E-01  0.249E-01
   0.260  0.863E-01  0.284E-01  0.290E-01  0.290E-01
   0.270  0.964E-01  0.317E-01  0.323E-01  0.323E-01
   0.280  0.105E+00  0.345E-01  0.351E-01  0.351E-01
   0.290  0.111E+00  0.367E-01  0.372E-01  0.372E-01
   0.300  0.116E+00  0.384E-01  0.388E-01  0.388E-01
   0.310  0.119E+00  0.397E-01  0.399E-01  0.399E-01
   0.320  0.122E+00  0.405E-01  0.405E-01  0.405E-01
   0.330  0.122E+00  0.409E-01  0.406E-01  0.406E-01
   0.340  0.121E+00  0.409E-01  0.402E-01  0.402E-01
   0.350  0.123E+00  0.416E-01  0.405E-01  0.405E-01
   0.360  0.129E+00  0.439E-01  0.425E-01  0.425E-01
   0.370  0.137E+00  0.469E-01  0.450E-01  0.450E-01
   0.380  0.145E+00  0.499E-01  0.475E-01  0.475E-01
   0.390  0.153E+00  0.529E-01  0.500E-01  0.500E-01
   0.400  0.161E+00  0.560E-01  0.525E-01  0.525E-01
   0.410  0.169E+00  0.592E-01  0.551E-01  0.551E-01
   0.420  0.178E+00  0.624E-01  0.577E-01  0.577E-01
   0.430  0.186E+00  0.658E-01  0.603E-01  0.603E-01
   0.440  0.195E+00  0.691E-01  0.628E-01  0.628E-01
   0.450  0.201E+00  0.718E-01  0.646E-01  0.646E-01
   0.460  0.240E+00  0.854E-01  0.772E-01  0.772E-01
   0.470  0.335E+00  0.119E+00  0.108E+00  0.108E+00
   0.480  0.349E+00  0.126E+00  0.111E+00  0.111E+00
   0.490  0.357E+00  0.131E+00  0.113E+00  0.113E+00
   0.500  0.363E+00  0.135E+00  0.114E+00  0.114E+00
   0.510  0.365E+00  0.138E+00  0.114E+00  0.114E+00
   0.520  0.367E+00  0.140E+00  0.114E+00  0.114E+00
   0.530  0.382E+00  0.145E+00  0.118E+00  0.118E+00
   0.540  0.395E+00  0.146E+00  0.124E+00  0.124E+00
   0.550  0.367E+00  0.132E+00  0.117E+00  0.117E+00
   0.560  0.363E+00  0.128E+00  0.117E+00  0.117E+00
   0.570  0.371E+00  0.129E+00  0.121E+00  0.121E+00
   0.580  0.379E+00  0.130E+00  0.125E+00  0.125E+00
   0.590  0.387E+00  0.131E+00  0.128E+00  0.128E+00
   0.600  0.395E+00  0.133E+00  0.131E+00  0.131E+00
   0.610  0.404E+00  0.134E+00  0.135E+00  0.135E+00
   0.620  0.412E+00  0.136E+00  0.138E+00  0.138E+00
   0.630  0.420E+00  0.138E+00  0.141E+00  0.141E+00
   0.640  0.428E+00  0.140E+00  0.144E+00  0.144E+00
   0.650  0.448E+00  0.144E+00  0.152E+00  0.152E+00
   0.660  0.490E+00  0.154E+00  0.168E+00  0.168E+00
   0.670  0.530E+00  0.166E+00  0.182E+00  0.182E+00
   0.680  0.594E+00  0.190E+00  0.202E+00  0.202E+00
   0.690  0.681E+00  0.223E+00  0.229E+00  0.229E+00
   0.700  0.732E+00  0.239E+00  0.247E+00  0.247E+00
   0.710  0.710E+00  0.230E+00  0.240E+00  0.240E+00
   0.720  0.612E+00  0.200E+00  0.206E+00  0.206E+00
   0.730  0.582E+00  0.193E+00  0.194E+00  0.194E+00
   0.740  0.615E+00  0.206E+00  0.205E+00  0.205E+00
   0.750  0.684E+00  0.228E+00  0.228E+00  0.228E+00
   0.760  0.784E+00  0.259E+00  0.262E+00  0.262E+00
   0.770  0.926E+00  0.300E+00  0.313E+00  0.313E+00
   0.780  0.171E+01  0.547E+00  0.583E+00  0.583E+00
   0.790  0.170E+01  0.551E+00  0.573E+00  0.573E+00
   0.800  0.193E+01  0.617E+00  0.656E+00  0.656E+00
   0.810  0.285E+01  0.877E+00  0.985E+00  0.985E+00
   0.820  0.259E+01  0.801E+00  0.894E+00  0.894E+00
   0.830  0.191E+01  0.659E+00  0.628E+00  0.628E+00
   0.840  0.114E+01  0.419E+00  0.361E+00  0.361E+00
   0.850  0.981E+00  0.365E+00  0.308E+00  0.308E+00
   0.860  0.100E+01  0.370E+00  0.317E+00  0.317E+00
   0.870  0.891E+00  0.329E+00  0.281E+00  0.281E+00
   0.880  0.754E+00  0.279E+00  0.238E+00  0.238E+00
   0.890  0.591E+00  0.219E+00  0.186E+00  0.186E+00
   0.900  0.404E+00  0.151E+00  0.127E+00  0.127E+00
   0.910  0.264E+00  0.991E-01  0.824E-01  0.824E-01
   0.920  0.273E+00  0.898E-01  0.917E-01  0.917E-01
   0.930  0.502E+00  0.149E+00  0.177E+00  0.177E+00
   0.940  0.674E+00  0.198E+00  0.238E+00  0.238E+00
   0.950  0.748E+00  0.227E+00  0.260E+00  0.260E+00
   0.960  0.713E+00  0.222E+00  0.245E+00  0.245E+00
   0.970  0.711E+00  0.223E+00  0.244E+00  0.244E+00
   0.980  0.711E+00  0.225E+00  0.243E+00  0.243E+00
   0.990  0.700E+00  0.223E+00  0.239E+00  0.239E+00
   1.000  0.694E+00  0.223E+00  0.236E+00  0.236E+00
   1.010  0.695E+00  0.225E+00  0.235E+00  0.235E+00
   1.020  0.703E+00  0.228E+00  0.237E+00  0.237E+00
   1.030  0.712E+00  0.232E+00  0.240E+00  0.240E+00
   1.040  0.728E+00  0.237E+00  0.245E+00  0.245E+00
   1.050  0.749E+00  0.244E+00  0.253E+00  0.253E+00
   1.060  0.757E+00  0.245E+00  0.256E+00  0.256E+00
   1.070  0.752E+00  0.243E+00  0.255E+00  0.255E+00
   1.080  0.737E+00  0.236E+00  0.250E+00  0.250E+00
   1.090  0.710E+00  0.227E+00  0.242E+00  0.242E+00
   1.100  0.673E+00  0.214E+00  0.229E+00  0.229E+00
   1.110  0.624E+00  0.198E+00  0.213E+00  0.213E+00
   1.120  0.572E+00  0.182E+00  0.195E+00  0.195E+00
   1.130  0.533E+00  0.168E+00  0.182E+00  0.182E+00
   1.140  0.500E+00  0.157E+00  0.172E+00  0.172E+00
   1.150  0.478E+00  0.150E+00  0.164E+00  0.164E+00
   1.160  0.460E+00  0.145E+00  0.157E+00  0.157E+00
   1.170  0.442E+00  0.141E+00  0.151E+00  0.151E+00
   1.180  0.425E+00  0.137E+00  0.144E+00  0.144E+00
   1.190  0.408E+00  0.133E+00  0.137E+00  0.137E+00
   1.200  0.393E+00  0.131E+00  0.131E+00  0.131E+00
   1.210  0.380E+00  0.129E+00  0.126E+00  0.126E+00
   1.220  0.381E+00  0.133E+00  0.124E+00  0.124E+00
   1.230  0.392E+00  0.139E+00  0.126E+00  0.126E+00
   1.240  0.402E+00  0.145E+00  0.129E+00  0.129E+00
   1.250  0.408E+00  0.148E+00  0.130E+00  0.130E+00
   1.260  0.412E+00  0.150E+00  0.131E+00  0.131E+00
   1.270  0.412E+00  0.150E+00  0.131E+00  0.131E+00
   1.280  0.410E+00  0.149E+00  0.131E+00  0.131E+00
   1.290  0.405E+00  0.146E+00  0.129E+00  0.129E+00
   1.300  0.398E+00  0.142E+00  0.128E+00  0.128E+00
   1.310  0.389E+00  0.138E+00  0.126E+00  0.126E+00
   1.320  0.378E+00  0.132E+00  0.123E+00  0.123E+00
   1.330  0.365E+00  0.126E+00  0.119E+00  0.119E+00
   1.340  0.351E+00  0.120E+00  0.115E+00  0.115E+00
   1.350  0.335E+00  0.113E+00  0.111E+00  0.111E+00
   1.360  0.319E+00  0.107E+00  0.106E+00  0.106E+00
   1.370  0.303E+00  0.101E+00  0.101E+00  0.101E+00
   1.380  0.286E+00  0.943E-01  0.957E-01  0.957E-01
   1.390  0.268E+00  0.881E-01  0.900E-01  0.900E-01
   1.400  0.251E+00  0.824E-01  0.844E-01  0.844E-01
   1.410  0.242E+00  0.793E-01  0.812E-01  0.812E-01
   1.420  0.236E+00  0.775E-01  0.791E-01  0.791E-01
   1.430  0.232E+00  0.768E-01  0.778E-01  0.778E-01
   1.440  0.234E+00  0.784E-01  0.776E-01  0.776E-01
   1.450  0.238E+00  0.814E-01  0.784E-01  0.784E-01
   1.460  0.247E+00  0.850E-01  0.808E-01  0.808E-01
   1.470  0.258E+00  0.893E-01  0.845E-01  0.845E-01
   1.480  0.269E+00  0.943E-01  0.875E-01  0.875E-01
   1.490  0.297E+00  0.103E+00  0.969E-01  0.969E-01
   1.500  0.344E+00  0.115E+00  0.115E+00  0.115E+00
   1.510  0.362E+00  0.119E+00  0.122E+00  0.122E+00
   1.520  0.347E+00  0.114E+00  0.116E+00  0.116E+00
   1.530  0.309E+00  0.103E+00  0.103E+00  0.103E+00
   1.540  0.260E+00  0.863E-01  0.868E-01  0.868E-01
   1.550  0.212E+00  0.693E-01  0.712E-01  0.712E-01
   1.560  0.176E+00  0.568E-01  0.597E-01  0.597E-01
   1.570  0.165E+00  0.536E-01  0.555E-01  0.555E-01
   1.580  0.169E+00  0.572E-01  0.561E-01  0.561E-01
   1.590  0.182E+00  0.636E-01  0.593E-01  0.593E-01
   1.600  0.199E+00  0.710E-01  0.641E-01  0.641E-01
   1.610  0.217E+00  0.781E-01  0.696E-01  0.696E-01
   1.620  0.233E+00  0.841E-01  0.746E-01  0.746E-01
   1.630  0.247E+00  0.891E-01  0.790E-01  0.790E-01
   1.640  0.259E+00  0.930E-01  0.828E-01  0.828E-01
   1.650  0.268E+00  0.960E-01  0.859E-01  0.859E-01
   1.660  0.275E+00  0.981E-01  0.884E-01  0.884E-01
   1.670  0.280E+00  0.993E-01  0.903E-01  0.903E-01
   1.680  0.283E+00  0.997E-01  0.915E-01  0.915E-01
   1.690  0.283E+00  0.993E-01  0.920E-01  0.920E-01
   1.700  0.282E+00  0.981E-01  0.919E-01  0.919E-01
   1.710  0.278E+00  0.963E-01  0.910E-01  0.910E-01
   1.720  0.273E+00  0.937E-01  0.895E-01  0.895E-01
   1.730  0.265E+00  0.906E-01  0.872E-01  0.872E-01
   1.740  0.256E+00  0.870E-01  0.844E-01  0.844E-01
   1.750  0.246E+00  0.833E-01  0.813E-01  0.813E-01
   1.760  0.238E+00  0.803E-01  0.787E-01  0.787E-01
   1.770  0.231E+00  0.780E-01  0.767E-01  0.767E-01
   1.780  0.225E+00  0.758E-01  0.746E-01  0.746E-01
   1.790  0.219E+00  0.738E-01  0.726E-01  0.726E-01
   1.800  0.213E+00  0.719E-01  0.705E-01  0.705E-01
   1.810  0.209E+00  0.707E-01  0.690E-01  0.690E-01
   1.820  0.205E+00  0.696E-01  0.675E-01  0.675E-01
   1.830  0.201E+00  0.687E-01  0.659E-01  0.659E-01
   1.840  0.197E+00  0.679E-01  0.645E-01  0.645E-01
   1.850  0.194E+00  0.674E-01  0.634E-01  0.634E-01
   1.860  0.193E+00  0.674E-01  0.626E-01  0.626E-01
   1.870  0.192E+00  0.677E-01  0.621E-01  0.621E-01
   1.880  0.192E+00  0.683E-01  0.619E-01  0.619E-01
   1.890  0.193E+00  0.690E-01  0.619E-01  0.619E-01
   1.900  0.194E+00  0.699E-01  0.622E-01  0.622E-01
   1.910  0.196E+00  0.710E-01  0.627E-01  0.627E-01
   1.920  0.199E+00  0.720E-01  0.633E-01  0.633E-01
   1.930  0.201E+00  0.730E-01  0.638E-01  0.638E-01
   1.940  0.202E+00  0.739E-01  0.643E-01  0.643E-01
   1.950  0.204E+00  0.748E-01  0.647E-01  0.647E-01
   1.960  0.206E+00  0.757E-01  0.651E-01  0.651E-01
   1.970  0.208E+00  0.765E-01  0.657E-01  0.657E-01
   1.980  0.210E+00  0.773E-01  0.662E-01  0.662E-01
   1.990  0.211E+00  0.780E-01  0.667E-01  0.667E-01
   2.000  0.213E+00  0.782E-01  0.675E-01  0.675E-01
   2.010  0.212E+00  0.765E-01  0.677E-01  0.677E-01
   2.020  0.222E+00  0.812E-01  0.704E-01  0.704E-01
   2.030  0.242E+00  0.864E-01  0.778E-01  0.778E-01
   2.040  0.272E+00  0.888E-01  0.914E-01  0.914E-01
   2.050  0.252E+00  0.803E-01  0.858E-01  0.858E-01
   2.060  0.235E+00  0.739E-01  0.806E-01  0.806E-01
   2.070  0.231E+00  0.720E-01  0.797E-01  0.797E-01
   2.080  0.227E+00  0.703E-01  0.785E-01  0.785E-01
   2.090  0.221E+00  0.679E-01  0.765E-01  0.765E-01
   2.100  0.212E+00  0.650E-01  0.737E-01  0.737E-01
   2.110  0.203E+00  0.619E-01  0.705E-01  0.705E-01
   2.120  0.197E+00  0.601E-01  0.684E-01  0.684E-01
   2.130  0.195E+00  0.597E-01  0.677E-01  0.677E-01
   2.140  0.194E+00  0.597E-01  0.672E-01  0.672E-01
   2.150  0.193E+00  0.598E-01  0.666E-01  0.666E-01
   2.160  0.192E+00  0.600E-01  0.660E-01  0.660E-01
   2.170  0.191E+00  0.603E-01  0.654E-01  0.654E-01
   2.180  0.190E+00  0.607E-01  0.647E-01  0.647E-01
   2.190  0.189E+00  0.610E-01  0.641E-01  0.641E-01
   2.200  0.188E+00  0.615E-01  0.634E-01  0.634E-01
   2.210  0.188E+00  0.620E-01  0.629E-01  0.629E-01
   2.220  0.222E+00  0.731E-01  0.744E-01  0.744E-01
   2.230  0.249E+00  0.809E-01  0.840E-01  0.840E-01
   2.240  0.270E+00  0.877E-01  0.911E-01  0.911E-01
   2.250  0.298E+00  0.962E-01  0.101E+00  0.101E+00
   2.260  0.328E+00  0.105E+00  0.111E+00  0.111E+00
   2.270  0.354E+00  0.113E+00  0.120E+00  0.120E+00
   2.280  0.377E+00  0.120E+00  0.128E+00  0.128E+00
   2.290  0.399E+00  0.128E+00  0.136E+00  0.136E+00
   2.300  0.420E+00  0.134E+00  0.143E+00  0.143E+00
   2.310  0.439E+00  0.141E+00  0.149E+00  0.149E+00
   2.320  0.454E+00  0.147E+00  0.154E+00  0.154E+00
   2.330  0.470E+00  0.152E+00  0.159E+00  0.159E+00
   2.340  0.484E+00  0.157E+00  0.163E+00  0.163E+00
   2.350  0.497E+00  0.162E+00  0.167E+00  0.167E+00
   2.360  0.529E+00  0.173E+00  0.178E+00  0.178E+00
   2.370  0.557E+00  0.183E+00  0.187E+00  0.187E+00
   2.380  0.575E+00  0.190E+00  0.193E+00  0.193E+00
   2.390  0.594E+00  0.196E+00  0.199E+00  0.199E+00
   2.400  0.640E+00  0.212E+00  0.214E+00  0.214E+00
   2.410  0.699E+00  0.230E+00  0.235E+00  0.235E+00
   2.420  0.773E+00  0.255E+00  0.259E+00  0.259E+00
   2.430  0.860E+00  0.285E+00  0.288E+00  0.288E+00
   2.440  0.988E+00  0.330E+00  0.329E+00  0.329E+00
   2.450  0.115E+01  0.389E+00  0.382E+00  0.382E+00
   2.460  0.131E+01  0.446E+00  0.432E+00  0.432E+00
   2.470  0.150E+01  0.512E+00  0.492E+00  0.492E+00
   2.480  0.167E+01  0.579E+00  0.547E+00  0.547E+00
   2.490  0.201E+01  0.687E+00  0.660E+00  0.660E+00
   2.500  0.162E+01  0.570E+00  0.527E+00  0.527E+00
   2.510  0.119E+01  0.406E+00  0.390E+00  0.390E+00
   2.520  0.804E+00  0.251E+00  0.277E+00  0.277E+00
   2.530  0.689E+00  0.219E+00  0.235E+00  0.235E+00
   2.540  0.602E+00  0.196E+00  0.203E+00  0.203E+00
   2.550  0.543E+00  0.178E+00  0.182E+00  0.182E+00
   2.560  0.483E+00  0.158E+00  0.163E+00  0.163E+00
   2.570  0.648E+00  0.209E+00  0.219E+00  0.219E+00
   2.580  0.135E+01  0.438E+00  0.459E+00  0.459E+00
   2.590  0.154E+01  0.497E+00  0.524E+00  0.524E+00
   2.600  0.102E+01  0.342E+00  0.341E+00  0.341E+00
   2.610  0.641E+00  0.221E+00  0.210E+00  0.210E+00
   2.620  0.549E+00  0.192E+00  0.178E+00  0.178E+00
   2.630  0.546E+00  0.190E+00  0.178E+00  0.178E+00
   2.640  0.555E+00  0.193E+00  0.181E+00  0.181E+00
   2.650  0.562E+00  0.194E+00  0.184E+00  0.184E+00
   2.660  0.548E+00  0.188E+00  0.180E+00  0.180E+00
   2.670  0.540E+00  0.184E+00  0.178E+00  0.178E+00
   2.680  0.555E+00  0.188E+00  0.183E+00  0.183E+00
   2.690  0.573E+00  0.194E+00  0.190E+00  0.190E+00
   2.700  0.595E+00  0.201E+00  0.197E+00  0.197E+00
   2.710  0.622E+00  0.209E+00  0.206E+00  0.206E+00
   2.720  0.653E+00  0.219E+00  0.217E+00  0.217E+00
   2.730  0.688E+00  0.230E+00  0.229E+00  0.229E+00
   2.740  0.726E+00  0.242E+00  0.242E+00  0.242E+00
   2.750  0.772E+00  0.257E+00  0.257E+00  0.257E+00
   2.760  0.103E+01  0.347E+00  0.342E+00  0.342E+00
   2.770  0.121E+01  0.404E+00  0.402E+00  0.402E+00
   2.780  0.133E+01  0.441E+00  0.445E+00  0.445E+00
   2.790  0.139E+01  0.454E+00  0.466E+00  0.466E+00
   2.800  0.143E+01  0.464E+00  0.484E+00  0.484E+00
   2.810  0.147E+01  0.471E+00  0.497E+00  0.497E+00
   2.820  0.153E+01  0.494E+00  0.517E+00  0.517E+00
   2.830  0.147E+01  0.488E+00  0.489E+00  0.489E+00
   2.840  0.102E+01  0.362E+00  0.331E+00  0.331E+00
   2.850  0.956E+00  0.344E+00  0.306E+00  0.306E+00
   2.860  0.909E+00  0.325E+00  0.292E+00  0.292E+00
   2.870  0.896E+00  0.320E+00  0.288E+00  0.288E+00
   2.880  0.886E+00  0.316E+00  0.285E+00  0.285E+00
   2.890  0.881E+00  0.314E+00  0.284E+00  0.284E+00
   2.900  0.872E+00  0.310E+00  0.281E+00  0.281E+00
   2.910  0.860E+00  0.305E+00  0.278E+00  0.278E+00
   2.920  0.849E+00  0.300E+00  0.275E+00  0.275E+00
   2.930  0.840E+00  0.295E+00  0.272E+00  0.272E+00
   2.940  0.838E+00  0.292E+00  0.273E+00  0.273E+00
   2.950  0.864E+00  0.294E+00  0.285E+00  0.285E+00
   2.960  0.881E+00  0.292E+00  0.294E+00  0.294E+00
   2.970  0.882E+00  0.287E+00  0.298E+00  0.298E+00
   2.980  0.101E+01  0.311E+00  0.348E+00  0.348E+00
   2.990  0.106E+01  0.342E+00  0.361E+00  0.361E+00
   3.000  0.122E+01  0.393E+00  0.414E+00  0.414E+00
   3.010  0.115E+01  0.364E+00  0.393E+00  0.393E+00
   3.020  0.120E+01  0.381E+00  0.408E+00  0.408E+00
   3.030  0.140E+01  0.450E+00  0.474E+00  0.474E+00
   3.040  0.138E+01  0.446E+00  0.465E+00  0.465E+00
   3.050  0.138E+01  0.446E+00  0.465E+00  0.465E+00
   3.060  0.136E+01  0.441E+00  0.458E+00  0.458E+00
   3.070  0.135E+01  0.438E+00  0.455E+00  0.455E+00
   3.080  0.134E+01  0.438E+00  0.453E+00  0.453E+00
   3.090  0.135E+01  0.439E+00  0.455E+00  0.455E+00
   3.100  0.126E+01  0.412E+00  0.424E+00  0.424E+00
   3.110  0.149E+01  0.457E+00  0.514E+00  0.514E+00
   3.120  0.127E+01  0.417E+00  0.426E+00  0.426E+00
   3.130  0.127E+01  0.423E+00  0.425E+00  0.425E+00
   3.140  0.130E+01  0.434E+00  0.433E+00  0.433E+00
   3.150  0.134E+01  0.449E+00  0.448E+00  0.448E+00
   3.160  0.139E+01  0.466E+00  0.464E+00  0.464E+00
   3.170  0.142E+01  0.476E+00  0.473E+00  0.473E+00
   3.180  0.145E+01  0.487E+00  0.484E+00  0.484E+00
   3.190  0.148E+01  0.496E+00  0.493E+00  0.493E+00
   3.200  0.149E+01  0.500E+00  0.497E+00  0.497E+00
   3.210  0.149E+01  0.495E+00  0.497E+00  0.497E+00
   3.220  0.144E+01  0.479E+00  0.481E+00  0.481E+00
   3.230  0.143E+01  0.476E+00  0.477E+00  0.477E+00
   3.240  0.145E+01  0.482E+00  0.486E+00  0.486E+00
   3.250  0.148E+01  0.490E+00  0.495E+00  0.495E+00
   3.260  0.152E+01  0.501E+00  0.510E+00  0.510E+00
   3.270  0.149E+01  0.493E+00  0.499E+00  0.499E+00
   3.280  0.143E+01  0.475E+00  0.477E+00  0.477E+00
   3.290  0.137E+01  0.456E+00  0.457E+00  0.457E+00
   3.300  0.132E+01  0.436E+00  0.440E+00  0.440E+00
   3.310  0.126E+01  0.413E+00  0.425E+00  0.425E+00
   3.320  0.124E+01  0.404E+00  0.420E+00  0.420E+00
   3.330  0.126E+01  0.406E+00  0.425E+00  0.425E+00
   3.340  0.129E+01  0.416E+00  0.438E+00  0.438E+00
   3.350  0.135E+01  0.433E+00  0.458E+00  0.458E+00
   3.360  0.138E+01  0.447E+00  0.468E+00  0.468E+00
   3.370  0.141E+01  0.460E+00  0.476E+00  0.476E+00
   3.380  0.156E+01  0.494E+00  0.531E+00  0.531E+00
   3.390  0.137E+01  0.439E+00  0.468E+00  0.468E+00
   3.400  0.120E+01  0.401E+00  0.398E+00  0.398E+00
   3.410  0.113E+01  0.378E+00  0.374E+00  0.374E+00
   3.420  0.108E+01  0.366E+00  0.357E+00  0.357E+00
   3.430  0.106E+01  0.362E+00  0.348E+00  0.348E+00
   3.440  0.106E+01  0.363E+00  0.346E+00  0.346E+00
   3.450  0.106E+01  0.364E+00  0.349E+00  0.349E+00
   3.460  0.108E+01  0.369E+00  0.358E+00  0.358E+00
   3.470  0.119E+01  0.398E+00  0.396E+00  0.396E+00
   3.480  0.121E+01  0.396E+00  0.409E+00  0.409E+00
   3.490  0.138E+01  0.437E+00  0.471E+00  0.471E+00
   3.500  0.141E+01  0.430E+00  0.491E+00  0.491E+00
   3.510  0.156E+01  0.492E+00  0.535E+00  0.535E+00
   3.520  0.192E+01  0.608E+00  0.657E+00  0.657E+00
   3.530  0.212E+01  0.723E+00  0.700E+00  0.700E+00
   3.540  0.229E+01  0.789E+00  0.751E+00  0.751E+00
   3.550  0.221E+01  0.794E+00  0.708E+00  0.708E+00
   3.560  0.203E+01  0.732E+00  0.650E+00  0.650E+00
   3.570  0.192E+01  0.687E+00  0.617E+00  0.617E+00
   3.580  0.183E+01  0.649E+00  0.590E+00  0.590E+00
   3.590  0.174E+01  0.609E+00  0.565E+00  0.565E+00
   3.600  0.165E+01  0.562E+00  0.544E+00  0.544E+00
   3.610  0.164E+01  0.536E+00  0.554E+00  0.554E+00
   3.620  0.142E+01  0.462E+00  0.479E+00  0.479E+00
   3.630  0.117E+01  0.387E+00  0.394E+00  0.394E+00
   3.640  0.106E+01  0.353E+00  0.351E+00  0.351E+00
   3.650  0.973E+00  0.331E+00  0.321E+00  0.321E+00
   3.660  0.918E+00  0.317E+00  0.301E+00  0.301E+00
   3.670  0.892E+00  0.311E+00  0.290E+00  0.290E+00
   3.680  0.876E+00  0.308E+00  0.284E+00  0.284E+00
   3.690  0.871E+00  0.309E+00  0.281E+00  0.281E+00
   3.700  0.883E+00  0.315E+00  0.284E+00  0.284E+00
   3.710  0.913E+00  0.327E+00  0.293E+00  0.293E+00
   3.720  0.959E+00  0.343E+00  0.308E+00  0.308E+00
   3.730  0.102E+01  0.360E+00  0.329E+00  0.329E+00
   3.740  0.110E+01  0.383E+00  0.357E+00  0.357E+00
   3.750  0.118E+01  0.405E+00  0.386E+00  0.386E+00
   3.760  0.125E+01  0.423E+00  0.414E+00  0.414E+00
   3.770  0.131E+01  0.436E+00  0.438E+00  0.438E+00
   3.780  0.139E+01  0.449E+00  0.468E+00  0.468E+00
   3.790  0.148E+01  0.469E+00  0.504E+00  0.504E+00
   3.800  0.156E+01  0.491E+00  0.533E+00  0.533E+00
   3.810  0.161E+01  0.504E+00  0.554E+00  0.554E+00
   3.820  0.171E+01  0.529E+00  0.589E+00  0.589E+00
   3.830  0.167E+01  0.496E+00  0.589E+00  0.589E+00
   3.840  0.164E+01  0.481E+00  0.580E+00  0.580E+00
   3.850  0.160E+01  0.469E+00  0.563E+00  0.563E+00
   3.860  0.158E+01  0.468E+00  0.554E+00  0.554E+00
   3.870  0.154E+01  0.462E+00  0.538E+00  0.538E+00
   3.880  0.147E+01  0.444E+00  0.512E+00  0.512E+00
   3.890  0.143E+01  0.440E+00  0.493E+00  0.493E+00
   3.900  0.141E+01  0.440E+00  0.484E+00  0.484E+00
   3.910  0.150E+01  0.474E+00  0.512E+00  0.512E+00
   3.920  0.148E+01  0.468E+00  0.506E+00  0.506E+00
   3.930  0.132E+01  0.408E+00  0.457E+00  0.457E+00
   3.940  0.134E+01  0.416E+00  0.464E+00  0.464E+00
   3.950  0.136E+01  0.427E+00  0.468E+00  0.468E+00
   3.960  0.140E+01  0.445E+00  0.475E+00  0.475E+00
   3.970  0.148E+01  0.490E+00  0.496E+00  0.496E+00
   3.980  0.159E+01  0.544E+00  0.524E+00  0.524E+00
   3.990  0.175E+01  0.606E+00  0.570E+00  0.570E+00
   4.000  0.198E+01  0.693E+00  0.644E+00  0.644E+00
   4.010  0.218E+01  0.776E+00  0.704E+00  0.704E+00
   4.020  0.225E+01  0.813E+00  0.718E+00  0.718E+00
   4.030  0.234E+01  0.848E+00  0.744E+00  0.744E+00
   4.040  0.214E+01  0.810E+00  0.667E+00  0.667E+00
   4.050  0.180E+01  0.670E+00  0.563E+00  0.563E+00
   4.060  0.136E+01  0.476E+00  0.441E+00  0.441E+00
   4.070  0.122E+01  0.419E+00  0.400E+00  0.400E+00
   4.080  0.117E+01  0.397E+00  0.388E+00  0.388E+00
   4.090  0.118E+01  0.399E+00  0.392E+00  0.392E+00
   4.100  0.118E+01  0.398E+00  0.393E+00  0.393E+00
   4.110  0.115E+01  0.384E+00  0.383E+00  0.383E+00
   4.120  0.109E+01  0.362E+00  0.366E+00  0.366E+00
   4.130  0.106E+01  0.351E+00  0.353E+00  0.353E+00
   4.140  0.103E+01  0.343E+00  0.346E+00  0.346E+00
   4.150  0.104E+01  0.346E+00  0.348E+00  0.348E+00
   4.160  0.106E+01  0.357E+00  0.354E+00  0.354E+00
   4.170  0.107E+01  0.364E+00  0.353E+00  0.353E+00
   4.180  0.107E+01  0.368E+00  0.349E+00  0.349E+00
   4.190  0.106E+01  0.363E+00  0.348E+00  0.348E+00
   4.200  0.104E+01  0.345E+00  0.347E+00  0.347E+00
   4.210  0.105E+01  0.337E+00  0.355E+00  0.355E+00
   4.220  0.108E+01  0.340E+00  0.370E+00  0.370E+00
   4.230  0.111E+01  0.341E+00  0.385E+00  0.385E+00
   4.240  0.114E+01  0.341E+00  0.398E+00  0.398E+00
   4.250  0.116E+01  0.342E+00  0.411E+00  0.411E+00
   4.260  0.120E+01  0.347E+00  0.426E+00  0.426E+00
   4.270  0.129E+01  0.373E+00  0.456E+00  0.456E+00
   4.280  0.150E+01  0.462E+00  0.517E+00  0.517E+00
   4.290  0.163E+01  0.522E+00  0.552E+00  0.552E+00
   4.300  0.178E+01  0.585E+00  0.597E+00  0.597E+00
   4.310  0.175E+01  0.588E+00  0.583E+00  0.583E+00
   4.320  0.191E+01  0.665E+00  0.622E+00  0.622E+00
   4.330  0.207E+01  0.736E+00  0.665E+00  0.665E+00
   4.340  0.202E+01  0.758E+00  0.632E+00  0.632E+00
   4.350  0.173E+01  0.669E+00  0.532E+00  0.532E+00
   4.360  0.151E+01  0.548E+00  0.480E+00  0.480E+00
   4.370  0.150E+01  0.543E+00  0.481E+00  0.481E+00
   4.380  0.145E+01  0.513E+00  0.468E+00  0.468E+00
   4.390  0.152E+01  0.521E+00  0.502E+00  0.502E+00
   4.400  0.176E+01  0.595E+00  0.581E+00  0.581E+00
   4.410  0.195E+01  0.663E+00  0.643E+00  0.643E+00
   4.420  0.203E+01  0.688E+00  0.673E+00  0.673E+00
   4.430  0.195E+01  0.646E+00  0.651E+00  0.651E+00
   4.440  0.156E+01  0.514E+00  0.525E+00  0.525E+00
   4.450  0.128E+01  0.426E+00  0.426E+00  0.426E+00
   4.460  0.115E+01  0.385E+00  0.381E+00  0.381E+00
   4.470  0.107E+01  0.358E+00  0.355E+00  0.355E+00
   4.480  0.997E+00  0.333E+00  0.332E+00  0.332E+00
   4.490  0.941E+00  0.314E+00  0.314E+00  0.314E+00
   4.500  0.894E+00  0.297E+00  0.299E+00  0.299E+00
   4.510  0.864E+00  0.286E+00  0.289E+00  0.289E+00
   4.520  0.843E+00  0.278E+00  0.283E+00  0.283E+00
   4.530  0.829E+00  0.272E+00  0.278E+00  0.278E+00
   4.540  0.816E+00  0.267E+00  0.275E+00  0.275E+00
   4.550  0.803E+00  0.262E+00  0.271E+00  0.271E+00
   4.560  0.790E+00  0.256E+00  0.267E+00  0.267E+00
   4.570  0.777E+00  0.251E+00  0.263E+00  0.263E+00
   4.580  0.765E+00  0.245E+00  0.260E+00  0.260E+00
   4.590  0.758E+00  0.239E+00  0.259E+00  0.259E+00
   4.600  0.763E+00  0.238E+00  0.263E+00  0.263E+00
   4.610  0.811E+00  0.244E+00  0.283E+00  0.283E+00
   4.620  0.920E+00  0.271E+00  0.325E+00  0.325E+00
   4.630  0.931E+00  0.284E+00  0.324E+00  0.324E+00
   4.640  0.817E+00  0.255E+00  0.281E+00  0.281E+00
   4.650  0.795E+00  0.249E+00  0.273E+00  0.273E+00
   4.660  0.795E+00  0.250E+00  0.272E+00  0.272E+00
   4.670  0.789E+00  0.251E+00  0.269E+00  0.269E+00
   4.680  0.778E+00  0.250E+00  0.264E+00  0.264E+00
   4.690  0.762E+00  0.247E+00  0.258E+00  0.258E+00
   4.700  0.755E+00  0.250E+00  0.253E+00  0.253E+00
   4.710  0.776E+00  0.266E+00  0.255E+00  0.255E+00
   4.720  0.784E+00  0.282E+00  0.251E+00  0.251E+00
   4.730  0.585E+00  0.208E+00  0.189E+00  0.189E+00
   4.740  0.560E+00  0.194E+00  0.183E+00  0.183E+00
   4.750  0.670E+00  0.258E+00  0.206E+00  0.206E+00
   4.760  0.667E+00  0.254E+00  0.206E+00  0.206E+00
   4.770  0.629E+00  0.233E+00  0.198E+00  0.198E+00
   4.780  0.586E+00  0.214E+00  0.186E+00  0.186E+00
   4.790  0.542E+00  0.195E+00  0.174E+00  0.174E+00
   4.800  0.492E+00  0.175E+00  0.159E+00  0.159E+00
   4.810  0.441E+00  0.154E+00  0.143E+00  0.143E+00
   4.820  0.397E+00  0.136E+00  0.131E+00  0.131E+00
   4.830  0.372E+00  0.126E+00  0.123E+00  0.123E+00
   4.840  0.353E+00  0.119E+00  0.117E+00  0.117E+00
   4.850  0.339E+00  0.115E+00  0.112E+00  0.112E+00
   4.860  0.330E+00  0.112E+00  0.109E+00  0.109E+00
   4.870  0.325E+00  0.111E+00  0.107E+00  0.107E+00
   4.880  0.324E+00  0.111E+00  0.107E+00  0.107E+00
   4.890  0.336E+00  0.112E+00  0.112E+00  0.112E+00
   4.900  0.396E+00  0.119E+00  0.139E+00  0.139E+00
   4.910  0.509E+00  0.160E+00  0.174E+00  0.174E+00
   4.920  0.631E+00  0.208E+00  0.212E+00  0.212E+00
   4.930  0.643E+00  0.213E+00  0.215E+00  0.215E+00
   4.940  0.678E+00  0.236E+00  0.221E+00  0.221E+00
   4.950  0.804E+00  0.283E+00  0.261E+00  0.261E+00
   4.960  0.831E+00  0.287E+00  0.272E+00  0.272E+00
   4.970  0.764E+00  0.255E+00  0.255E+00  0.255E+00
   4.980  0.651E+00  0.205E+00  0.223E+00  0.223E+00
   4.990  0.603E+00  0.186E+00  0.209E+00  0.209E+00
   5.000  0.525E+00  0.158E+00  0.184E+00  0.184E+00
   5.010  0.452E+00  0.134E+00  0.159E+00  0.159E+00
   5.020  0.388E+00  0.114E+00  0.137E+00  0.137E+00
   5.030  0.333E+00  0.976E-01  0.118E+00  0.118E+00
   5.040  0.288E+00  0.843E-01  0.102E+00  0.102E+00
   5.050  0.253E+00  0.744E-01  0.893E-01  0.893E-01
   5.060  0.226E+00  0.672E-01  0.794E-01  0.794E-01
   5.070  0.201E+00  0.607E-01  0.703E-01  0.703E-01
   5.080  0.179E+00  0.549E-01  0.620E-01  0.620E-01
   5.090  0.161E+00  0.505E-01  0.554E-01  0.554E-01
   5.100  0.153E+00  0.490E-01  0.519E-01  0.519E-01
   5.110  0.165E+00  0.546E-01  0.553E-01  0.553E-01
   5.120  0.177E+00  0.598E-01  0.586E-01  0.586E-01
   5.130  0.177E+00  0.608E-01  0.583E-01  0.583E-01
   5.140  0.166E+00  0.575E-01  0.544E-01  0.544E-01
   5.150  0.144E+00  0.502E-01  0.471E-01  0.471E-01
   5.160  0.110E+00  0.385E-01  0.360E-01  0.360E-01
   5.170  0.656E-01  0.229E-01  0.214E-01  0.214E-01
   5.180  0.271E-01  0.933E-02  0.890E-02  0.890E-02
   5.190  0.138E-01  0.473E-02  0.455E-02  0.455E-02
   5.200  0.602E-02  0.206E-02  0.198E-02  0.198E-02
   5.210  0.149E-02  0.511E-03  0.491E-03  0.491E-03
   5.220  0.991E-04  0.340E-04  0.326E-04  0.326E-04
   5.230  0.111E-04  0.379E-05  0.363E-05  0.363E-05
   5.240  0.000E+00  0.000E+00  0.000E+00  0.000E+00
   5.250  0.000E+00  0.000E+00  0.000E+00  0.000E+00
   5.260  0.000E+00  0.000E+00  0.000E+00  0.000E+00
   5.270  0.000E+00  0.000E+00  0.000E+00  0.000E+00
   5.280  0.000E+00  0.000E+00  0.000E+00  0.000E+00
   5.290  0.000E+00  0.000E+00  0.000E+00  0.000E+00
   5.300  0.000E+00  0.000E+00  0.000E+00  0.000E+00
   5.310  0.000E+00  0.000E+00  0.000E+00  0.000E+00
   5.320  0.000E+00  0.000E+00  0.000E+00  0.000E+00
   5.330  0.000E+00  0.000E+00  0.000E+00  0.000E+00
   5.340  0.000E+00  0.000E+00  0.000E+00  0.000E+00
   5.350  0.000E+00  0.000E+00  0.000E+00  0.000E+00
   5.360  0.000E+00  0.000E+00  0.000E+00  0.000E+00
   5.370  0.000E+00  0.000E+00  0.000E+00  0.000E+00
   5.380  0.000E+00  0.000E+00  0.000E+00  0.000E+00
   5.390  0.000E+00  0.000E+00  0.000E+00  0.000E+00
   5.400  0.000E+00  0.000E+00  0.000E+00  0.000E+00
   5.410  0.000E+00  0.000E+00  0.000E+00  0.000E+00
   5.420  0.000E+00  0.000E+00  0.000E+00  0.000E+00
   5.430  0.000E+00  0.000E+00  0.000E+00  0.000E+00
   5.440  0.000E+00  0.000E+00  0.000E+00  0.000E+00
   5.450  0.000E+00  0.000E+00  0.000E+00  0.000E+00
   5.460  0.000E+00  0.000E+00  0.000E+00  0.000E+00
   5.470  0.000E+00  0.000E+00  0.000E+00  0.000E+00
   5.480  0.000E+00  0.000E+00  0.000E+00  0.000E+00
   5.490  0.000E+00  0.000E+00  0.000E+00  0.000E+00
   5.500  0.000E+00  0.000E+00  0.000E+00  0.000E+00
   5.510  0.000E+00  0.000E+00  0.000E+00  0.000E+00
   5.520  0.000E+00  0.000E+00  0.000E+00  0.000E+00
   5.530  0.000E+00  0.000E+00  0.000E+00  0.000E+00
   5.540  0.000E+00  0.000E+00  0.000E+00  0.000E+00
   5.550  0.000E+00  0.000E+00  0.000E+00  0.000E+00
   5.560  0.000E+00  0.000E+00  0.000E+00  0.000E+00
   5.570  0.000E+00  0.000E+00  0.000E+00  0.000E+00
   5.580  0.000E+00  0.000E+00  0.000E+00  0.000E+00
   5.590  0.000E+00  0.000E+00  0.000E+00  0.000E+00
   5.600  0.000E+00  0.000E+00  0.000E+00  0.000E+00
   5.610  0.000E+00  0.000E+00  0.000E+00  0.000E+00
   5.620  0.000E+00  0.000E+00  0.000E+00  0.000E+00
   5.630  0.000E+00  0.000E+00  0.000E+00  0.000E+00
   5.640  0.000E+00  0.000E+00  0.000E+00  0.000E+00
   5.650  0.000E+00  0.000E+00  0.000E+00  0.000E+00
   5.660  0.000E+00  0.000E+00  0.000E+00  0.000E+00
   5.670  0.000E+00  0.000E+00  0.000E+00  0.000E+00
   5.680  0.000E+00  0.000E+00  0.000E+00  0.000E+00
   5.690  0.000E+00  0.000E+00  0.000E+00  0.000E+00
   5.700  0.000E+00  0.000E+00  0.000E+00  0.000E+00
   5.710  0.000E+00  0.000E+00  0.000E+00  0.000E+00
   5.720  0.000E+00  0.000E+00  0.000E+00  0.000E+00
   5.730  0.000E+00  0.000E+00  0.000E+00  0.000E+00
   5.740  0.000E+00  0.000E+00  0.000E+00  0.000E+00
   5.750  0.000E+00  0.000E+00  0.000E+00  0.000E+00
   5.760  0.000E+00  0.000E+00  0.000E+00  0.000E+00
   5.770  0.000E+00  0.000E+00  0.000E+00  0.000E+00
   5.780  0.000E+00  0.000E+00  0.000E+00  0.000E+00
   5.790  0.000E+00  0.000E+00  0.000E+00  0.000E+00
   5.800  0.000E+00  0.000E+00  0.000E+00  0.000E+00
   5.810  0.000E+00  0.000E+00  0.000E+00  0.000E+00
   5.820  0.000E+00  0.000E+00  0.000E+00  0.000E+00
   5.830  0.000E+00  0.000E+00  0.000E+00  0.000E+00
   5.840  0.000E+00  0.000E+00  0.000E+00  0.000E+00
   5.850  0.000E+00  0.000E+00  0.000E+00  0.000E+00
   5.860  0.000E+00  0.000E+00  0.000E+00  0.000E+00
   5.870  0.000E+00  0.000E+00  0.000E+00  0.000E+00
   5.880  0.000E+00  0.000E+00  0.000E+00  0.000E+00
   5.890  0.000E+00  0.000E+00  0.000E+00  0.000E+00
   5.900  0.000E+00  0.000E+00  0.000E+00  0.000E+00
   5.910  0.000E+00  0.000E+00  0.000E+00  0.000E+00
   5.920  0.000E+00  0.000E+00  0.000E+00  0.000E+00
   5.930  0.000E+00  0.000E+00  0.000E+00  0.000E+00
   5.940  0.000E+00  0.000E+00  0.000E+00  0.000E+00
   5.950  0.000E+00  0.000E+00  0.000E+00  0.000E+00
   5.960  0.000E+00  0.000E+00  0.000E+00  0.000E+00
   5.970  0.000E+00  0.000E+00  0.000E+00  0.000E+00
   5.980  0.000E+00  0.000E+00  0.000E+00  0.000E+00
   5.990  0.000E+00  0.000E+00  0.000E+00  0.000E+00
   6.000  0.000E+00  0.000E+00  0.000E+00  0.000E+00
   6.010  0.000E+00  0.000E+00  0.000E+00  0.000E+00
   6.020  0.000E+00  0.000E+00  0.000E+00  0.000E+00
   6.030  0.000E+00  0.000E+00  0.000E+00  0.000E+00
   6.040  0.000E+00  0.000E+00  0.000E+00  0.000E+00
   6.050  0.000E+00  0.000E+00  0.000E+00  0.000E+00
   6.060  0.000E+00  0.000E+00  0.000E+00  0.000E+00
   6.070  0.000E+00  0.000E+00  0.000E+00  0.000E+00
   6.080  0.000E+00  0.000E+00  0.000E+00  0.000E+00
   6.090  0.000E+00  0.000E+00  0.000E+00  0.000E+00
   6.100  0.000E+00  0.000E+00  0.000E+00  0.000E+00
   6.110  0.000E+00  0.000E+00  0.000E+00  0.000E+00
   6.120  0.000E+00  0.000E+00  0.000E+00  0.000E+00
   6.130  0.000E+00  0.000E+00  0.000E+00  0.000E+00
   6.140  0.000E+00  0.000E+00  0.000E+00  0.000E+00
   6.150  0.000E+00  0.000E+00  0.000E+00  0.000E+00
   6.160  0.000E+00  0.000E+00  0.000E+00  0.000E+00
   6.170  0.000E+00  0.000E+00  0.000E+00  0.000E+00
   6.180  0.000E+00  0.000E+00  0.000E+00  0.000E+00
   6.190  0.000E+00  0.000E+00  0.000E+00  0.000E+00
   6.200  0.000E+00  0.000E+00  0.000E+00  0.000E+00
   6.210  0.000E+00  0.000E+00  0.000E+00  0.000E+00
   6.220  0.000E+00  0.000E+00  0.000E+00  0.000E+00
   6.230  0.000E+00  0.000E+00  0.000E+00  0.000E+00
   6.240  0.000E+00  0.000E+00  0.000E+00  0.000E+00
   6.250  0.000E+00  0.000E+00  0.000E+00  0.000E+00
   6.260  0.000E+00  0.000E+00  0.000E+00  0.000E+00
   6.270  0.000E+00  0.000E+00  0.000E+00  0.000E+00
   6.280  0.000E+00  0.000E+00  0.000E+00  0.000E+00
   6.290  0.000E+00  0.000E+00  0.000E+00  0.000E+00
   6.300  0.000E+00  0.000E+00  0.000E+00  0.000E+00
   6.310  0.000E+00  0.000E+00  0.000E+00  0.000E+00
   6.320  0.000E+00  0.000E+00  0.000E+00  0.000E+00
   6.330  0.000E+00  0.000E+00  0.000E+00  0.000E+00
   6.340  0.000E+00  0.000E+00  0.000E+00  0.000E+00
   6.350  0.000E+00  0.000E+00  0.000E+00  0.000E+00
   6.360  0.000E+00  0.000E+00  0.000E+00  0.000E+00
   6.370  0.000E+00  0.000E+00  0.000E+00  0.000E+00
   6.380  0.000E+00  0.000E+00  0.000E+00  0.000E+00
   6.390  0.000E+00  0.000E+00  0.000E+00  0.000E+00
   6.400  0.000E+00  0.000E+00  0.000E+00  0.000E+00
   6.410  0.000E+00  0.000E+00  0.000E+00  0.000E+00
   6.420  0.000E+00  0.000E+00  0.000E+00  0.000E+00
   6.430  0.000E+00  0.000E+00  0.000E+00  0.000E+00
   6.440  0.000E+00  0.000E+00  0.000E+00  0.000E+00
   6.450  0.000E+00  0.000E+00  0.000E+00  0.000E+00
   6.460  0.000E+00  0.000E+00  0.000E+00  0.000E+00
   6.470  0.000E+00  0.000E+00  0.000E+00  0.000E+00
   6.480  0.000E+00  0.000E+00  0.000E+00  0.000E+00
   6.490  0.000E+00  0.000E+00  0.000E+00  0.000E+00
   6.500  0.000E+00  0.000E+00  0.000E+00  0.000E+00
   6.510  0.000E+00  0.000E+00  0.000E+00  0.000E+00
   6.520  0.000E+00  0.000E+00  0.000E+00  0.000E+00
   6.530  0.000E+00  0.000E+00  0.000E+00  0.000E+00
   6.540  0.000E+00  0.000E+00  0.000E+00  0.000E+00
   6.550  0.000E+00  0.000E+00  0.000E+00  0.000E+00
   6.560  0.000E+00  0.000E+00  0.000E+00  0.000E+00
   6.570  0.000E+00  0.000E+00  0.000E+00  0.000E+00
   6.580  0.000E+00  0.000E+00  0.000E+00  0.000E+00
   6.590  0.000E+00  0.000E+00  0.000E+00  0.000E+00
   6.600  0.000E+00  0.000E+00  0.000E+00  0.000E+00
   6.610  0.000E+00  0.000E+00  0.000E+00  0.000E+00
   6.620  0.000E+00  0.000E+00  0.000E+00  0.000E+00
   6.630  0.000E+00  0.000E+00  0.000E+00  0.000E+00
   6.640  0.000E+00  0.000E+00  0.000E+00  0.000E+00
   6.650  0.000E+00  0.000E+00  0.000E+00  0.000E+00
   6.660  0.000E+00  0.000E+00  0.000E+00  0.000E+00
   6.670  0.000E+00  0.000E+00  0.000E+00  0.000E+00
   6.680  0.000E+00  0.000E+00  0.000E+00  0.000E+00
   6.690  0.000E+00  0.000E+00  0.000E+00  0.000E+00
   6.700  0.000E+00  0.000E+00  0.000E+00  0.000E+00
   6.710  0.000E+00  0.000E+00  0.000E+00  0.000E+00
   6.720  0.000E+00  0.000E+00  0.000E+00  0.000E+00
   6.730  0.000E+00  0.000E+00  0.000E+00  0.000E+00
   6.740  0.000E+00  0.000E+00  0.000E+00  0.000E+00
   6.750  0.000E+00  0.000E+00  0.000E+00  0.000E+00
   6.760  0.000E+00  0.000E+00  0.000E+00  0.000E+00
   6.770  0.000E+00  0.000E+00  0.000E+00  0.000E+00
   6.780  0.000E+00  0.000E+00  0.000E+00  0.000E+00
   6.790  0.000E+00  0.000E+00  0.000E+00  0.000E+00
   6.800  0.000E+00  0.000E+00  0.000E+00  0.000E+00
   6.810  0.000E+00  0.000E+00  0.000E+00  0.000E+00
   6.820  0.000E+00  0.000E+00  0.000E+00  0.000E+00
   6.830  0.000E+00  0.000E+00  0.000E+00  0.000E+00
   6.840  0.000E+00  0.000E+00  0.000E+00  0.000E+00
   6.850  0.000E+00  0.000E+00  0.000E+00  0.000E+00
   6.860  0.000E+00  0.000E+00  0.000E+00  0.000E+00
   6.870  0.000E+00  0.000E+00  0.000E+00  0.000E+00
   6.880  0.000E+00  0.000E+00  0.000E+00  0.000E+00
   6.890  0.000E+00  0.000E+00  0.000E+00  0.000E+00
   6.900  0.000E+00  0.000E+00  0.000E+00  0.000E+00
   6.910  0.000E+00  0.000E+00  0.000E+00  0.000E+00
   6.920  0.000E+00  0.000E+00  0.000E+00  0.000E+00
   6.930  0.000E+00  0.000E+00  0.000E+00  0.000E+00
   6.940  0.000E+00  0.000E+00  0.000E+00  0.000E+00
   6.950  0.000E+00  0.000E+00  0.000E+00  0.000E+00
   6.960  0.000E+00  0.000E+00  0.000E+00  0.000E+00
   6.970  0.000E+00  0.000E+00  0.000E+00  0.000E+00
   6.980  0.000E+00  0.000E+00  0.000E+00  0.000E+00
   6.990  0.000E+00  0.000E+00  0.000E+00  0.000E+00
   7.000  0.000E+00  0.000E+00  0.000E+00  0.000E+00
   7.010  0.000E+00  0.000E+00  0.000E+00  0.000E+00
   7.020  0.000E+00  0.000E+00  0.000E+00  0.000E+00
   7.030  0.000E+00  0.000E+00  0.000E+00  0.000E+00
   7.040  0.000E+00  0.000E+00  0.000E+00  0.000E+00
   7.050  0.000E+00  0.000E+00  0.000E+00  0.000E+00
   7.060  0.000E+00  0.000E+00  0.000E+00  0.000E+00
   7.070  0.000E+00  0.000E+00  0.000E+00  0.000E+00
   7.080  0.000E+00  0.000E+00  0.000E+00  0.000E+00
   7.090  0.000E+00  0.000E+00  0.000E+00  0.000E+00
   7.100  0.000E+00  0.000E+00  0.000E+00  0.000E+00
   7.110  0.000E+00  0.000E+00  0.000E+00  0.000E+00
   7.120  0.000E+00  0.000E+00  0.000E+00  0.000E+00
   7.130  0.000E+00  0.000E+00  0.000E+00  0.000E+00
   7.140  0.000E+00  0.000E+00  0.000E+00  0.000E+00
   7.150  0.000E+00  0.000E+00  0.000E+00  0.000E+00
   7.160  0.000E+00  0.000E+00  0.000E+00  0.000E+00
   7.170  0.000E+00  0.000E+00  0.000E+00  0.000E+00
   7.180  0.000E+00  0.000E+00  0.000E+00  0.000E+00
   7.190  0.000E+00  0.000E+00  0.000E+00  0.000E+00
   7.200  0.000E+00  0.000E+00  0.000E+00  0.000E+00
   7.210  0.000E+00  0.000E+00  0.000E+00  0.000E+00
   7.220  0.000E+00  0.000E+00  0.000E+00  0.000E+00
   7.230  0.000E+00  0.000E+00  0.000E+00  0.000E+00
   7.240  0.000E+00  0.000E+00  0.000E+00  0.000E+00
   7.250  0.000E+00  0.000E+00  0.000E+00  0.000E+00
   7.260  0.000E+00  0.000E+00  0.000E+00  0.000E+00
   7.270  0.000E+00  0.000E+00  0.000E+00  0.000E+00
   7.280  0.000E+00  0.000E+00  0.000E+00  0.000E+00
   7.290  0.000E+00  0.000E+00  0.000E+00  0.000E+00
   7.300  0.000E+00  0.000E+00  0.000E+00  0.000E+00
   7.310  0.000E+00  0.000E+00  0.000E+00  0.000E+00
   7.320  0.000E+00  0.000E+00  0.000E+00  0.000E+00
   7.330  0.000E+00  0.000E+00  0.000E+00  0.000E+00
   7.340  0.000E+00  0.000E+00  0.000E+00  0.000E+00
   7.350  0.000E+00  0.000E+00  0.000E+00  0.000E+00
   7.360  0.000E+00  0.000E+00  0.000E+00  0.000E+00
   7.370  0.000E+00  0.000E+00  0.000E+00  0.000E+00
   7.380  0.000E+00  0.000E+00  0.000E+00  0.000E+00
   7.390  0.000E+00  0.000E+00  0.000E+00  0.000E+00
   7.400  0.000E+00  0.000E+00  0.000E+00  0.000E+00
   7.410  0.000E+00  0.000E+00  0.000E+00  0.000E+00
   7.420  0.000E+00  0.000E+00  0.000E+00  0.000E+00
   7.430  0.000E+00  0.000E+00  0.000E+00  0.000E+00
   7.440  0.000E+00  0.000E+00  0.000E+00  0.000E+00
   7.450  0.000E+00  0.000E+00  0.000E+00  0.000E+00
   7.460  0.000E+00  0.000E+00  0.000E+00  0.000E+00
   7.470  0.000E+00  0.000E+00  0.000E+00  0.000E+00
   7.480 -0.270E-07 -0.183E-07 -0.434E-08 -0.434E-08
   7.490 -0.124E-06 -0.897E-07 -0.169E-07 -0.169E-07
   7.500 -0.259E-06 -0.204E-06 -0.274E-07 -0.274E-07
   7.510 -0.461E-06 -0.385E-06 -0.382E-07 -0.382E-07
   7.520 -0.823E-06 -0.705E-06 -0.586E-07 -0.586E-07
   7.530 -0.120E-05 -0.112E-05 -0.359E-07 -0.359E-07
   7.540 -0.141E-05 -0.159E-05  0.863E-07  0.863E-07
   7.550 -0.132E-05 -0.204E-05  0.364E-06  0.364E-06
   7.560 -0.734E-06 -0.244E-05  0.855E-06  0.855E-06
   7.570  0.494E-06 -0.273E-05  0.161E-05  0.161E-05
   7.580  0.253E-05 -0.286E-05  0.270E-05  0.270E-05
   7.590  0.555E-05 -0.278E-05  0.416E-05  0.416E-05
   7.600  0.971E-05 -0.243E-05  0.607E-05  0.607E-05
   7.610  0.152E-04 -0.176E-05  0.847E-05  0.847E-05
   7.620  0.221E-04 -0.726E-06  0.114E-04  0.114E-04
   7.630  0.307E-04  0.728E-06  0.150E-04  0.150E-04
   7.640  0.410E-04  0.265E-05  0.192E-04  0.192E-04
   7.650  0.534E-04  0.510E-05  0.241E-04  0.241E-04
   7.660  0.678E-04  0.813E-05  0.298E-04  0.298E-04
   7.670  0.846E-04  0.118E-04  0.364E-04  0.364E-04
   7.680  0.104E-03  0.161E-04  0.438E-04  0.438E-04
   7.690  0.126E-03  0.212E-04  0.522E-04  0.522E-04
   7.700  0.150E-03  0.270E-04  0.616E-04  0.616E-04
   7.710  0.178E-03  0.337E-04  0.721E-04  0.721E-04
   7.720  0.208E-03  0.413E-04  0.836E-04  0.836E-04
   7.730  0.242E-03  0.498E-04  0.963E-04  0.963E-04
   7.740  0.280E-03  0.592E-04  0.110E-03  0.110E-03
   7.750  0.321E-03  0.698E-04  0.126E-03  0.126E-03
   7.760  0.366E-03  0.814E-04  0.142E-03  0.142E-03
   7.770  0.414E-03  0.942E-04  0.160E-03  0.160E-03
   7.780  0.467E-03  0.108E-03  0.180E-03  0.180E-03
   7.790  0.524E-03  0.123E-03  0.200E-03  0.200E-03
   7.800  0.586E-03  0.140E-03  0.223E-03  0.223E-03
   7.810  0.652E-03  0.158E-03  0.247E-03  0.247E-03
   7.820  0.723E-03  0.177E-03  0.273E-03  0.273E-03
   7.830  0.798E-03  0.198E-03  0.300E-03  0.300E-03
   7.840  0.872E-03  0.218E-03  0.327E-03  0.327E-03
   7.850  0.952E-03  0.240E-03  0.356E-03  0.356E-03
   7.860  0.104E-02  0.264E-03  0.388E-03  0.388E-03
   7.870  0.113E-02  0.291E-03  0.422E-03  0.422E-03
   7.880  0.124E-02  0.321E-03  0.461E-03  0.461E-03
   7.890  0.135E-02  0.352E-03  0.500E-03  0.500E-03
   7.900  0.146E-02  0.383E-03  0.538E-03  0.538E-03
   7.910  0.156E-02  0.413E-03  0.575E-03  0.575E-03
   7.920  0.167E-02  0.443E-03  0.611E-03  0.611E-03
   7.930  0.177E-02  0.472E-03  0.647E-03  0.647E-03
   7.940  0.186E-02  0.501E-03  0.681E-03  0.681E-03
   7.950  0.196E-02  0.531E-03  0.715E-03  0.715E-03
   7.960  0.206E-02  0.561E-03  0.748E-03  0.748E-03
   7.970  0.215E-02  0.590E-03  0.781E-03  0.781E-03
   7.980  0.225E-02  0.621E-03  0.813E-03  0.813E-03
   7.990  0.234E-02  0.651E-03  0.844E-03  0.844E-03
   8.000  0.243E-02  0.682E-03  0.875E-03  0.875E-03
   8.010  0.252E-02  0.713E-03  0.905E-03  0.905E-03
   8.020  0.261E-02  0.745E-03  0.935E-03  0.935E-03
   8.030  0.270E-02  0.776E-03  0.963E-03  0.963E-03
   8.040  0.279E-02  0.809E-03  0.990E-03  0.990E-03
   8.050  0.287E-02  0.841E-03  0.102E-02  0.102E-02
   8.060  0.296E-02  0.874E-03  0.104E-02  0.104E-02
   8.070  0.304E-02  0.907E-03  0.107E-02  0.107E-02
   8.080  0.312E-02  0.940E-03  0.109E-02  0.109E-02
   8.090  0.320E-02  0.974E-03  0.111E-02  0.111E-02
   8.100  0.327E-02  0.101E-02  0.113E-02  0.113E-02
   8.110  0.333E-02  0.104E-02  0.115E-02  0.115E-02
   8.120  0.337E-02  0.107E-02  0.115E-02  0.115E-02
   8.130  0.340E-02  0.109E-02  0.115E-02  0.115E-02
   8.140  0.341E-02  0.111E-02  0.115E-02  0.115E-02
   8.150  0.344E-02  0.114E-02  0.115E-02  0.115E-02
   8.160  0.347E-02  0.117E-02  0.115E-02  0.115E-02
   8.170  0.352E-02  0.120E-02  0.116E-02  0.116E-02
   8.180  0.356E-02  0.123E-02  0.116E-02  0.116E-02
   8.190  0.360E-02  0.127E-02  0.117E-02  0.117E-02
   8.200  0.364E-02  0.130E-02  0.117E-02  0.117E-02
   8.210  0.368E-02  0.134E-02  0.117E-02  0.117E-02
   8.220  0.373E-02  0.137E-02  0.118E-02  0.118E-02
   8.230  0.378E-02  0.141E-02  0.118E-02  0.118E-02
   8.240  0.383E-02  0.146E-02  0.119E-02  0.119E-02
   8.250  0.389E-02  0.150E-02  0.119E-02  0.119E-02
   8.260  0.396E-02  0.155E-02  0.120E-02  0.120E-02
   8.270  0.404E-02  0.161E-02  0.122E-02  0.122E-02
   8.280  0.412E-02  0.166E-02  0.123E-02  0.123E-02
   8.290  0.422E-02  0.173E-02  0.125E-02  0.125E-02
   8.300  0.433E-02  0.179E-02  0.127E-02  0.127E-02
   8.310  0.445E-02  0.187E-02  0.129E-02  0.129E-02
   8.320  0.458E-02  0.194E-02  0.132E-02  0.132E-02
   8.330  0.471E-02  0.202E-02  0.134E-02  0.134E-02
   8.340  0.484E-02  0.210E-02  0.137E-02  0.137E-02
   8.350  0.498E-02  0.219E-02  0.139E-02  0.139E-02
   8.360  0.511E-02  0.227E-02  0.142E-02  0.142E-02
   8.370  0.525E-02  0.236E-02  0.144E-02  0.144E-02
   8.380  0.539E-02  0.245E-02  0.147E-02  0.147E-02
   8.390  0.553E-02  0.255E-02  0.149E-02  0.149E-02
   8.400  0.567E-02  0.264E-02  0.151E-02  0.151E-02
   8.410  0.581E-02  0.274E-02  0.154E-02  0.154E-02
   8.420  0.596E-02  0.284E-02  0.156E-02  0.156E-02
   8.430  0.612E-02  0.295E-02  0.159E-02  0.159E-02
   8.440  0.628E-02  0.305E-02  0.161E-02  0.161E-02
   8.450  0.644E-02  0.317E-02  0.163E-02  0.163E-02
   8.460  0.660E-02  0.328E-02  0.166E-02  0.166E-02
   8.470  0.678E-02  0.340E-02  0.169E-02  0.169E-02
   8.480  0.695E-02  0.353E-02  0.171E-02  0.171E-02
   8.490  0.714E-02  0.366E-02  0.174E-02  0.174E-02
   8.500  0.732E-02  0.379E-02  0.177E-02  0.177E-02
   8.510  0.752E-02  0.393E-02  0.179E-02  0.179E-02
   8.520  0.772E-02  0.407E-02  0.182E-02  0.182E-02
   8.530  0.792E-02  0.422E-02  0.185E-02  0.185E-02
   8.540  0.813E-02  0.438E-02  0.188E-02  0.188E-02
   8.550  0.835E-02  0.454E-02  0.191E-02  0.191E-02
   8.560  0.857E-02  0.470E-02  0.193E-02  0.193E-02
   8.570  0.879E-02  0.487E-02  0.196E-02  0.196E-02
   8.580  0.903E-02  0.505E-02  0.199E-02  0.199E-02
   8.590  0.926E-02  0.523E-02  0.202E-02  0.202E-02
   8.600  0.951E-02  0.542E-02  0.205E-02  0.205E-02
   8.610  0.976E-02  0.561E-02  0.207E-02  0.207E-02
   8.620  0.100E-01  0.581E-02  0.210E-02  0.210E-02
   8.630  0.103E-01  0.602E-02  0.213E-02  0.213E-02
   8.640  0.105E-01  0.623E-02  0.216E-02  0.216E-02
   8.650  0.108E-01  0.645E-02  0.218E-02  0.218E-02
   8.660  0.111E-01  0.668E-02  0.221E-02  0.221E-02
   8.670  0.115E-01  0.692E-02  0.229E-02  0.229E-02
   8.680  0.121E-01  0.716E-02  0.248E-02  0.248E-02
   8.690  0.129E-01  0.740E-02  0.277E-02  0.277E-02
   8.700  0.140E-01  0.763E-02  0.316E-02  0.316E-02
   8.710  0.151E-01  0.784E-02  0.364E-02  0.364E-02
   8.720  0.165E-01  0.805E-02  0.421E-02  0.421E-02
   8.730  0.179E-01  0.822E-02  0.485E-02  0.485E-02
   8.740  0.194E-01  0.835E-02  0.555E-02  0.555E-02
   8.750  0.210E-01  0.843E-02  0.630E-02  0.630E-02
   8.760  0.226E-01  0.847E-02  0.705E-02  0.705E-02
   8.770  0.256E-01  0.859E-02  0.849E-02  0.849E-02
   8.780  0.306E-01  0.886E-02  0.109E-01  0.109E-01
   8.790  0.418E-01  0.975E-02  0.160E-01  0.160E-01
   8.800  0.511E-01  0.106E-01  0.202E-01  0.202E-01
   8.810  0.493E-01  0.106E-01  0.193E-01  0.193E-01
   8.820  0.480E-01  0.107E-01  0.187E-01  0.187E-01
   8.830  0.471E-01  0.110E-01  0.181E-01  0.181E-01
   8.840  0.468E-01  0.115E-01  0.177E-01  0.177E-01
   8.850  0.471E-01  0.122E-01  0.174E-01  0.174E-01
   8.860  0.479E-01  0.132E-01  0.174E-01  0.174E-01
   8.870  0.485E-01  0.139E-01  0.173E-01  0.173E-01
   8.880  0.487E-01  0.145E-01  0.171E-01  0.171E-01
   8.890  0.487E-01  0.150E-01  0.168E-01  0.168E-01
   8.900  0.485E-01  0.155E-01  0.165E-01  0.165E-01
   8.910  0.481E-01  0.160E-01  0.161E-01  0.161E-01
   8.920  0.480E-01  0.166E-01  0.157E-01  0.157E-01
   8.930  0.480E-01  0.172E-01  0.154E-01  0.154E-01
   8.940  0.482E-01  0.177E-01  0.152E-01  0.152E-01
   8.950  0.486E-01  0.181E-01  0.153E-01  0.153E-01
   8.960  0.493E-01  0.182E-01  0.155E-01  0.155E-01
   8.970  0.516E-01  0.185E-01  0.165E-01  0.165E-01
   8.980  0.529E-01  0.188E-01  0.170E-01  0.170E-01
   8.990  0.514E-01  0.183E-01  0.165E-01  0.165E-01
   9.000  0.478E-01  0.170E-01  0.154E-01  0.154E-01
   9.010  0.431E-01  0.152E-01  0.140E-01  0.140E-01
   9.020  0.408E-01  0.140E-01  0.134E-01  0.134E-01
   9.030  0.387E-01  0.128E-01  0.129E-01  0.129E-01
   9.040  0.428E-01  0.141E-01  0.143E-01  0.143E-01
   9.050  0.416E-01  0.131E-01  0.142E-01  0.142E-01
   9.060  0.356E-01  0.102E-01  0.127E-01  0.127E-01
   9.070  0.370E-01  0.104E-01  0.133E-01  0.133E-01
   9.080  0.389E-01  0.108E-01  0.140E-01  0.140E-01
   9.090  0.409E-01  0.113E-01  0.148E-01  0.148E-01
   9.100  0.426E-01  0.117E-01  0.155E-01  0.155E-01
   9.110  0.439E-01  0.120E-01  0.159E-01  0.159E-01
   9.120  0.447E-01  0.124E-01  0.162E-01  0.162E-01
   9.130  0.457E-01  0.128E-01  0.165E-01  0.165E-01
   9.140  0.469E-01  0.133E-01  0.168E-01  0.168E-01
   9.150  0.483E-01  0.139E-01  0.172E-01  0.172E-01
   9.160  0.498E-01  0.145E-01  0.177E-01  0.177E-01
   9.170  0.515E-01  0.152E-01  0.181E-01  0.181E-01
   9.180  0.532E-01  0.159E-01  0.187E-01  0.187E-01
   9.190  0.551E-01  0.167E-01  0.192E-01  0.192E-01
   9.200  0.572E-01  0.176E-01  0.198E-01  0.198E-01
   9.210  0.595E-01  0.185E-01  0.205E-01  0.205E-01
   9.220  0.619E-01  0.195E-01  0.212E-01  0.212E-01
   9.230  0.645E-01  0.205E-01  0.220E-01  0.220E-01
   9.240  0.673E-01  0.217E-01  0.228E-01  0.228E-01
   9.250  0.703E-01  0.229E-01  0.237E-01  0.237E-01
   9.260  0.735E-01  0.241E-01  0.247E-01  0.247E-01
   9.270  0.770E-01  0.255E-01  0.258E-01  0.258E-01
   9.280  0.807E-01  0.269E-01  0.269E-01  0.269E-01
   9.290  0.847E-01  0.284E-01  0.281E-01  0.281E-01
   9.300  0.891E-01  0.301E-01  0.295E-01  0.295E-01
   9.310  0.947E-01  0.321E-01  0.313E-01  0.313E-01
   9.320  0.101E+00  0.344E-01  0.334E-01  0.334E-01
   9.330  0.108E+00  0.367E-01  0.355E-01  0.355E-01
   9.340  0.115E+00  0.392E-01  0.378E-01  0.378E-01
   9.350  0.122E+00  0.417E-01  0.400E-01  0.400E-01
   9.360  0.128E+00  0.439E-01  0.420E-01  0.420E-01
   9.370  0.134E+00  0.460E-01  0.439E-01  0.439E-01
   9.380  0.140E+00  0.483E-01  0.459E-01  0.459E-01
   9.390  0.147E+00  0.508E-01  0.483E-01  0.483E-01
   9.400  0.155E+00  0.536E-01  0.509E-01  0.509E-01
   9.410  0.166E+00  0.573E-01  0.545E-01  0.545E-01
   9.420  0.184E+00  0.627E-01  0.605E-01  0.605E-01
   9.430  0.171E+00  0.560E-01  0.573E-01  0.573E-01
   9.440  0.171E+00  0.554E-01  0.576E-01  0.576E-01
   9.450  0.170E+00  0.550E-01  0.575E-01  0.575E-01
   9.460  0.169E+00  0.559E-01  0.566E-01  0.566E-01
   9.470  0.173E+00  0.577E-01  0.575E-01  0.575E-01
   9.480  0.173E+00  0.581E-01  0.573E-01  0.573E-01
   9.490  0.173E+00  0.583E-01  0.575E-01  0.575E-01
   9.500  0.175E+00  0.586E-01  0.582E-01  0.582E-01
   9.510  0.175E+00  0.580E-01  0.584E-01  0.584E-01
   9.520  0.173E+00  0.567E-01  0.579E-01  0.579E-01
   9.530  0.168E+00  0.546E-01  0.568E-01  0.568E-01
   9.540  0.164E+00  0.525E-01  0.556E-01  0.556E-01
   9.550  0.159E+00  0.502E-01  0.542E-01  0.542E-01
   9.560  0.153E+00  0.478E-01  0.526E-01  0.526E-01
   9.570  0.150E+00  0.464E-01  0.518E-01  0.518E-01
   9.580  0.146E+00  0.450E-01  0.507E-01  0.507E-01
   9.590  0.142E+00  0.435E-01  0.491E-01  0.491E-01
   9.600  0.135E+00  0.413E-01  0.467E-01  0.467E-01
   9.610  0.127E+00  0.393E-01  0.441E-01  0.441E-01
   9.620  0.128E+00  0.396E-01  0.440E-01  0.440E-01
   9.630  0.133E+00  0.408E-01  0.459E-01  0.459E-01
   9.640  0.142E+00  0.440E-01  0.491E-01  0.491E-01
   9.650  0.153E+00  0.480E-01  0.526E-01  0.526E-01
   9.660  0.165E+00  0.523E-01  0.562E-01  0.562E-01
   9.670  0.176E+00  0.569E-01  0.597E-01  0.597E-01
   9.680  0.187E+00  0.614E-01  0.631E-01  0.631E-01
   9.690  0.202E+00  0.669E-01  0.673E-01  0.673E-01
   9.700  0.241E+00  0.878E-01  0.765E-01  0.765E-01
   9.710  0.208E+00  0.701E-01  0.691E-01  0.691E-01
   9.720  0.209E+00  0.698E-01  0.698E-01  0.698E-01
   9.730  0.206E+00  0.683E-01  0.688E-01  0.688E-01
   9.740  0.199E+00  0.659E-01  0.664E-01  0.664E-01
   9.750  0.188E+00  0.627E-01  0.629E-01  0.629E-01
   9.760  0.177E+00  0.591E-01  0.589E-01  0.589E-01
   9.770  0.167E+00  0.559E-01  0.554E-01  0.554E-01
   9.780  0.171E+00  0.574E-01  0.568E-01  0.568E-01
   9.790  0.229E+00  0.769E-01  0.761E-01  0.761E-01
   9.800  0.406E+00  0.129E+00  0.139E+00  0.139E+00
   9.810  0.513E+00  0.157E+00  0.178E+00  0.178E+00
   9.820  0.484E+00  0.166E+00  0.159E+00  0.159E+00
   9.830  0.529E+00  0.188E+00  0.171E+00  0.171E+00
   9.840  0.470E+00  0.158E+00  0.156E+00  0.156E+00
   9.850  0.414E+00  0.132E+00  0.141E+00  0.141E+00
   9.860  0.418E+00  0.130E+00  0.144E+00  0.144E+00
   9.870  0.358E+00  0.112E+00  0.123E+00  0.123E+00
   9.880  0.318E+00  0.106E+00  0.106E+00  0.106E+00
   9.890  0.324E+00  0.110E+00  0.107E+00  0.107E+00
   9.900  0.348E+00  0.120E+00  0.114E+00  0.114E+00
   9.910  0.372E+00  0.130E+00  0.121E+00  0.121E+00
   9.920  0.384E+00  0.134E+00  0.125E+00  0.125E+00
   9.930  0.396E+00  0.137E+00  0.129E+00  0.129E+00
   9.940  0.398E+00  0.137E+00  0.130E+00  0.130E+00
   9.950  0.392E+00  0.134E+00  0.129E+00  0.129E+00
   9.960  0.384E+00  0.131E+00  0.126E+00  0.126E+00
   9.970  0.368E+00  0.126E+00  0.121E+00  0.121E+00
   9.980  0.364E+00  0.124E+00  0.120E+00  0.120E+00
   9.990  0.368E+00  0.125E+00  0.121E+00  0.121E+00
  10.000  0.370E+00  0.126E+00  0.122E+00  0.122E+00
  10.010  0.375E+00  0.128E+00  0.124E+00  0.124E+00
  10.020  0.441E+00  0.146E+00  0.147E+00  0.147E+00
  10.030  0.468E+00  0.157E+00  0.156E+00  0.156E+00
  10.040  0.468E+00  0.148E+00  0.160E+00  0.160E+00
  10.050  0.413E+00  0.132E+00  0.140E+00  0.140E+00
  10.060  0.338E+00  0.112E+00  0.113E+00  0.113E+00
  10.070  0.302E+00  0.996E-01  0.101E+00  0.101E+00
  10.080  0.286E+00  0.935E-01  0.961E-01  0.961E-01
  10.090  0.270E+00  0.874E-01  0.913E-01  0.913E-01
  10.100  0.257E+00  0.822E-01  0.872E-01  0.872E-01
  10.110  0.246E+00  0.786E-01  0.836E-01  0.836E-01
  10.120  0.240E+00  0.770E-01  0.813E-01  0.813E-01
  10.130  0.236E+00  0.762E-01  0.797E-01  0.797E-01
  10.140  0.233E+00  0.759E-01  0.787E-01  0.787E-01
  10.150  0.232E+00  0.759E-01  0.780E-01  0.780E-01
  10.160  0.232E+00  0.763E-01  0.778E-01  0.778E-01
  10.170  0.233E+00  0.769E-01  0.779E-01  0.779E-01
  10.180  0.234E+00  0.777E-01  0.781E-01  0.781E-01
  10.190  0.236E+00  0.787E-01  0.786E-01  0.786E-01
  10.200  0.239E+00  0.800E-01  0.794E-01  0.794E-01
  10.210  0.242E+00  0.814E-01  0.804E-01  0.804E-01
  10.220  0.244E+00  0.825E-01  0.809E-01  0.809E-01
  10.230  0.257E+00  0.872E-01  0.851E-01  0.851E-01
  10.240  0.335E+00  0.116E+00  0.110E+00  0.110E+00
  10.250  0.398E+00  0.136E+00  0.131E+00  0.131E+00
  10.260  0.517E+00  0.177E+00  0.170E+00  0.170E+00
  10.270  0.553E+00  0.189E+00  0.182E+00  0.182E+00
  10.280  0.429E+00  0.143E+00  0.143E+00  0.143E+00
  10.290  0.344E+00  0.111E+00  0.117E+00  0.117E+00
  10.300  0.318E+00  0.988E-01  0.110E+00  0.110E+00
  10.310  0.282E+00  0.849E-01  0.985E-01  0.985E-01
  10.320  0.245E+00  0.724E-01  0.862E-01  0.862E-01
  10.330  0.214E+00  0.625E-01  0.756E-01  0.756E-01
  10.340  0.182E+00  0.537E-01  0.640E-01  0.640E-01
  10.350  0.151E+00  0.460E-01  0.525E-01  0.525E-01
  10.360  0.134E+00  0.421E-01  0.458E-01  0.458E-01
  10.370  0.133E+00  0.428E-01  0.449E-01  0.449E-01
  10.380  0.140E+00  0.458E-01  0.469E-01  0.469E-01
  10.390  0.145E+00  0.481E-01  0.485E-01  0.485E-01
  10.400  0.152E+00  0.507E-01  0.507E-01  0.507E-01
  10.410  0.160E+00  0.537E-01  0.532E-01  0.532E-01
  10.420  0.167E+00  0.565E-01  0.554E-01  0.554E-01
  10.430  0.174E+00  0.590E-01  0.576E-01  0.576E-01
  10.440  0.181E+00  0.616E-01  0.598E-01  0.598E-01
  10.450  0.187E+00  0.639E-01  0.613E-01  0.613E-01
  10.460  0.191E+00  0.659E-01  0.626E-01  0.626E-01
  10.470  0.196E+00  0.679E-01  0.640E-01  0.640E-01
  10.480  0.201E+00  0.698E-01  0.656E-01  0.656E-01
  10.490  0.206E+00  0.717E-01  0.672E-01  0.672E-01
  10.500  0.211E+00  0.734E-01  0.688E-01  0.688E-01
  10.510  0.216E+00  0.751E-01  0.704E-01  0.704E-01
  10.520  0.221E+00  0.767E-01  0.722E-01  0.722E-01
  10.530  0.226E+00  0.781E-01  0.740E-01  0.740E-01
  10.540  0.231E+00  0.797E-01  0.758E-01  0.758E-01
  10.550  0.236E+00  0.812E-01  0.773E-01  0.773E-01
  10.560  0.241E+00  0.830E-01  0.792E-01  0.792E-01
  10.570  0.251E+00  0.862E-01  0.826E-01  0.826E-01
  10.580  0.259E+00  0.886E-01  0.850E-01  0.850E-01
  10.590  0.261E+00  0.892E-01  0.856E-01  0.856E-01
  10.600  0.249E+00  0.855E-01  0.820E-01  0.820E-01
  10.610  0.248E+00  0.847E-01  0.816E-01  0.816E-01
  10.620  0.249E+00  0.848E-01  0.823E-01  0.823E-01
  10.630  0.250E+00  0.844E-01  0.828E-01  0.828E-01
  10.640  0.251E+00  0.842E-01  0.832E-01  0.832E-01
  10.650  0.252E+00  0.846E-01  0.839E-01  0.839E-01
  10.660  0.228E+00  0.770E-01  0.753E-01  0.753E-01
  10.670  0.230E+00  0.775E-01  0.761E-01  0.761E-01
  10.680  0.236E+00  0.791E-01  0.783E-01  0.783E-01
  10.690  0.226E+00  0.761E-01  0.752E-01  0.752E-01
  10.700  0.222E+00  0.741E-01  0.737E-01  0.737E-01
  10.710  0.185E+00  0.621E-01  0.616E-01  0.616E-01
  10.720  0.140E+00  0.469E-01  0.465E-01  0.465E-01
  10.730  0.131E+00  0.438E-01  0.437E-01  0.437E-01
  10.740  0.125E+00  0.416E-01  0.416E-01  0.416E-01
  10.750  0.119E+00  0.397E-01  0.396E-01  0.396E-01
  10.760  0.113E+00  0.376E-01  0.375E-01  0.375E-01
  10.770  0.106E+00  0.356E-01  0.354E-01  0.354E-01
  10.780  0.998E-01  0.335E-01  0.331E-01  0.331E-01
  10.790  0.930E-01  0.313E-01  0.309E-01  0.309E-01
  10.800  0.867E-01  0.293E-01  0.287E-01  0.287E-01
  10.810  0.905E-01  0.302E-01  0.301E-01  0.301E-01
  10.820  0.108E+00  0.357E-01  0.362E-01  0.362E-01
  10.830  0.116E+00  0.392E-01  0.382E-01  0.382E-01
  10.840  0.118E+00  0.408E-01  0.388E-01  0.388E-01
  10.850  0.123E+00  0.429E-01  0.400E-01  0.400E-01
  10.860  0.131E+00  0.459E-01  0.424E-01  0.424E-01
  10.870  0.141E+00  0.494E-01  0.458E-01  0.458E-01
  10.880  0.151E+00  0.528E-01  0.491E-01  0.491E-01
  10.890  0.183E+00  0.652E-01  0.591E-01  0.591E-01
  10.900  0.195E+00  0.698E-01  0.625E-01  0.625E-01
  10.910  0.191E+00  0.678E-01  0.616E-01  0.616E-01
  10.920  0.216E+00  0.758E-01  0.701E-01  0.701E-01
  10.930  0.281E+00  0.973E-01  0.919E-01  0.919E-01
  10.940  0.274E+00  0.945E-01  0.899E-01  0.899E-01
  10.950  0.291E+00  0.988E-01  0.962E-01  0.962E-01
  10.960  0.286E+00  0.955E-01  0.953E-01  0.953E-01
  10.970  0.260E+00  0.852E-01  0.875E-01  0.875E-01
  10.980  0.199E+00  0.676E-01  0.659E-01  0.659E-01
  10.990  0.187E+00  0.631E-01  0.621E-01  0.621E-01
  11.000  0.176E+00  0.598E-01  0.583E-01  0.583E-01
  11.010  0.162E+00  0.546E-01  0.536E-01  0.536E-01
  11.020  0.150E+00  0.502E-01  0.498E-01  0.498E-01
  11.030  0.137E+00  0.455E-01  0.460E-01  0.460E-01
  11.040  0.127E+00  0.417E-01  0.428E-01  0.428E-01
  11.050  0.119E+00  0.386E-01  0.403E-01  0.403E-01
  11.060  0.113E+00  0.362E-01  0.383E-01  0.383E-01
  11.070  0.108E+00  0.343E-01  0.368E-01  0.368E-01
  11.080  0.104E+00  0.329E-01  0.356E-01  0.356E-01
  11.090  0.101E+00  0.319E-01  0.348E-01  0.348E-01
  11.100  0.995E-01  0.311E-01  0.342E-01  0.342E-01
  11.110  0.980E-01  0.305E-01  0.338E-01  0.338E-01
  11.120  0.968E-01  0.299E-01  0.334E-01  0.334E-01
  11.130  0.957E-01  0.294E-01  0.332E-01  0.332E-01
  11.140  0.949E-01  0.290E-01  0.329E-01  0.329E-01
  11.150  0.942E-01  0.286E-01  0.328E-01  0.328E-01
  11.160  0.937E-01  0.283E-01  0.327E-01  0.327E-01
  11.170  0.934E-01  0.281E-01  0.326E-01  0.326E-01
  11.180  0.933E-01  0.280E-01  0.326E-01  0.326E-01
  11.190  0.933E-01  0.279E-01  0.327E-01  0.327E-01
  11.200  0.935E-01  0.278E-01  0.328E-01  0.328E-01
  11.210  0.938E-01  0.278E-01  0.330E-01  0.330E-01
  11.220  0.941E-01  0.279E-01  0.331E-01  0.331E-01
  11.230  0.946E-01  0.280E-01  0.333E-01  0.333E-01
  11.240  0.953E-01  0.282E-01  0.336E-01  0.336E-01
  11.250  0.962E-01  0.285E-01  0.339E-01  0.339E-01
  11.260  0.984E-01  0.292E-01  0.346E-01  0.346E-01
  11.270  0.107E+00  0.319E-01  0.375E-01  0.375E-01
  11.280  0.122E+00  0.368E-01  0.425E-01  0.425E-01
  11.290  0.144E+00  0.442E-01  0.501E-01  0.501E-01
  11.300  0.181E+00  0.561E-01  0.625E-01  0.625E-01
  11.310  0.238E+00  0.748E-01  0.814E-01  0.814E-01
  11.320  0.322E+00  0.104E+00  0.109E+00  0.109E+00
  11.330  0.441E+00  0.149E+00  0.146E+00  0.146E+00
  11.340  0.606E+00  0.225E+00  0.190E+00  0.190E+00
  11.350  0.530E+00  0.202E+00  0.164E+00  0.164E+00
  11.360  0.470E+00  0.166E+00  0.152E+00  0.152E+00
  11.370  0.517E+00  0.170E+00  0.173E+00  0.173E+00
  11.380  0.386E+00  0.121E+00  0.133E+00  0.133E+00
  11.390  0.314E+00  0.106E+00  0.104E+00  0.104E+00
  11.400  0.294E+00  0.103E+00  0.952E-01  0.952E-01
  11.410  0.283E+00  0.996E-01  0.917E-01  0.917E-01
  11.420  0.272E+00  0.953E-01  0.883E-01  0.883E-01
  11.430  0.259E+00  0.902E-01  0.844E-01  0.844E-01
  11.440  0.245E+00  0.844E-01  0.803E-01  0.803E-01
  11.450  0.230E+00  0.780E-01  0.759E-01  0.759E-01
  11.460  0.214E+00  0.712E-01  0.714E-01  0.714E-01
  11.470  0.210E+00  0.688E-01  0.705E-01  0.705E-01
  11.480  0.205E+00  0.660E-01  0.694E-01  0.694E-01
  11.490  0.195E+00  0.626E-01  0.664E-01  0.664E-01
  11.500  0.192E+00  0.618E-01  0.649E-01  0.649E-01
  11.510  0.197E+00  0.644E-01  0.663E-01  0.663E-01
  11.520  0.207E+00  0.682E-01  0.692E-01  0.692E-01
  11.530  0.216E+00  0.720E-01  0.722E-01  0.722E-01
  11.540  0.226E+00  0.757E-01  0.752E-01  0.752E-01
  11.550  0.236E+00  0.792E-01  0.784E-01  0.784E-01
  11.560  0.246E+00  0.825E-01  0.818E-01  0.818E-01
  11.570  0.258E+00  0.861E-01  0.860E-01  0.860E-01
  11.580  0.269E+00  0.893E-01  0.899E-01  0.899E-01
  11.590  0.280E+00  0.924E-01  0.940E-01  0.940E-01
  11.600  0.291E+00  0.950E-01  0.980E-01  0.980E-01
  11.610  0.298E+00  0.994E-01  0.994E-01  0.994E-01
  11.620  0.295E+00  0.998E-01  0.975E-01  0.975E-01
  11.630  0.282E+00  0.957E-01  0.930E-01  0.930E-01
  11.640  0.262E+00  0.888E-01  0.868E-01  0.868E-01
  11.650  0.241E+00  0.805E-01  0.801E-01  0.801E-01
  11.660  0.224E+00  0.740E-01  0.748E-01  0.748E-01
  11.670  0.211E+00  0.695E-01  0.705E-01  0.705E-01
  11.680  0.199E+00  0.657E-01  0.666E-01  0.666E-01
  11.690  0.194E+00  0.634E-01  0.651E-01  0.651E-01
  11.700  0.203E+00  0.638E-01  0.698E-01  0.698E-01
  11.710  0.206E+00  0.626E-01  0.718E-01  0.718E-01
  11.720  0.204E+00  0.610E-01  0.713E-01  0.713E-01
  11.730  0.201E+00  0.600E-01  0.703E-01  0.703E-01
  11.740  0.194E+00  0.581E-01  0.679E-01  0.679E-01
  11.750  0.184E+00  0.553E-01  0.644E-01  0.644E-01
  11.760  0.174E+00  0.524E-01  0.608E-01  0.608E-01
  11.770  0.171E+00  0.515E-01  0.595E-01  0.595E-01
  11.780  0.166E+00  0.505E-01  0.576E-01  0.576E-01
  11.790  0.159E+00  0.493E-01  0.551E-01  0.551E-01
  11.800  0.152E+00  0.477E-01  0.521E-01  0.521E-01
  11.810  0.143E+00  0.454E-01  0.486E-01  0.486E-01
  11.820  0.132E+00  0.423E-01  0.448E-01  0.448E-01
  11.830  0.125E+00  0.408E-01  0.422E-01  0.422E-01
  11.840  0.117E+00  0.386E-01  0.391E-01  0.391E-01
  11.850  0.110E+00  0.367E-01  0.365E-01  0.365E-01
  11.860  0.101E+00  0.343E-01  0.336E-01  0.336E-01
  11.870  0.925E-01  0.313E-01  0.306E-01  0.306E-01
  11.880  0.870E-01  0.298E-01  0.286E-01  0.286E-01
  11.890  0.840E-01  0.292E-01  0.274E-01  0.274E-01
  11.900  0.859E-01  0.299E-01  0.280E-01  0.280E-01
  11.910  0.909E-01  0.320E-01  0.294E-01  0.294E-01
  11.920  0.946E-01  0.342E-01  0.302E-01  0.302E-01
  11.930  0.972E-01  0.362E-01  0.305E-01  0.305E-01
  11.940  0.907E-01  0.340E-01  0.284E-01  0.284E-01
  11.950  0.686E-01  0.249E-01  0.218E-01  0.218E-01
  11.960  0.558E-01  0.196E-01  0.181E-01  0.181E-01
  11.970  0.512E-01  0.178E-01  0.167E-01  0.167E-01
  11.980  0.462E-01  0.159E-01  0.151E-01  0.151E-01
  11.990  0.404E-01  0.139E-01  0.132E-01  0.132E-01
  12.000  0.345E-01  0.119E-01  0.113E-01  0.113E-01
  12.010  0.293E-01  0.101E-01  0.960E-02  0.960E-02
