#  E (eV)   dosup(E)     dosdw(E)   Int dos(E) EFermi =    6.017 eV
 -15.000  0.0000E+00  0.0000E+00  0.8000E+01
 -14.990  0.0000E+00  0.0000E+00  0.8000E+01
 -14.980  0.0000E+00  0.0000E+00  0.8000E+01
 -14.970  0.0000E+00  0.0000E+00  0.8000E+01
 -14.960  0.0000E+00  0.0000E+00  0.8000E+01
 -14.950  0.0000E+00  0.0000E+00  0.8000E+01
 -14.940  0.0000E+00  0.0000E+00  0.8000E+01
 -14.930  0.0000E+00  0.0000E+00  0.8000E+01
 -14.920  0.0000E+00  0.0000E+00  0.8000E+01
 -14.910  0.0000E+00  0.0000E+00  0.8000E+01
 -14.900  0.0000E+00  0.0000E+00  0.8000E+01
 -14.890  0.0000E+00  0.0000E+00  0.8000E+01
 -14.880  0.0000E+00  0.0000E+00  0.8000E+01
 -14.870  0.0000E+00  0.0000E+00  0.8000E+01
 -14.860  0.0000E+00  0.0000E+00  0.8000E+01
 -14.850  0.0000E+00  0.0000E+00  0.8000E+01
 -14.840  0.0000E+00  0.0000E+00  0.8000E+01
 -14.830  0.0000E+00  0.0000E+00  0.8000E+01
 -14.820  0.0000E+00  0.0000E+00  0.8000E+01
 -14.810  0.0000E+00  0.0000E+00  0.8000E+01
 -14.800  0.0000E+00  0.0000E+00  0.8000E+01
 -14.790  0.0000E+00  0.0000E+00  0.8000E+01
 -14.780  0.0000E+00  0.0000E+00  0.8000E+01
 -14.770  0.0000E+00  0.0000E+00  0.8000E+01
 -14.760  0.0000E+00  0.0000E+00  0.8000E+01
 -14.750  0.0000E+00  0.0000E+00  0.8000E+01
 -14.740  0.0000E+00  0.0000E+00  0.8000E+01
 -14.730  0.0000E+00  0.0000E+00  0.8000E+01
 -14.720  0.0000E+00  0.0000E+00  0.8000E+01
 -14.710  0.0000E+00  0.0000E+00  0.8000E+01
 -14.700  0.0000E+00  0.0000E+00  0.8000E+01
 -14.690  0.0000E+00  0.0000E+00  0.8000E+01
 -14.680  0.0000E+00  0.0000E+00  0.8000E+01
 -14.670  0.0000E+00  0.0000E+00  0.8000E+01
 -14.660  0.0000E+00  0.0000E+00  0.8000E+01
 -14.650  0.0000E+00  0.0000E+00  0.8000E+01
 -14.640  0.0000E+00  0.0000E+00  0.8000E+01
 -14.630  0.0000E+00  0.0000E+00  0.8000E+01
 -14.620  0.0000E+00  0.0000E+00  0.8000E+01
 -14.610  0.0000E+00  0.0000E+00  0.8000E+01
 -14.600  0.0000E+00  0.0000E+00  0.8000E+01
 -14.590  0.0000E+00  0.0000E+00  0.8000E+01
 -14.580  0.0000E+00  0.0000E+00  0.8000E+01
 -14.570  0.0000E+00  0.0000E+00  0.8000E+01
 -14.560  0.0000E+00  0.0000E+00  0.8000E+01
 -14.550  0.0000E+00  0.0000E+00  0.8000E+01
 -14.540  0.0000E+00  0.0000E+00  0.8000E+01
 -14.530  0.0000E+00  0.0000E+00  0.8000E+01
 -14.520  0.0000E+00  0.0000E+00  0.8000E+01
 -14.510  0.0000E+00  0.0000E+00  0.8000E+01
 -14.500  0.0000E+00  0.0000E+00  0.8000E+01
 -14.490  0.0000E+00  0.0000E+00  0.8000E+01
 -14.480  0.0000E+00  0.0000E+00  0.8000E+01
 -14.470  0.0000E+00  0.0000E+00  0.8000E+01
 -14.460  0.0000E+00  0.0000E+00  0.8000E+01
 -14.450  0.0000E+00  0.0000E+00  0.8000E+01
 -14.440  0.0000E+00  0.0000E+00  0.8000E+01
 -14.430  0.0000E+00  0.0000E+00  0.8000E+01
 -14.420  0.0000E+00  0.0000E+00  0.8000E+01
 -14.410  0.0000E+00  0.0000E+00  0.8000E+01
 -14.400  0.0000E+00  0.0000E+00  0.8000E+01
 -14.390  0.0000E+00  0.0000E+00  0.8000E+01
 -14.380  0.0000E+00  0.0000E+00  0.8000E+01
 -14.370  0.0000E+00  0.0000E+00  0.8000E+01
 -14.360  0.0000E+00  0.0000E+00  0.8000E+01
 -14.350  0.0000E+00  0.0000E+00  0.8000E+01
 -14.340  0.0000E+00  0.0000E+00  0.8000E+01
 -14.330  0.0000E+00  0.0000E+00  0.8000E+01
 -14.320  0.0000E+00  0.0000E+00  0.8000E+01
 -14.310  0.0000E+00  0.0000E+00  0.8000E+01
 -14.300  0.0000E+00  0.0000E+00  0.8000E+01
 -14.290  0.0000E+00  0.0000E+00  0.8000E+01
 -14.280  0.0000E+00  0.0000E+00  0.8000E+01
 -14.270  0.0000E+00  0.0000E+00  0.8000E+01
 -14.260  0.0000E+00  0.0000E+00  0.8000E+01
 -14.250  0.0000E+00  0.0000E+00  0.8000E+01
 -14.240  0.0000E+00  0.0000E+00  0.8000E+01
 -14.230  0.0000E+00  0.0000E+00  0.8000E+01
 -14.220  0.0000E+00  0.0000E+00  0.8000E+01
 -14.210  0.0000E+00  0.0000E+00  0.8000E+01
 -14.200  0.0000E+00  0.0000E+00  0.8000E+01
 -14.190  0.0000E+00  0.0000E+00  0.8000E+01
 -14.180  0.0000E+00  0.0000E+00  0.8000E+01
 -14.170  0.0000E+00  0.0000E+00  0.8000E+01
 -14.160  0.0000E+00  0.0000E+00  0.8000E+01
 -14.150  0.0000E+00  0.0000E+00  0.8000E+01
 -14.140  0.0000E+00  0.0000E+00  0.8000E+01
 -14.130  0.0000E+00  0.0000E+00  0.8000E+01
 -14.120  0.0000E+00  0.0000E+00  0.8000E+01
 -14.110  0.0000E+00  0.0000E+00  0.8000E+01
 -14.100  0.0000E+00  0.0000E+00  0.8000E+01
 -14.090  0.0000E+00  0.0000E+00  0.8000E+01
 -14.080  0.0000E+00  0.0000E+00  0.8000E+01
 -14.070  0.0000E+00  0.0000E+00  0.8000E+01
 -14.060  0.0000E+00  0.0000E+00  0.8000E+01
 -14.050  0.0000E+00  0.0000E+00  0.8000E+01
 -14.040  0.0000E+00  0.0000E+00  0.8000E+01
 -14.030  0.0000E+00  0.0000E+00  0.8000E+01
 -14.020  0.0000E+00  0.0000E+00  0.8000E+01
 -14.010  0.0000E+00  0.0000E+00  0.8000E+01
 -14.000  0.0000E+00  0.0000E+00  0.8000E+01
 -13.990  0.0000E+00  0.0000E+00  0.8000E+01
 -13.980  0.0000E+00  0.0000E+00  0.8000E+01
 -13.970  0.0000E+00  0.0000E+00  0.8000E+01
 -13.960  0.0000E+00  0.0000E+00  0.8000E+01
 -13.950  0.0000E+00  0.0000E+00  0.8000E+01
 -13.940  0.0000E+00  0.0000E+00  0.8000E+01
 -13.930  0.0000E+00  0.0000E+00  0.8000E+01
 -13.920  0.0000E+00  0.0000E+00  0.8000E+01
 -13.910  0.0000E+00  0.0000E+00  0.8000E+01
 -13.900  0.0000E+00  0.0000E+00  0.8000E+01
 -13.890  0.0000E+00  0.0000E+00  0.8000E+01
 -13.880  0.0000E+00  0.0000E+00  0.8000E+01
 -13.870  0.0000E+00  0.0000E+00  0.8000E+01
 -13.860  0.0000E+00  0.0000E+00  0.8000E+01
 -13.850  0.0000E+00  0.0000E+00  0.8000E+01
 -13.840  0.0000E+00  0.0000E+00  0.8000E+01
 -13.830  0.0000E+00  0.0000E+00  0.8000E+01
 -13.820  0.0000E+00  0.0000E+00  0.8000E+01
 -13.810  0.0000E+00  0.0000E+00  0.8000E+01
 -13.800  0.0000E+00  0.0000E+00  0.8000E+01
 -13.790  0.0000E+00  0.0000E+00  0.8000E+01
 -13.780  0.0000E+00  0.0000E+00  0.8000E+01
 -13.770  0.0000E+00  0.0000E+00  0.8000E+01
 -13.760  0.0000E+00  0.0000E+00  0.8000E+01
 -13.750  0.0000E+00  0.0000E+00  0.8000E+01
 -13.740  0.0000E+00  0.0000E+00  0.8000E+01
 -13.730  0.0000E+00  0.0000E+00  0.8000E+01
 -13.720  0.0000E+00  0.0000E+00  0.8000E+01
 -13.710  0.0000E+00  0.0000E+00  0.8000E+01
 -13.700  0.0000E+00  0.0000E+00  0.8000E+01
 -13.690  0.0000E+00  0.0000E+00  0.8000E+01
 -13.680  0.0000E+00  0.0000E+00  0.8000E+01
 -13.670  0.0000E+00  0.0000E+00  0.8000E+01
 -13.660  0.0000E+00  0.0000E+00  0.8000E+01
 -13.650  0.0000E+00  0.0000E+00  0.8000E+01
 -13.640  0.0000E+00  0.0000E+00  0.8000E+01
 -13.630  0.0000E+00  0.0000E+00  0.8000E+01
 -13.620  0.0000E+00  0.0000E+00  0.8000E+01
 -13.610  0.0000E+00  0.0000E+00  0.8000E+01
 -13.600  0.0000E+00  0.0000E+00  0.8000E+01
 -13.590  0.0000E+00  0.0000E+00  0.8000E+01
 -13.580  0.0000E+00  0.0000E+00  0.8000E+01
 -13.570  0.0000E+00  0.0000E+00  0.8000E+01
 -13.560  0.0000E+00  0.0000E+00  0.8000E+01
 -13.550  0.0000E+00  0.0000E+00  0.8000E+01
 -13.540  0.0000E+00  0.0000E+00  0.8000E+01
 -13.530  0.0000E+00  0.0000E+00  0.8000E+01
 -13.520  0.0000E+00  0.0000E+00  0.8000E+01
 -13.510  0.0000E+00  0.0000E+00  0.8000E+01
 -13.500  0.0000E+00  0.0000E+00  0.8000E+01
 -13.490  0.0000E+00  0.0000E+00  0.8000E+01
 -13.480  0.0000E+00  0.0000E+00  0.8000E+01
 -13.470  0.0000E+00  0.0000E+00  0.8000E+01
 -13.460  0.0000E+00  0.0000E+00  0.8000E+01
 -13.450  0.0000E+00  0.0000E+00  0.8000E+01
 -13.440  0.0000E+00  0.0000E+00  0.8000E+01
 -13.430  0.0000E+00  0.0000E+00  0.8000E+01
 -13.420  0.0000E+00  0.0000E+00  0.8000E+01
 -13.410  0.0000E+00  0.0000E+00  0.8000E+01
 -13.400  0.0000E+00  0.0000E+00  0.8000E+01
 -13.390  0.0000E+00  0.0000E+00  0.8000E+01
 -13.380  0.0000E+00  0.0000E+00  0.8000E+01
 -13.370  0.0000E+00  0.0000E+00  0.8000E+01
 -13.360  0.0000E+00  0.0000E+00  0.8000E+01
 -13.350  0.0000E+00  0.0000E+00  0.8000E+01
 -13.340  0.0000E+00  0.0000E+00  0.8000E+01
 -13.330  0.0000E+00  0.0000E+00  0.8000E+01
 -13.320  0.0000E+00  0.0000E+00  0.8000E+01
 -13.310  0.0000E+00  0.0000E+00  0.8000E+01
 -13.300  0.0000E+00  0.0000E+00  0.8000E+01
 -13.290  0.0000E+00  0.0000E+00  0.8000E+01
 -13.280  0.0000E+00  0.0000E+00  0.8000E+01
 -13.270  0.0000E+00  0.0000E+00  0.8000E+01
 -13.260  0.0000E+00  0.0000E+00  0.8000E+01
 -13.250  0.0000E+00  0.0000E+00  0.8000E+01
 -13.240  0.0000E+00  0.0000E+00  0.8000E+01
 -13.230  0.0000E+00  0.0000E+00  0.8000E+01
 -13.220  0.0000E+00  0.0000E+00  0.8000E+01
 -13.210  0.0000E+00  0.0000E+00  0.8000E+01
 -13.200  0.0000E+00  0.0000E+00  0.8000E+01
 -13.190  0.0000E+00  0.0000E+00  0.8000E+01
 -13.180  0.0000E+00  0.0000E+00  0.8000E+01
 -13.170  0.0000E+00  0.0000E+00  0.8000E+01
 -13.160  0.0000E+00  0.0000E+00  0.8000E+01
 -13.150  0.0000E+00  0.0000E+00  0.8000E+01
 -13.140  0.0000E+00  0.0000E+00  0.8000E+01
 -13.130  0.0000E+00  0.0000E+00  0.8000E+01
 -13.120  0.0000E+00  0.0000E+00  0.8000E+01
 -13.110  0.0000E+00  0.0000E+00  0.8000E+01
 -13.100  0.0000E+00  0.0000E+00  0.8000E+01
 -13.090  0.0000E+00  0.0000E+00  0.8000E+01
 -13.080  0.0000E+00  0.0000E+00  0.8000E+01
 -13.070  0.0000E+00  0.0000E+00  0.8000E+01
 -13.060  0.0000E+00  0.0000E+00  0.8000E+01
 -13.050  0.0000E+00  0.0000E+00  0.8000E+01
 -13.040  0.0000E+00  0.0000E+00  0.8000E+01
 -13.030  0.0000E+00  0.0000E+00  0.8000E+01
 -13.020  0.0000E+00  0.0000E+00  0.8000E+01
 -13.010  0.0000E+00  0.0000E+00  0.8000E+01
 -13.000  0.0000E+00  0.0000E+00  0.8000E+01
 -12.990  0.0000E+00  0.0000E+00  0.8000E+01
 -12.980  0.0000E+00  0.0000E+00  0.8000E+01
 -12.970  0.0000E+00  0.0000E+00  0.8000E+01
 -12.960  0.0000E+00  0.0000E+00  0.8000E+01
 -12.950  0.0000E+00  0.0000E+00  0.8000E+01
 -12.940  0.0000E+00  0.0000E+00  0.8000E+01
 -12.930  0.0000E+00  0.0000E+00  0.8000E+01
 -12.920  0.0000E+00  0.0000E+00  0.8000E+01
 -12.910  0.0000E+00  0.0000E+00  0.8000E+01
 -12.900  0.0000E+00  0.0000E+00  0.8000E+01
 -12.890  0.0000E+00  0.0000E+00  0.8000E+01
 -12.880  0.0000E+00  0.0000E+00  0.8000E+01
 -12.870  0.0000E+00  0.0000E+00  0.8000E+01
 -12.860  0.0000E+00  0.0000E+00  0.8000E+01
 -12.850  0.0000E+00  0.0000E+00  0.8000E+01
 -12.840  0.0000E+00  0.0000E+00  0.8000E+01
 -12.830  0.0000E+00  0.0000E+00  0.8000E+01
 -12.820  0.0000E+00  0.0000E+00  0.8000E+01
 -12.810  0.0000E+00  0.0000E+00  0.8000E+01
 -12.800  0.0000E+00  0.0000E+00  0.8000E+01
 -12.790  0.0000E+00  0.0000E+00  0.8000E+01
 -12.780  0.0000E+00  0.0000E+00  0.8000E+01
 -12.770  0.0000E+00  0.0000E+00  0.8000E+01
 -12.760  0.0000E+00  0.0000E+00  0.8000E+01
 -12.750  0.0000E+00  0.0000E+00  0.8000E+01
 -12.740  0.0000E+00  0.0000E+00  0.8000E+01
 -12.730  0.0000E+00  0.0000E+00  0.8000E+01
 -12.720  0.0000E+00  0.0000E+00  0.8000E+01
 -12.710  0.0000E+00  0.0000E+00  0.8000E+01
 -12.700  0.0000E+00  0.0000E+00  0.8000E+01
 -12.690  0.0000E+00  0.0000E+00  0.8000E+01
 -12.680  0.0000E+00  0.0000E+00  0.8000E+01
 -12.670  0.0000E+00  0.0000E+00  0.8000E+01
 -12.660  0.0000E+00  0.0000E+00  0.8000E+01
 -12.650  0.0000E+00  0.0000E+00  0.8000E+01
 -12.640  0.0000E+00  0.0000E+00  0.8000E+01
 -12.630  0.0000E+00  0.0000E+00  0.8000E+01
 -12.620  0.0000E+00  0.0000E+00  0.8000E+01
 -12.610  0.0000E+00  0.0000E+00  0.8000E+01
 -12.600  0.0000E+00  0.0000E+00  0.8000E+01
 -12.590  0.0000E+00  0.0000E+00  0.8000E+01
 -12.580  0.0000E+00  0.0000E+00  0.8000E+01
 -12.570  0.0000E+00  0.0000E+00  0.8000E+01
 -12.560  0.0000E+00  0.0000E+00  0.8000E+01
 -12.550  0.0000E+00  0.0000E+00  0.8000E+01
 -12.540  0.0000E+00  0.0000E+00  0.8000E+01
 -12.530  0.0000E+00  0.0000E+00  0.8000E+01
 -12.520  0.0000E+00  0.0000E+00  0.8000E+01
 -12.510  0.0000E+00  0.0000E+00  0.8000E+01
 -12.500  0.0000E+00  0.0000E+00  0.8000E+01
 -12.490  0.0000E+00  0.0000E+00  0.8000E+01
 -12.480  0.0000E+00  0.0000E+00  0.8000E+01
 -12.470  0.0000E+00  0.0000E+00  0.8000E+01
 -12.460  0.0000E+00  0.0000E+00  0.8000E+01
 -12.450  0.0000E+00  0.0000E+00  0.8000E+01
 -12.440  0.0000E+00  0.0000E+00  0.8000E+01
 -12.430  0.0000E+00  0.0000E+00  0.8000E+01
 -12.420  0.0000E+00  0.0000E+00  0.8000E+01
 -12.410  0.0000E+00  0.0000E+00  0.8000E+01
 -12.400  0.0000E+00  0.0000E+00  0.8000E+01
 -12.390  0.0000E+00  0.0000E+00  0.8000E+01
 -12.380  0.0000E+00  0.0000E+00  0.8000E+01
 -12.370  0.0000E+00  0.0000E+00  0.8000E+01
 -12.360  0.0000E+00  0.0000E+00  0.8000E+01
 -12.350  0.0000E+00  0.0000E+00  0.8000E+01
 -12.340  0.0000E+00  0.0000E+00  0.8000E+01
 -12.330  0.0000E+00  0.0000E+00  0.8000E+01
 -12.320  0.0000E+00  0.0000E+00  0.8000E+01
 -12.310  0.0000E+00  0.0000E+00  0.8000E+01
 -12.300  0.0000E+00  0.0000E+00  0.8000E+01
 -12.290  0.0000E+00  0.0000E+00  0.8000E+01
 -12.280  0.0000E+00  0.0000E+00  0.8000E+01
 -12.270  0.0000E+00  0.0000E+00  0.8000E+01
 -12.260  0.0000E+00  0.0000E+00  0.8000E+01
 -12.250  0.0000E+00  0.0000E+00  0.8000E+01
 -12.240  0.0000E+00  0.0000E+00  0.8000E+01
 -12.230  0.0000E+00  0.0000E+00  0.8000E+01
 -12.220  0.0000E+00  0.0000E+00  0.8000E+01
 -12.210  0.0000E+00  0.0000E+00  0.8000E+01
 -12.200  0.0000E+00  0.0000E+00  0.8000E+01
 -12.190  0.0000E+00  0.0000E+00  0.8000E+01
 -12.180  0.0000E+00  0.0000E+00  0.8000E+01
 -12.170  0.0000E+00  0.0000E+00  0.8000E+01
 -12.160  0.0000E+00  0.0000E+00  0.8000E+01
 -12.150  0.0000E+00  0.0000E+00  0.8000E+01
 -12.140  0.0000E+00  0.0000E+00  0.8000E+01
 -12.130  0.0000E+00  0.0000E+00  0.8000E+01
 -12.120  0.0000E+00  0.0000E+00  0.8000E+01
 -12.110  0.0000E+00  0.0000E+00  0.8000E+01
 -12.100  0.0000E+00  0.0000E+00  0.8000E+01
 -12.090  0.0000E+00  0.0000E+00  0.8000E+01
 -12.080  0.0000E+00  0.0000E+00  0.8000E+01
 -12.070  0.0000E+00  0.0000E+00  0.8000E+01
 -12.060  0.0000E+00  0.0000E+00  0.8000E+01
 -12.050  0.0000E+00  0.0000E+00  0.8000E+01
 -12.040  0.0000E+00  0.0000E+00  0.8000E+01
 -12.030  0.0000E+00  0.0000E+00  0.8000E+01
 -12.020  0.0000E+00  0.0000E+00  0.8000E+01
 -12.010  0.0000E+00  0.0000E+00  0.8000E+01
 -12.000  0.0000E+00  0.0000E+00  0.8000E+01
 -11.990  0.0000E+00  0.0000E+00  0.8000E+01
 -11.980  0.0000E+00  0.0000E+00  0.8000E+01
 -11.970  0.0000E+00  0.0000E+00  0.8000E+01
 -11.960  0.0000E+00  0.0000E+00  0.8000E+01
 -11.950  0.0000E+00  0.0000E+00  0.8000E+01
 -11.940  0.0000E+00  0.0000E+00  0.8000E+01
 -11.930  0.0000E+00  0.0000E+00  0.8000E+01
 -11.920  0.0000E+00  0.0000E+00  0.8000E+01
 -11.910  0.0000E+00  0.0000E+00  0.8000E+01
 -11.900  0.0000E+00  0.0000E+00  0.8000E+01
 -11.890  0.0000E+00  0.0000E+00  0.8000E+01
 -11.880  0.0000E+00  0.0000E+00  0.8000E+01
 -11.870  0.0000E+00  0.0000E+00  0.8000E+01
 -11.860  0.0000E+00  0.0000E+00  0.8000E+01
 -11.850  0.0000E+00  0.0000E+00  0.8000E+01
 -11.840  0.0000E+00  0.0000E+00  0.8000E+01
 -11.830  0.0000E+00  0.0000E+00  0.8000E+01
 -11.820  0.0000E+00  0.0000E+00  0.8000E+01
 -11.810  0.0000E+00  0.0000E+00  0.8000E+01
 -11.800  0.0000E+00  0.0000E+00  0.8000E+01
 -11.790  0.0000E+00  0.0000E+00  0.8000E+01
 -11.780  0.0000E+00  0.0000E+00  0.8000E+01
 -11.770  0.0000E+00  0.0000E+00  0.8000E+01
 -11.760  0.0000E+00  0.0000E+00  0.8000E+01
 -11.750  0.0000E+00  0.0000E+00  0.8000E+01
 -11.740  0.0000E+00  0.0000E+00  0.8000E+01
 -11.730  0.0000E+00  0.0000E+00  0.8000E+01
 -11.720  0.0000E+00  0.0000E+00  0.8000E+01
 -11.710  0.0000E+00  0.0000E+00  0.8000E+01
 -11.700  0.0000E+00  0.0000E+00  0.8000E+01
 -11.690  0.0000E+00  0.0000E+00  0.8000E+01
 -11.680  0.0000E+00  0.0000E+00  0.8000E+01
 -11.670  0.0000E+00  0.0000E+00  0.8000E+01
 -11.660  0.0000E+00  0.0000E+00  0.8000E+01
 -11.650  0.0000E+00  0.0000E+00  0.8000E+01
 -11.640  0.0000E+00  0.0000E+00  0.8000E+01
 -11.630  0.0000E+00  0.0000E+00  0.8000E+01
 -11.620  0.0000E+00  0.0000E+00  0.8000E+01
 -11.610  0.0000E+00  0.0000E+00  0.8000E+01
 -11.600  0.0000E+00  0.0000E+00  0.8000E+01
 -11.590  0.0000E+00  0.0000E+00  0.8000E+01
 -11.580  0.0000E+00  0.0000E+00  0.8000E+01
 -11.570  0.0000E+00  0.0000E+00  0.8000E+01
 -11.560  0.0000E+00  0.0000E+00  0.8000E+01
 -11.550  0.0000E+00  0.0000E+00  0.8000E+01
 -11.540  0.0000E+00  0.0000E+00  0.8000E+01
 -11.530  0.0000E+00  0.0000E+00  0.8000E+01
 -11.520  0.0000E+00  0.0000E+00  0.8000E+01
 -11.510  0.0000E+00  0.0000E+00  0.8000E+01
 -11.500  0.0000E+00  0.0000E+00  0.8000E+01
 -11.490  0.0000E+00  0.0000E+00  0.8000E+01
 -11.480  0.0000E+00  0.0000E+00  0.8000E+01
 -11.470  0.0000E+00  0.0000E+00  0.8000E+01
 -11.460  0.0000E+00  0.0000E+00  0.8000E+01
 -11.450  0.0000E+00  0.0000E+00  0.8000E+01
 -11.440  0.0000E+00  0.0000E+00  0.8000E+01
 -11.430  0.0000E+00  0.0000E+00  0.8000E+01
 -11.420  0.0000E+00  0.0000E+00  0.8000E+01
 -11.410  0.0000E+00  0.0000E+00  0.8000E+01
 -11.400  0.0000E+00  0.0000E+00  0.8000E+01
 -11.390  0.0000E+00  0.0000E+00  0.8000E+01
 -11.380  0.0000E+00  0.0000E+00  0.8000E+01
 -11.370  0.0000E+00  0.0000E+00  0.8000E+01
 -11.360  0.0000E+00  0.0000E+00  0.8000E+01
 -11.350  0.0000E+00  0.0000E+00  0.8000E+01
 -11.340  0.0000E+00  0.0000E+00  0.8000E+01
 -11.330  0.0000E+00  0.0000E+00  0.8000E+01
 -11.320  0.0000E+00  0.0000E+00  0.8000E+01
 -11.310  0.0000E+00  0.0000E+00  0.8000E+01
 -11.300  0.0000E+00  0.0000E+00  0.8000E+01
 -11.290  0.0000E+00  0.0000E+00  0.8000E+01
 -11.280  0.0000E+00  0.0000E+00  0.8000E+01
 -11.270  0.0000E+00  0.0000E+00  0.8000E+01
 -11.260  0.0000E+00  0.0000E+00  0.8000E+01
 -11.250  0.0000E+00  0.0000E+00  0.8000E+01
 -11.240  0.0000E+00  0.0000E+00  0.8000E+01
 -11.230  0.0000E+00  0.0000E+00  0.8000E+01
 -11.220  0.0000E+00  0.0000E+00  0.8000E+01
 -11.210  0.0000E+00  0.0000E+00  0.8000E+01
 -11.200  0.0000E+00  0.0000E+00  0.8000E+01
 -11.190  0.0000E+00  0.0000E+00  0.8000E+01
 -11.180  0.0000E+00  0.0000E+00  0.8000E+01
 -11.170  0.0000E+00  0.0000E+00  0.8000E+01
 -11.160  0.0000E+00  0.0000E+00  0.8000E+01
 -11.150  0.0000E+00  0.0000E+00  0.8000E+01
 -11.140  0.0000E+00  0.0000E+00  0.8000E+01
 -11.130  0.0000E+00  0.0000E+00  0.8000E+01
 -11.120  0.0000E+00  0.0000E+00  0.8000E+01
 -11.110  0.0000E+00  0.0000E+00  0.8000E+01
 -11.100  0.0000E+00  0.0000E+00  0.8000E+01
 -11.090  0.0000E+00  0.0000E+00  0.8000E+01
 -11.080  0.0000E+00  0.0000E+00  0.8000E+01
 -11.070  0.0000E+00  0.0000E+00  0.8000E+01
 -11.060  0.0000E+00  0.0000E+00  0.8000E+01
 -11.050  0.0000E+00  0.0000E+00  0.8000E+01
 -11.040  0.0000E+00  0.0000E+00  0.8000E+01
 -11.030  0.0000E+00  0.0000E+00  0.8000E+01
 -11.020  0.0000E+00  0.0000E+00  0.8000E+01
 -11.010  0.0000E+00  0.0000E+00  0.8000E+01
 -11.000  0.0000E+00  0.0000E+00  0.8000E+01
 -10.990  0.0000E+00  0.0000E+00  0.8000E+01
 -10.980  0.0000E+00  0.0000E+00  0.8000E+01
 -10.970  0.0000E+00  0.0000E+00  0.8000E+01
 -10.960  0.0000E+00  0.0000E+00  0.8000E+01
 -10.950  0.0000E+00  0.0000E+00  0.8000E+01
 -10.940  0.0000E+00  0.0000E+00  0.8000E+01
 -10.930  0.0000E+00  0.0000E+00  0.8000E+01
 -10.920  0.0000E+00  0.0000E+00  0.8000E+01
 -10.910  0.0000E+00  0.0000E+00  0.8000E+01
 -10.900  0.0000E+00  0.0000E+00  0.8000E+01
 -10.890  0.0000E+00  0.0000E+00  0.8000E+01
 -10.880  0.0000E+00  0.0000E+00  0.8000E+01
 -10.870  0.0000E+00  0.0000E+00  0.8000E+01
 -10.860  0.0000E+00  0.0000E+00  0.8000E+01
 -10.850  0.0000E+00  0.0000E+00  0.8000E+01
 -10.840  0.0000E+00  0.0000E+00  0.8000E+01
 -10.830  0.0000E+00  0.0000E+00  0.8000E+01
 -10.820  0.0000E+00  0.0000E+00  0.8000E+01
 -10.810  0.0000E+00  0.0000E+00  0.8000E+01
 -10.800  0.0000E+00  0.0000E+00  0.8000E+01
 -10.790  0.0000E+00  0.0000E+00  0.8000E+01
 -10.780  0.0000E+00  0.0000E+00  0.8000E+01
 -10.770  0.0000E+00  0.0000E+00  0.8000E+01
 -10.760  0.0000E+00  0.0000E+00  0.8000E+01
 -10.750  0.0000E+00  0.0000E+00  0.8000E+01
 -10.740  0.0000E+00  0.0000E+00  0.8000E+01
 -10.730  0.0000E+00  0.0000E+00  0.8000E+01
 -10.720  0.0000E+00  0.0000E+00  0.8000E+01
 -10.710  0.0000E+00  0.0000E+00  0.8000E+01
 -10.700  0.0000E+00  0.0000E+00  0.8000E+01
 -10.690  0.0000E+00  0.0000E+00  0.8000E+01
 -10.680  0.0000E+00  0.0000E+00  0.8000E+01
 -10.670  0.0000E+00  0.0000E+00  0.8000E+01
 -10.660  0.0000E+00  0.0000E+00  0.8000E+01
 -10.650  0.0000E+00  0.0000E+00  0.8000E+01
 -10.640  0.0000E+00  0.0000E+00  0.8000E+01
 -10.630  0.0000E+00  0.0000E+00  0.8000E+01
 -10.620  0.0000E+00  0.0000E+00  0.8000E+01
 -10.610  0.0000E+00  0.0000E+00  0.8000E+01
 -10.600  0.0000E+00  0.0000E+00  0.8000E+01
 -10.590  0.0000E+00  0.0000E+00  0.8000E+01
 -10.580  0.0000E+00  0.0000E+00  0.8000E+01
 -10.570  0.0000E+00  0.0000E+00  0.8000E+01
 -10.560  0.0000E+00  0.0000E+00  0.8000E+01
 -10.550  0.0000E+00  0.0000E+00  0.8000E+01
 -10.540  0.0000E+00  0.0000E+00  0.8000E+01
 -10.530  0.0000E+00  0.0000E+00  0.8000E+01
 -10.520  0.0000E+00  0.0000E+00  0.8000E+01
 -10.510  0.0000E+00  0.0000E+00  0.8000E+01
 -10.500  0.0000E+00  0.0000E+00  0.8000E+01
 -10.490  0.0000E+00  0.0000E+00  0.8000E+01
 -10.480  0.0000E+00  0.0000E+00  0.8000E+01
 -10.470  0.0000E+00  0.0000E+00  0.8000E+01
 -10.460  0.0000E+00  0.0000E+00  0.8000E+01
 -10.450  0.0000E+00  0.0000E+00  0.8000E+01
 -10.440  0.0000E+00  0.0000E+00  0.8000E+01
 -10.430  0.0000E+00  0.0000E+00  0.8000E+01
 -10.420  0.0000E+00  0.0000E+00  0.8000E+01
 -10.410  0.0000E+00  0.0000E+00  0.8000E+01
 -10.400  0.0000E+00  0.0000E+00  0.8000E+01
 -10.390  0.0000E+00  0.0000E+00  0.8000E+01
 -10.380  0.0000E+00  0.0000E+00  0.8000E+01
 -10.370  0.0000E+00  0.0000E+00  0.8000E+01
 -10.360  0.0000E+00  0.0000E+00  0.8000E+01
 -10.350  0.0000E+00  0.0000E+00  0.8000E+01
 -10.340  0.0000E+00  0.0000E+00  0.8000E+01
 -10.330  0.0000E+00  0.0000E+00  0.8000E+01
 -10.320  0.0000E+00  0.0000E+00  0.8000E+01
 -10.310  0.0000E+00  0.0000E+00  0.8000E+01
 -10.300  0.0000E+00  0.0000E+00  0.8000E+01
 -10.290  0.0000E+00  0.0000E+00  0.8000E+01
 -10.280  0.0000E+00  0.0000E+00  0.8000E+01
 -10.270  0.0000E+00  0.0000E+00  0.8000E+01
 -10.260  0.0000E+00  0.0000E+00  0.8000E+01
 -10.250  0.0000E+00  0.0000E+00  0.8000E+01
 -10.240  0.0000E+00  0.0000E+00  0.8000E+01
 -10.230  0.0000E+00  0.0000E+00  0.8000E+01
 -10.220  0.0000E+00  0.0000E+00  0.8000E+01
 -10.210  0.0000E+00  0.0000E+00  0.8000E+01
 -10.200  0.0000E+00  0.0000E+00  0.8000E+01
 -10.190  0.0000E+00  0.0000E+00  0.8000E+01
 -10.180  0.0000E+00  0.0000E+00  0.8000E+01
 -10.170  0.0000E+00  0.0000E+00  0.8000E+01
 -10.160  0.0000E+00  0.0000E+00  0.8000E+01
 -10.150  0.0000E+00  0.0000E+00  0.8000E+01
 -10.140  0.0000E+00  0.0000E+00  0.8000E+01
 -10.130  0.0000E+00  0.0000E+00  0.8000E+01
 -10.120  0.0000E+00  0.0000E+00  0.8000E+01
 -10.110  0.0000E+00  0.0000E+00  0.8000E+01
 -10.100  0.0000E+00  0.0000E+00  0.8000E+01
 -10.090  0.0000E+00  0.0000E+00  0.8000E+01
 -10.080  0.0000E+00  0.0000E+00  0.8000E+01
 -10.070  0.0000E+00  0.0000E+00  0.8000E+01
 -10.060  0.0000E+00  0.0000E+00  0.8000E+01
 -10.050  0.0000E+00  0.0000E+00  0.8000E+01
 -10.040  0.0000E+00  0.0000E+00  0.8000E+01
 -10.030  0.0000E+00  0.0000E+00  0.8000E+01
 -10.020  0.0000E+00  0.0000E+00  0.8000E+01
 -10.010  0.0000E+00  0.0000E+00  0.8000E+01
 -10.000  0.0000E+00  0.0000E+00  0.8000E+01
  -9.990  0.0000E+00  0.0000E+00  0.8000E+01
  -9.980  0.0000E+00  0.0000E+00  0.8000E+01
  -9.970  0.0000E+00  0.0000E+00  0.8000E+01
  -9.960  0.0000E+00  0.0000E+00  0.8000E+01
  -9.950  0.0000E+00  0.0000E+00  0.8000E+01
  -9.940  0.0000E+00  0.0000E+00  0.8000E+01
  -9.930  0.0000E+00  0.0000E+00  0.8000E+01
  -9.920  0.0000E+00  0.0000E+00  0.8000E+01
  -9.910  0.0000E+00  0.0000E+00  0.8000E+01
  -9.900  0.0000E+00  0.0000E+00  0.8000E+01
  -9.890  0.0000E+00  0.0000E+00  0.8000E+01
  -9.880  0.0000E+00  0.0000E+00  0.8000E+01
  -9.870  0.0000E+00  0.0000E+00  0.8000E+01
  -9.860  0.0000E+00  0.0000E+00  0.8000E+01
  -9.850  0.0000E+00  0.0000E+00  0.8000E+01
  -9.840  0.0000E+00  0.0000E+00  0.8000E+01
  -9.830  0.0000E+00  0.0000E+00  0.8000E+01
  -9.820  0.0000E+00  0.0000E+00  0.8000E+01
  -9.810  0.0000E+00  0.0000E+00  0.8000E+01
  -9.800  0.0000E+00  0.0000E+00  0.8000E+01
  -9.790  0.0000E+00  0.0000E+00  0.8000E+01
  -9.780  0.0000E+00  0.0000E+00  0.8000E+01
  -9.770  0.0000E+00  0.0000E+00  0.8000E+01
  -9.760  0.0000E+00  0.0000E+00  0.8000E+01
  -9.750  0.0000E+00  0.0000E+00  0.8000E+01
  -9.740  0.0000E+00  0.0000E+00  0.8000E+01
  -9.730  0.0000E+00  0.0000E+00  0.8000E+01
  -9.720  0.0000E+00  0.0000E+00  0.8000E+01
  -9.710  0.0000E+00  0.0000E+00  0.8000E+01
  -9.700  0.0000E+00  0.0000E+00  0.8000E+01
  -9.690  0.0000E+00  0.0000E+00  0.8000E+01
  -9.680  0.0000E+00  0.0000E+00  0.8000E+01
  -9.670  0.0000E+00  0.0000E+00  0.8000E+01
  -9.660  0.0000E+00  0.0000E+00  0.8000E+01
  -9.650  0.0000E+00  0.0000E+00  0.8000E+01
  -9.640  0.0000E+00  0.0000E+00  0.8000E+01
  -9.630  0.0000E+00  0.0000E+00  0.8000E+01
  -9.620  0.0000E+00  0.0000E+00  0.8000E+01
  -9.610  0.0000E+00  0.0000E+00  0.8000E+01
  -9.600  0.0000E+00  0.0000E+00  0.8000E+01
  -9.590  0.0000E+00  0.0000E+00  0.8000E+01
  -9.580  0.0000E+00  0.0000E+00  0.8000E+01
  -9.570  0.0000E+00  0.0000E+00  0.8000E+01
  -9.560  0.0000E+00  0.0000E+00  0.8000E+01
  -9.550  0.0000E+00  0.0000E+00  0.8000E+01
  -9.540  0.0000E+00  0.0000E+00  0.8000E+01
  -9.530  0.0000E+00  0.0000E+00  0.8000E+01
  -9.520  0.0000E+00  0.0000E+00  0.8000E+01
  -9.510  0.0000E+00  0.0000E+00  0.8000E+01
  -9.500  0.0000E+00  0.0000E+00  0.8000E+01
  -9.490  0.0000E+00  0.0000E+00  0.8000E+01
  -9.480  0.0000E+00  0.0000E+00  0.8000E+01
  -9.470  0.0000E+00  0.0000E+00  0.8000E+01
  -9.460  0.0000E+00  0.0000E+00  0.8000E+01
  -9.450  0.0000E+00  0.0000E+00  0.8000E+01
  -9.440  0.0000E+00  0.0000E+00  0.8000E+01
  -9.430  0.0000E+00  0.0000E+00  0.8000E+01
  -9.420  0.0000E+00  0.0000E+00  0.8000E+01
  -9.410  0.0000E+00  0.0000E+00  0.8000E+01
  -9.400  0.0000E+00  0.0000E+00  0.8000E+01
  -9.390  0.0000E+00  0.0000E+00  0.8000E+01
  -9.380  0.0000E+00  0.0000E+00  0.8000E+01
  -9.370  0.0000E+00  0.0000E+00  0.8000E+01
  -9.360  0.0000E+00  0.0000E+00  0.8000E+01
  -9.350  0.0000E+00  0.0000E+00  0.8000E+01
  -9.340  0.0000E+00  0.0000E+00  0.8000E+01
  -9.330  0.0000E+00  0.0000E+00  0.8000E+01
  -9.320  0.0000E+00  0.0000E+00  0.8000E+01
  -9.310  0.0000E+00  0.0000E+00  0.8000E+01
  -9.300  0.0000E+00  0.0000E+00  0.8000E+01
  -9.290  0.0000E+00  0.0000E+00  0.8000E+01
  -9.280  0.0000E+00  0.0000E+00  0.8000E+01
  -9.270  0.0000E+00  0.0000E+00  0.8000E+01
  -9.260  0.0000E+00  0.0000E+00  0.8000E+01
  -9.250  0.0000E+00  0.0000E+00  0.8000E+01
  -9.240  0.0000E+00  0.0000E+00  0.8000E+01
  -9.230  0.0000E+00  0.0000E+00  0.8000E+01
  -9.220  0.0000E+00  0.0000E+00  0.8000E+01
  -9.210  0.0000E+00  0.0000E+00  0.8000E+01
  -9.200  0.0000E+00  0.0000E+00  0.8000E+01
  -9.190  0.0000E+00  0.0000E+00  0.8000E+01
  -9.180  0.0000E+00  0.0000E+00  0.8000E+01
  -9.170  0.0000E+00  0.0000E+00  0.8000E+01
  -9.160  0.0000E+00  0.0000E+00  0.8000E+01
  -9.150  0.0000E+00  0.0000E+00  0.8000E+01
  -9.140  0.0000E+00  0.0000E+00  0.8000E+01
  -9.130  0.0000E+00  0.0000E+00  0.8000E+01
  -9.120  0.0000E+00  0.0000E+00  0.8000E+01
  -9.110  0.0000E+00  0.0000E+00  0.8000E+01
  -9.100  0.0000E+00  0.0000E+00  0.8000E+01
  -9.090  0.0000E+00  0.0000E+00  0.8000E+01
  -9.080  0.0000E+00  0.0000E+00  0.8000E+01
  -9.070  0.0000E+00  0.0000E+00  0.8000E+01
  -9.060  0.0000E+00  0.0000E+00  0.8000E+01
  -9.050  0.0000E+00  0.0000E+00  0.8000E+01
  -9.040  0.0000E+00  0.0000E+00  0.8000E+01
  -9.030  0.0000E+00  0.0000E+00  0.8000E+01
  -9.020  0.0000E+00  0.0000E+00  0.8000E+01
  -9.010  0.0000E+00  0.0000E+00  0.8000E+01
  -9.000  0.0000E+00  0.0000E+00  0.8000E+01
  -8.990  0.0000E+00  0.0000E+00  0.8000E+01
  -8.980  0.0000E+00  0.0000E+00  0.8000E+01
  -8.970  0.0000E+00  0.0000E+00  0.8000E+01
  -8.960  0.0000E+00  0.0000E+00  0.8000E+01
  -8.950  0.0000E+00  0.0000E+00  0.8000E+01
  -8.940  0.0000E+00  0.0000E+00  0.8000E+01
  -8.930  0.0000E+00  0.0000E+00  0.8000E+01
  -8.920  0.0000E+00  0.0000E+00  0.8000E+01
  -8.910  0.0000E+00  0.0000E+00  0.8000E+01
  -8.900  0.0000E+00  0.0000E+00  0.8000E+01
  -8.890  0.0000E+00  0.0000E+00  0.8000E+01
  -8.880  0.0000E+00  0.0000E+00  0.8000E+01
  -8.870  0.0000E+00  0.0000E+00  0.8000E+01
  -8.860  0.0000E+00  0.0000E+00  0.8000E+01
  -8.850  0.0000E+00  0.0000E+00  0.8000E+01
  -8.840  0.0000E+00  0.0000E+00  0.8000E+01
  -8.830  0.0000E+00  0.0000E+00  0.8000E+01
  -8.820  0.0000E+00  0.0000E+00  0.8000E+01
  -8.810  0.0000E+00  0.0000E+00  0.8000E+01
  -8.800  0.0000E+00  0.0000E+00  0.8000E+01
  -8.790  0.0000E+00  0.0000E+00  0.8000E+01
  -8.780  0.0000E+00  0.0000E+00  0.8000E+01
  -8.770  0.0000E+00  0.0000E+00  0.8000E+01
  -8.760  0.0000E+00  0.0000E+00  0.8000E+01
  -8.750  0.0000E+00  0.0000E+00  0.8000E+01
  -8.740  0.0000E+00  0.0000E+00  0.8000E+01
  -8.730  0.0000E+00  0.0000E+00  0.8000E+01
  -8.720  0.0000E+00  0.0000E+00  0.8000E+01
  -8.710  0.0000E+00  0.0000E+00  0.8000E+01
  -8.700  0.0000E+00  0.0000E+00  0.8000E+01
  -8.690  0.0000E+00  0.0000E+00  0.8000E+01
  -8.680  0.0000E+00  0.0000E+00  0.8000E+01
  -8.670  0.0000E+00  0.0000E+00  0.8000E+01
  -8.660  0.0000E+00  0.0000E+00  0.8000E+01
  -8.650  0.0000E+00  0.0000E+00  0.8000E+01
  -8.640  0.0000E+00  0.0000E+00  0.8000E+01
  -8.630  0.0000E+00  0.0000E+00  0.8000E+01
  -8.620  0.0000E+00  0.0000E+00  0.8000E+01
  -8.610  0.0000E+00  0.0000E+00  0.8000E+01
  -8.600  0.0000E+00  0.0000E+00  0.8000E+01
  -8.590  0.0000E+00  0.0000E+00  0.8000E+01
  -8.580  0.0000E+00  0.0000E+00  0.8000E+01
  -8.570  0.0000E+00  0.0000E+00  0.8000E+01
  -8.560  0.0000E+00  0.0000E+00  0.8000E+01
  -8.550  0.0000E+00  0.0000E+00  0.8000E+01
  -8.540  0.0000E+00  0.0000E+00  0.8000E+01
  -8.530  0.0000E+00  0.0000E+00  0.8000E+01
  -8.520  0.0000E+00  0.0000E+00  0.8000E+01
  -8.510  0.0000E+00  0.0000E+00  0.8000E+01
  -8.500  0.0000E+00  0.0000E+00  0.8000E+01
  -8.490  0.0000E+00  0.0000E+00  0.8000E+01
  -8.480  0.0000E+00  0.0000E+00  0.8000E+01
  -8.470  0.0000E+00  0.0000E+00  0.8000E+01
  -8.460  0.0000E+00  0.0000E+00  0.8000E+01
  -8.450  0.0000E+00  0.0000E+00  0.8000E+01
  -8.440  0.0000E+00  0.0000E+00  0.8000E+01
  -8.430  0.0000E+00  0.0000E+00  0.8000E+01
  -8.420  0.0000E+00  0.0000E+00  0.8000E+01
  -8.410  0.0000E+00  0.0000E+00  0.8000E+01
  -8.400  0.0000E+00  0.0000E+00  0.8000E+01
  -8.390  0.0000E+00  0.0000E+00  0.8000E+01
  -8.380  0.0000E+00  0.0000E+00  0.8000E+01
  -8.370  0.0000E+00  0.0000E+00  0.8000E+01
  -8.360  0.0000E+00  0.0000E+00  0.8000E+01
  -8.350  0.0000E+00  0.0000E+00  0.8000E+01
  -8.340  0.0000E+00  0.0000E+00  0.8000E+01
  -8.330  0.0000E+00  0.0000E+00  0.8000E+01
  -8.320  0.0000E+00  0.0000E+00  0.8000E+01
  -8.310  0.0000E+00  0.0000E+00  0.8000E+01
  -8.300  0.0000E+00  0.0000E+00  0.8000E+01
  -8.290  0.0000E+00  0.0000E+00  0.8000E+01
  -8.280  0.0000E+00  0.0000E+00  0.8000E+01
  -8.270  0.0000E+00  0.0000E+00  0.8000E+01
  -8.260  0.0000E+00  0.0000E+00  0.8000E+01
  -8.250  0.0000E+00  0.0000E+00  0.8000E+01
  -8.240  0.0000E+00  0.0000E+00  0.8000E+01
  -8.230  0.0000E+00  0.0000E+00  0.8000E+01
  -8.220  0.0000E+00  0.0000E+00  0.8000E+01
  -8.210  0.0000E+00  0.0000E+00  0.8000E+01
  -8.200  0.0000E+00  0.0000E+00  0.8000E+01
  -8.190  0.0000E+00  0.0000E+00  0.8000E+01
  -8.180  0.0000E+00  0.0000E+00  0.8000E+01
  -8.170  0.0000E+00  0.0000E+00  0.8000E+01
  -8.160  0.0000E+00  0.0000E+00  0.8000E+01
  -8.150  0.0000E+00  0.0000E+00  0.8000E+01
  -8.140  0.0000E+00  0.0000E+00  0.8000E+01
  -8.130  0.0000E+00  0.0000E+00  0.8000E+01
  -8.120  0.0000E+00  0.0000E+00  0.8000E+01
  -8.110  0.0000E+00  0.0000E+00  0.8000E+01
  -8.100  0.0000E+00  0.0000E+00  0.8000E+01
  -8.090  0.0000E+00  0.0000E+00  0.8000E+01
  -8.080  0.0000E+00  0.0000E+00  0.8000E+01
  -8.070  0.0000E+00  0.0000E+00  0.8000E+01
  -8.060  0.0000E+00  0.0000E+00  0.8000E+01
  -8.050  0.0000E+00  0.0000E+00  0.8000E+01
  -8.040  0.0000E+00  0.0000E+00  0.8000E+01
  -8.030  0.0000E+00  0.0000E+00  0.8000E+01
  -8.020  0.0000E+00  0.0000E+00  0.8000E+01
  -8.010  0.0000E+00  0.0000E+00  0.8000E+01
  -8.000  0.0000E+00  0.0000E+00  0.8000E+01
  -7.990  0.0000E+00  0.0000E+00  0.8000E+01
  -7.980  0.0000E+00  0.0000E+00  0.8000E+01
  -7.970  0.0000E+00  0.0000E+00  0.8000E+01
  -7.960  0.0000E+00  0.0000E+00  0.8000E+01
  -7.950  0.0000E+00  0.0000E+00  0.8000E+01
  -7.940  0.0000E+00  0.0000E+00  0.8000E+01
  -7.930  0.0000E+00  0.0000E+00  0.8000E+01
  -7.920  0.0000E+00  0.0000E+00  0.8000E+01
  -7.910  0.0000E+00  0.0000E+00  0.8000E+01
  -7.900  0.0000E+00  0.0000E+00  0.8000E+01
  -7.890  0.0000E+00  0.0000E+00  0.8000E+01
  -7.880  0.0000E+00  0.0000E+00  0.8000E+01
  -7.870  0.0000E+00  0.0000E+00  0.8000E+01
  -7.860  0.0000E+00  0.0000E+00  0.8000E+01
  -7.850  0.0000E+00  0.0000E+00  0.8000E+01
  -7.840  0.0000E+00  0.0000E+00  0.8000E+01
  -7.830  0.0000E+00  0.0000E+00  0.8000E+01
  -7.820  0.0000E+00  0.0000E+00  0.8000E+01
  -7.810  0.0000E+00  0.0000E+00  0.8000E+01
  -7.800  0.0000E+00  0.0000E+00  0.8000E+01
  -7.790  0.0000E+00  0.0000E+00  0.8000E+01
  -7.780  0.0000E+00  0.0000E+00  0.8000E+01
  -7.770  0.0000E+00  0.0000E+00  0.8000E+01
  -7.760  0.0000E+00  0.0000E+00  0.8000E+01
  -7.750  0.0000E+00  0.0000E+00  0.8000E+01
  -7.740  0.0000E+00  0.0000E+00  0.8000E+01
  -7.730  0.0000E+00  0.0000E+00  0.8000E+01
  -7.720  0.0000E+00  0.0000E+00  0.8000E+01
  -7.710  0.0000E+00  0.0000E+00  0.8000E+01
  -7.700  0.0000E+00  0.0000E+00  0.8000E+01
  -7.690  0.0000E+00  0.0000E+00  0.8000E+01
  -7.680  0.0000E+00  0.0000E+00  0.8000E+01
  -7.670  0.0000E+00  0.0000E+00  0.8000E+01
  -7.660  0.0000E+00  0.0000E+00  0.8000E+01
  -7.650  0.0000E+00  0.0000E+00  0.8000E+01
  -7.640  0.0000E+00  0.0000E+00  0.8000E+01
  -7.630  0.0000E+00  0.0000E+00  0.8000E+01
  -7.620  0.0000E+00  0.0000E+00  0.8000E+01
  -7.610  0.0000E+00  0.0000E+00  0.8000E+01
  -7.600  0.0000E+00  0.0000E+00  0.8000E+01
  -7.590  0.0000E+00  0.0000E+00  0.8000E+01
  -7.580  0.0000E+00  0.0000E+00  0.8000E+01
  -7.570  0.0000E+00  0.0000E+00  0.8000E+01
  -7.560  0.0000E+00  0.0000E+00  0.8000E+01
  -7.550  0.0000E+00  0.0000E+00  0.8000E+01
  -7.540  0.0000E+00  0.0000E+00  0.8000E+01
  -7.530  0.0000E+00  0.0000E+00  0.8000E+01
  -7.520  0.0000E+00  0.0000E+00  0.8000E+01
  -7.510  0.0000E+00  0.0000E+00  0.8000E+01
  -7.500  0.0000E+00  0.0000E+00  0.8000E+01
  -7.490  0.0000E+00  0.0000E+00  0.8000E+01
  -7.480  0.0000E+00  0.0000E+00  0.8000E+01
  -7.470  0.0000E+00  0.0000E+00  0.8000E+01
  -7.460  0.0000E+00  0.0000E+00  0.8000E+01
  -7.450  0.9855E-02  0.0000E+00  0.8000E+01
  -7.440  0.1152E+00  0.1111E-02  0.8000E+01
  -7.430  0.5222E+00  0.3311E-01  0.8003E+01
  -7.420  0.1249E+01  0.2817E+00  0.8013E+01
  -7.410  0.2008E+01  0.8442E+00  0.8035E+01
  -7.400  0.2486E+01  0.1656E+01  0.8070E+01
  -7.390  0.2700E+01  0.2288E+01  0.8117E+01
  -7.380  0.2713E+01  0.2624E+01  0.8169E+01
  -7.370  0.2723E+01  0.2746E+01  0.8223E+01
  -7.360  0.2793E+01  0.2751E+01  0.8278E+01
  -7.350  0.2879E+01  0.2818E+01  0.8334E+01
  -7.340  0.3087E+01  0.2894E+01  0.8392E+01
  -7.330  0.3454E+01  0.3054E+01  0.8454E+01
  -7.320  0.3834E+01  0.3366E+01  0.8523E+01
  -7.310  0.4241E+01  0.3785E+01  0.8599E+01
  -7.300  0.4797E+01  0.4183E+01  0.8684E+01
  -7.290  0.5342E+01  0.4736E+01  0.8779E+01
  -7.280  0.5706E+01  0.5295E+01  0.8885E+01
  -7.270  0.5843E+01  0.5606E+01  0.8997E+01
  -7.260  0.5982E+01  0.5641E+01  0.9113E+01
  -7.250  0.6400E+01  0.5529E+01  0.9230E+01
  -7.240  0.7188E+01  0.5746E+01  0.9353E+01
  -7.230  0.8128E+01  0.6406E+01  0.9490E+01
  -7.220  0.8290E+01  0.7363E+01  0.9641E+01
  -7.210  0.8348E+01  0.8193E+01  0.9803E+01
  -7.200  0.8380E+01  0.8308E+01  0.9969E+01
  -7.190  0.8308E+01  0.8385E+01  0.1014E+02
  -7.180  0.8162E+01  0.8361E+01  0.1030E+02
  -7.170  0.7932E+01  0.8265E+01  0.1047E+02
  -7.160  0.7645E+01  0.8088E+01  0.1063E+02
  -7.150  0.7440E+01  0.7854E+01  0.1078E+02
  -7.140  0.7417E+01  0.7627E+01  0.1093E+02
  -7.130  0.7682E+01  0.7470E+01  0.1108E+02
  -7.120  0.8285E+01  0.7546E+01  0.1124E+02
  -7.110  0.8715E+01  0.7889E+01  0.1140E+02
  -7.100  0.9165E+01  0.8370E+01  0.1157E+02
  -7.090  0.1104E+02  0.8755E+01  0.1176E+02
  -7.080  0.1206E+02  0.1011E+02  0.1197E+02
  -7.070  0.1170E+02  0.1191E+02  0.1220E+02
  -7.060  0.1074E+02  0.1238E+02  0.1243E+02
  -7.050  0.1049E+02  0.1217E+02  0.1266E+02
  -7.040  0.1087E+02  0.1103E+02  0.1288E+02
  -7.030  0.1117E+02  0.1082E+02  0.1310E+02
  -7.020  0.1145E+02  0.1096E+02  0.1332E+02
  -7.010  0.1185E+02  0.1119E+02  0.1355E+02
  -7.000  0.1199E+02  0.1159E+02  0.1378E+02
  -6.990  0.1198E+02  0.1190E+02  0.1402E+02
  -6.980  0.1130E+02  0.1180E+02  0.1426E+02
  -6.970  0.1087E+02  0.1117E+02  0.1448E+02
  -6.960  0.1110E+02  0.1015E+02  0.1470E+02
  -6.950  0.1183E+02  0.1061E+02  0.1492E+02
  -6.940  0.1241E+02  0.1128E+02  0.1515E+02
  -6.930  0.1275E+02  0.1210E+02  0.1539E+02
  -6.920  0.1284E+02  0.1262E+02  0.1564E+02
  -6.910  0.1277E+02  0.1283E+02  0.1590E+02
  -6.900  0.1311E+02  0.1272E+02  0.1615E+02
  -6.890  0.1464E+02  0.1280E+02  0.1642E+02
  -6.880  0.1786E+02  0.1400E+02  0.1671E+02
  -6.870  0.2164E+02  0.1659E+02  0.1706E+02
  -6.860  0.2319E+02  0.2054E+02  0.1747E+02
  -6.850  0.2770E+02  0.2272E+02  0.1794E+02
  -6.840  0.2376E+02  0.2459E+02  0.1843E+02
  -6.830  0.2199E+02  0.2516E+02  0.1892E+02
  -6.820  0.2107E+02  0.2320E+02  0.1937E+02
  -6.810  0.2004E+02  0.2193E+02  0.1980E+02
  -6.800  0.1892E+02  0.2066E+02  0.2021E+02
  -6.790  0.1846E+02  0.1921E+02  0.2060E+02
  -6.780  0.2142E+02  0.1800E+02  0.2098E+02
  -6.770  0.2174E+02  0.1705E+02  0.2137E+02
  -6.760  0.1939E+02  0.2040E+02  0.2176E+02
  -6.750  0.1712E+02  0.2119E+02  0.2215E+02
  -6.740  0.1530E+02  0.1861E+02  0.2252E+02
  -6.730  0.1403E+02  0.1643E+02  0.2284E+02
  -6.720  0.1338E+02  0.1479E+02  0.2313E+02
  -6.710  0.1328E+02  0.1371E+02  0.2340E+02
  -6.700  0.1841E+02  0.1327E+02  0.2368E+02
  -6.690  0.2424E+02  0.1372E+02  0.2404E+02
  -6.680  0.3096E+02  0.2173E+02  0.2450E+02
  -6.670  0.2243E+02  0.2760E+02  0.2499E+02
  -6.660  0.3317E+02  0.2402E+02  0.2555E+02
  -6.650  0.3877E+02  0.2634E+02  0.2615E+02
  -6.640  0.3764E+02  0.3356E+02  0.2684E+02
  -6.630  0.3294E+02  0.3912E+02  0.2757E+02
  -6.620  0.2890E+02  0.3628E+02  0.2826E+02
  -6.610  0.3220E+02  0.3173E+02  0.2889E+02
  -6.600  0.4032E+02  0.2940E+02  0.2957E+02
  -6.590  0.4230E+02  0.3727E+02  0.3030E+02
  -6.580  0.4390E+02  0.4377E+02  0.3114E+02
  -6.570  0.4722E+02  0.4671E+02  0.3205E+02
  -6.560  0.4525E+02  0.4849E+02  0.3299E+02
  -6.550  0.4438E+02  0.3967E+02  0.3388E+02
  -6.540  0.4449E+02  0.3874E+02  0.3470E+02
  -6.530  0.4319E+02  0.4419E+02  0.3556E+02
  -6.520  0.4576E+02  0.4271E+02  0.3644E+02
  -6.510  0.5209E+02  0.4389E+02  0.3736E+02
  -6.500  0.4974E+02  0.4749E+02  0.3833E+02
  -6.490  0.4827E+02  0.5026E+02  0.3931E+02
  -6.480  0.4816E+02  0.4834E+02  0.4028E+02
  -6.470  0.5202E+02  0.4712E+02  0.4126E+02
  -6.460  0.5616E+02  0.5026E+02  0.4228E+02
  -6.450  0.7578E+02  0.5678E+02  0.4354E+02
  -6.440  0.6296E+02  0.7359E+02  0.4485E+02
  -6.430  0.5743E+02  0.7205E+02  0.4622E+02
  -6.420  0.5379E+02  0.6648E+02  0.4749E+02
  -6.410  0.4693E+02  0.5969E+02  0.4862E+02
  -6.400  0.7002E+02  0.6487E+02  0.4978E+02
  -6.390  0.8521E+02  0.5573E+02  0.5111E+02
  -6.380  0.7452E+02  0.6774E+02  0.5255E+02
  -6.370  0.5325E+02  0.6279E+02  0.5381E+02
  -6.360  0.4766E+02  0.5304E+02  0.5489E+02
  -6.350  0.4281E+02  0.4984E+02  0.5585E+02
  -6.340  0.4869E+02  0.4294E+02  0.5675E+02
  -6.330  0.5149E+02  0.4265E+02  0.5767E+02
  -6.320  0.5097E+02  0.5696E+02  0.5868E+02
  -6.310  0.6036E+02  0.5756E+02  0.5981E+02
  -6.300  0.9691E+02  0.6136E+02  0.6120E+02
  -6.290  0.1097E+03  0.8087E+02  0.6308E+02
  -6.280  0.8672E+02  0.8965E+02  0.6496E+02
  -6.270  0.7722E+02  0.9086E+02  0.6666E+02
  -6.260  0.7012E+02  0.7919E+02  0.6823E+02
  -6.250  0.5944E+02  0.7816E+02  0.6965E+02
  -6.240  0.1833E+02  0.6675E+02  0.7088E+02
  -6.230  0.0000E+00  0.3871E+02  0.7144E+02
  -6.220  0.0000E+00  0.4088E+02  0.7178E+02
  -6.210  0.0000E+00  0.7000E+00  0.7200E+02
  -6.200  0.0000E+00  0.0000E+00  0.7200E+02
  -6.190  0.0000E+00  0.0000E+00  0.7200E+02
  -6.180  0.0000E+00  0.0000E+00  0.7200E+02
  -6.170  0.0000E+00  0.0000E+00  0.7200E+02
  -6.160  0.0000E+00  0.0000E+00  0.7200E+02
  -6.150  0.0000E+00  0.0000E+00  0.7200E+02
  -6.140  0.0000E+00  0.0000E+00  0.7200E+02
  -6.130  0.0000E+00  0.0000E+00  0.7200E+02
  -6.120  0.0000E+00  0.0000E+00  0.7200E+02
  -6.110  0.0000E+00  0.0000E+00  0.7200E+02
  -6.100  0.0000E+00  0.0000E+00  0.7200E+02
  -6.090  0.0000E+00  0.0000E+00  0.7200E+02
  -6.080  0.0000E+00  0.0000E+00  0.7200E+02
  -6.070  0.0000E+00  0.0000E+00  0.7200E+02
  -6.060  0.0000E+00  0.0000E+00  0.7200E+02
  -6.050  0.0000E+00  0.0000E+00  0.7200E+02
  -6.040  0.0000E+00  0.0000E+00  0.7200E+02
  -6.030  0.0000E+00  0.0000E+00  0.7200E+02
  -6.020  0.0000E+00  0.0000E+00  0.7200E+02
  -6.010  0.0000E+00  0.0000E+00  0.7200E+02
  -6.000  0.0000E+00  0.0000E+00  0.7200E+02
  -5.990  0.0000E+00  0.0000E+00  0.7200E+02
  -5.980  0.0000E+00  0.0000E+00  0.7200E+02
  -5.970  0.0000E+00  0.0000E+00  0.7200E+02
  -5.960  0.0000E+00  0.0000E+00  0.7200E+02
  -5.950  0.0000E+00  0.0000E+00  0.7200E+02
  -5.940  0.0000E+00  0.0000E+00  0.7200E+02
  -5.930  0.0000E+00  0.0000E+00  0.7200E+02
  -5.920  0.0000E+00  0.0000E+00  0.7200E+02
  -5.910  0.0000E+00  0.0000E+00  0.7200E+02
  -5.900  0.0000E+00  0.0000E+00  0.7200E+02
  -5.890  0.0000E+00  0.0000E+00  0.7200E+02
  -5.880  0.0000E+00  0.0000E+00  0.7200E+02
  -5.870  0.0000E+00  0.0000E+00  0.7200E+02
  -5.860  0.0000E+00  0.0000E+00  0.7200E+02
  -5.850  0.0000E+00  0.0000E+00  0.7200E+02
  -5.840  0.0000E+00  0.0000E+00  0.7200E+02
  -5.830  0.0000E+00  0.0000E+00  0.7200E+02
  -5.820  0.0000E+00  0.0000E+00  0.7200E+02
  -5.810  0.0000E+00  0.0000E+00  0.7200E+02
  -5.800  0.0000E+00  0.0000E+00  0.7200E+02
  -5.790  0.0000E+00  0.0000E+00  0.7200E+02
  -5.780  0.0000E+00  0.0000E+00  0.7200E+02
  -5.770  0.0000E+00  0.0000E+00  0.7200E+02
  -5.760  0.0000E+00  0.0000E+00  0.7200E+02
  -5.750  0.0000E+00  0.0000E+00  0.7200E+02
  -5.740  0.0000E+00  0.0000E+00  0.7200E+02
  -5.730  0.0000E+00  0.0000E+00  0.7200E+02
  -5.720  0.0000E+00  0.0000E+00  0.7200E+02
  -5.710  0.0000E+00  0.0000E+00  0.7200E+02
  -5.700  0.0000E+00  0.0000E+00  0.7200E+02
  -5.690  0.0000E+00  0.0000E+00  0.7200E+02
  -5.680  0.0000E+00  0.0000E+00  0.7200E+02
  -5.670  0.0000E+00  0.0000E+00  0.7200E+02
  -5.660  0.0000E+00  0.0000E+00  0.7200E+02
  -5.650  0.0000E+00  0.0000E+00  0.7200E+02
  -5.640  0.0000E+00  0.0000E+00  0.7200E+02
  -5.630  0.0000E+00  0.0000E+00  0.7200E+02
  -5.620  0.0000E+00  0.0000E+00  0.7200E+02
  -5.610  0.0000E+00  0.0000E+00  0.7200E+02
  -5.600  0.0000E+00  0.0000E+00  0.7200E+02
  -5.590  0.0000E+00  0.0000E+00  0.7200E+02
  -5.580  0.0000E+00  0.0000E+00  0.7200E+02
  -5.570  0.0000E+00  0.0000E+00  0.7200E+02
  -5.560  0.0000E+00  0.0000E+00  0.7200E+02
  -5.550  0.0000E+00  0.0000E+00  0.7200E+02
  -5.540  0.0000E+00  0.0000E+00  0.7200E+02
  -5.530  0.0000E+00  0.0000E+00  0.7200E+02
  -5.520  0.0000E+00  0.0000E+00  0.7200E+02
  -5.510  0.0000E+00  0.0000E+00  0.7200E+02
  -5.500  0.0000E+00  0.0000E+00  0.7200E+02
  -5.490  0.0000E+00  0.0000E+00  0.7200E+02
  -5.480  0.0000E+00  0.0000E+00  0.7200E+02
  -5.470  0.0000E+00  0.0000E+00  0.7200E+02
  -5.460  0.0000E+00  0.0000E+00  0.7200E+02
  -5.450  0.0000E+00  0.0000E+00  0.7200E+02
  -5.440  0.0000E+00  0.0000E+00  0.7200E+02
  -5.430  0.0000E+00  0.0000E+00  0.7200E+02
  -5.420  0.0000E+00  0.0000E+00  0.7200E+02
  -5.410  0.0000E+00  0.0000E+00  0.7200E+02
  -5.400  0.0000E+00  0.0000E+00  0.7200E+02
  -5.390  0.0000E+00  0.0000E+00  0.7200E+02
  -5.380  0.0000E+00  0.0000E+00  0.7200E+02
  -5.370  0.0000E+00  0.0000E+00  0.7200E+02
  -5.360  0.0000E+00  0.0000E+00  0.7200E+02
  -5.350  0.0000E+00  0.0000E+00  0.7200E+02
  -5.340  0.0000E+00  0.0000E+00  0.7200E+02
  -5.330  0.0000E+00  0.0000E+00  0.7200E+02
  -5.320  0.0000E+00  0.0000E+00  0.7200E+02
  -5.310  0.0000E+00  0.0000E+00  0.7200E+02
  -5.300  0.0000E+00  0.0000E+00  0.7200E+02
  -5.290  0.0000E+00  0.0000E+00  0.7200E+02
  -5.280  0.0000E+00  0.0000E+00  0.7200E+02
  -5.270  0.0000E+00  0.0000E+00  0.7200E+02
  -5.260  0.0000E+00  0.0000E+00  0.7200E+02
  -5.250  0.0000E+00  0.0000E+00  0.7200E+02
  -5.240  0.0000E+00  0.0000E+00  0.7200E+02
  -5.230  0.0000E+00  0.0000E+00  0.7200E+02
  -5.220  0.0000E+00  0.0000E+00  0.7200E+02
  -5.210  0.0000E+00  0.0000E+00  0.7200E+02
  -5.200  0.0000E+00  0.0000E+00  0.7200E+02
  -5.190  0.0000E+00  0.0000E+00  0.7200E+02
  -5.180  0.0000E+00  0.0000E+00  0.7200E+02
  -5.170  0.0000E+00  0.0000E+00  0.7200E+02
  -5.160  0.0000E+00  0.0000E+00  0.7200E+02
  -5.150  0.0000E+00  0.0000E+00  0.7200E+02
  -5.140  0.0000E+00  0.0000E+00  0.7200E+02
  -5.130  0.0000E+00  0.0000E+00  0.7200E+02
  -5.120  0.0000E+00  0.0000E+00  0.7200E+02
  -5.110  0.0000E+00  0.0000E+00  0.7200E+02
  -5.100  0.0000E+00  0.0000E+00  0.7200E+02
  -5.090  0.0000E+00  0.0000E+00  0.7200E+02
  -5.080  0.0000E+00  0.0000E+00  0.7200E+02
  -5.070  0.0000E+00  0.0000E+00  0.7200E+02
  -5.060  0.0000E+00  0.0000E+00  0.7200E+02
  -5.050  0.0000E+00  0.0000E+00  0.7200E+02
  -5.040  0.0000E+00  0.0000E+00  0.7200E+02
  -5.030  0.0000E+00  0.0000E+00  0.7200E+02
  -5.020  0.0000E+00  0.0000E+00  0.7200E+02
  -5.010  0.0000E+00  0.0000E+00  0.7200E+02
  -5.000  0.0000E+00  0.0000E+00  0.7200E+02
  -4.990  0.0000E+00  0.0000E+00  0.7200E+02
  -4.980  0.0000E+00  0.0000E+00  0.7200E+02
  -4.970  0.0000E+00  0.0000E+00  0.7200E+02
  -4.960  0.0000E+00  0.0000E+00  0.7200E+02
  -4.950  0.0000E+00  0.0000E+00  0.7200E+02
  -4.940  0.0000E+00  0.0000E+00  0.7200E+02
  -4.930  0.0000E+00  0.0000E+00  0.7200E+02
  -4.920  0.0000E+00  0.0000E+00  0.7200E+02
  -4.910  0.0000E+00  0.0000E+00  0.7200E+02
  -4.900  0.0000E+00  0.0000E+00  0.7200E+02
  -4.890  0.0000E+00  0.0000E+00  0.7200E+02
  -4.880  0.0000E+00  0.0000E+00  0.7200E+02
  -4.870  0.0000E+00  0.0000E+00  0.7200E+02
  -4.860  0.0000E+00  0.0000E+00  0.7200E+02
  -4.850  0.0000E+00  0.0000E+00  0.7200E+02
  -4.840  0.0000E+00  0.0000E+00  0.7200E+02
  -4.830  0.0000E+00  0.0000E+00  0.7200E+02
  -4.820  0.0000E+00  0.0000E+00  0.7200E+02
  -4.810  0.0000E+00  0.0000E+00  0.7200E+02
  -4.800  0.0000E+00  0.0000E+00  0.7200E+02
  -4.790  0.0000E+00  0.0000E+00  0.7200E+02
  -4.780  0.0000E+00  0.0000E+00  0.7200E+02
  -4.770  0.0000E+00  0.0000E+00  0.7200E+02
  -4.760  0.0000E+00  0.0000E+00  0.7200E+02
  -4.750  0.0000E+00  0.0000E+00  0.7200E+02
  -4.740  0.0000E+00  0.0000E+00  0.7200E+02
  -4.730  0.0000E+00  0.0000E+00  0.7200E+02
  -4.720  0.0000E+00  0.0000E+00  0.7200E+02
  -4.710  0.0000E+00  0.0000E+00  0.7200E+02
  -4.700  0.0000E+00  0.0000E+00  0.7200E+02
  -4.690  0.0000E+00  0.0000E+00  0.7200E+02
  -4.680  0.0000E+00  0.0000E+00  0.7200E+02
  -4.670  0.0000E+00  0.0000E+00  0.7200E+02
  -4.660  0.0000E+00  0.0000E+00  0.7200E+02
  -4.650  0.0000E+00  0.0000E+00  0.7200E+02
  -4.640  0.0000E+00  0.0000E+00  0.7200E+02
  -4.630  0.0000E+00  0.0000E+00  0.7200E+02
  -4.620  0.0000E+00  0.0000E+00  0.7200E+02
  -4.610  0.0000E+00  0.0000E+00  0.7200E+02
  -4.600  0.0000E+00  0.0000E+00  0.7200E+02
  -4.590  0.0000E+00  0.0000E+00  0.7200E+02
  -4.580  0.0000E+00  0.0000E+00  0.7200E+02
  -4.570  0.0000E+00  0.0000E+00  0.7200E+02
  -4.560  0.0000E+00  0.0000E+00  0.7200E+02
  -4.550  0.0000E+00  0.0000E+00  0.7200E+02
  -4.540  0.0000E+00  0.0000E+00  0.7200E+02
  -4.530  0.0000E+00  0.0000E+00  0.7200E+02
  -4.520  0.0000E+00  0.0000E+00  0.7200E+02
  -4.510  0.0000E+00  0.0000E+00  0.7200E+02
  -4.500  0.0000E+00  0.0000E+00  0.7200E+02
  -4.490  0.0000E+00  0.0000E+00  0.7200E+02
  -4.480  0.0000E+00  0.0000E+00  0.7200E+02
  -4.470  0.0000E+00  0.0000E+00  0.7200E+02
  -4.460  0.0000E+00  0.0000E+00  0.7200E+02
  -4.450  0.0000E+00  0.0000E+00  0.7200E+02
  -4.440  0.0000E+00  0.0000E+00  0.7200E+02
  -4.430  0.0000E+00  0.0000E+00  0.7200E+02
  -4.420  0.0000E+00  0.0000E+00  0.7200E+02
  -4.410  0.0000E+00  0.0000E+00  0.7200E+02
  -4.400  0.0000E+00  0.0000E+00  0.7200E+02
  -4.390  0.0000E+00  0.0000E+00  0.7200E+02
  -4.380  0.0000E+00  0.0000E+00  0.7200E+02
  -4.370  0.0000E+00  0.0000E+00  0.7200E+02
  -4.360  0.0000E+00  0.0000E+00  0.7200E+02
  -4.350  0.0000E+00  0.0000E+00  0.7200E+02
  -4.340  0.0000E+00  0.0000E+00  0.7200E+02
  -4.330  0.0000E+00  0.0000E+00  0.7200E+02
  -4.320  0.0000E+00  0.0000E+00  0.7200E+02
  -4.310  0.0000E+00  0.0000E+00  0.7200E+02
  -4.300  0.0000E+00  0.0000E+00  0.7200E+02
  -4.290  0.0000E+00  0.0000E+00  0.7200E+02
  -4.280  0.0000E+00  0.0000E+00  0.7200E+02
  -4.270  0.0000E+00  0.0000E+00  0.7200E+02
  -4.260  0.0000E+00  0.0000E+00  0.7200E+02
  -4.250  0.0000E+00  0.0000E+00  0.7200E+02
  -4.240  0.0000E+00  0.0000E+00  0.7200E+02
  -4.230  0.0000E+00  0.0000E+00  0.7200E+02
  -4.220  0.0000E+00  0.0000E+00  0.7200E+02
  -4.210  0.0000E+00  0.0000E+00  0.7200E+02
  -4.200  0.0000E+00  0.0000E+00  0.7200E+02
  -4.190  0.0000E+00  0.0000E+00  0.7200E+02
  -4.180  0.0000E+00  0.0000E+00  0.7200E+02
  -4.170  0.0000E+00  0.0000E+00  0.7200E+02
  -4.160  0.0000E+00  0.0000E+00  0.7200E+02
  -4.150  0.0000E+00  0.0000E+00  0.7200E+02
  -4.140  0.0000E+00  0.0000E+00  0.7200E+02
  -4.130  0.0000E+00  0.0000E+00  0.7200E+02
  -4.120  0.0000E+00  0.0000E+00  0.7200E+02
  -4.110  0.0000E+00  0.0000E+00  0.7200E+02
  -4.100  0.0000E+00  0.0000E+00  0.7200E+02
  -4.090  0.0000E+00  0.0000E+00  0.7200E+02
  -4.080  0.0000E+00  0.0000E+00  0.7200E+02
  -4.070  0.0000E+00  0.0000E+00  0.7200E+02
  -4.060  0.0000E+00  0.0000E+00  0.7200E+02
  -4.050  0.0000E+00  0.0000E+00  0.7200E+02
  -4.040  0.0000E+00  0.0000E+00  0.7200E+02
  -4.030  0.0000E+00  0.0000E+00  0.7200E+02
  -4.020  0.0000E+00  0.0000E+00  0.7200E+02
  -4.010  0.0000E+00  0.0000E+00  0.7200E+02
  -4.000  0.0000E+00  0.0000E+00  0.7200E+02
  -3.990  0.0000E+00  0.0000E+00  0.7200E+02
  -3.980  0.0000E+00  0.0000E+00  0.7200E+02
  -3.970  0.0000E+00  0.0000E+00  0.7200E+02
  -3.960  0.0000E+00  0.0000E+00  0.7200E+02
  -3.950  0.0000E+00  0.0000E+00  0.7200E+02
  -3.940  0.0000E+00  0.0000E+00  0.7200E+02
  -3.930  0.0000E+00  0.0000E+00  0.7200E+02
  -3.920  0.0000E+00  0.0000E+00  0.7200E+02
  -3.910  0.0000E+00  0.0000E+00  0.7200E+02
  -3.900  0.0000E+00  0.0000E+00  0.7200E+02
  -3.890  0.0000E+00  0.0000E+00  0.7200E+02
  -3.880  0.0000E+00  0.0000E+00  0.7200E+02
  -3.870  0.0000E+00  0.0000E+00  0.7200E+02
  -3.860  0.0000E+00  0.0000E+00  0.7200E+02
  -3.850  0.0000E+00  0.0000E+00  0.7200E+02
  -3.840  0.0000E+00  0.0000E+00  0.7200E+02
  -3.830  0.0000E+00  0.0000E+00  0.7200E+02
  -3.820  0.0000E+00  0.0000E+00  0.7200E+02
  -3.810  0.0000E+00  0.0000E+00  0.7200E+02
  -3.800  0.0000E+00  0.0000E+00  0.7200E+02
  -3.790  0.0000E+00  0.0000E+00  0.7200E+02
  -3.780  0.0000E+00  0.0000E+00  0.7200E+02
  -3.770  0.0000E+00  0.0000E+00  0.7200E+02
  -3.760  0.0000E+00  0.0000E+00  0.7200E+02
  -3.750  0.0000E+00  0.0000E+00  0.7200E+02
  -3.740  0.0000E+00  0.0000E+00  0.7200E+02
  -3.730  0.0000E+00  0.0000E+00  0.7200E+02
  -3.720  0.0000E+00  0.0000E+00  0.7200E+02
  -3.710  0.0000E+00  0.0000E+00  0.7200E+02
  -3.700  0.0000E+00  0.0000E+00  0.7200E+02
  -3.690  0.0000E+00  0.0000E+00  0.7200E+02
  -3.680  0.0000E+00  0.0000E+00  0.7200E+02
  -3.670  0.0000E+00  0.0000E+00  0.7200E+02
  -3.660  0.0000E+00  0.0000E+00  0.7200E+02
  -3.650  0.0000E+00  0.0000E+00  0.7200E+02
  -3.640  0.0000E+00  0.0000E+00  0.7200E+02
  -3.630  0.0000E+00  0.0000E+00  0.7200E+02
  -3.620  0.0000E+00  0.0000E+00  0.7200E+02
  -3.610  0.0000E+00  0.0000E+00  0.7200E+02
  -3.600  0.0000E+00  0.0000E+00  0.7200E+02
  -3.590  0.0000E+00  0.0000E+00  0.7200E+02
  -3.580  0.0000E+00  0.0000E+00  0.7200E+02
  -3.570  0.0000E+00  0.0000E+00  0.7200E+02
  -3.560  0.0000E+00  0.0000E+00  0.7200E+02
  -3.550  0.0000E+00  0.0000E+00  0.7200E+02
  -3.540  0.0000E+00  0.0000E+00  0.7200E+02
  -3.530  0.0000E+00  0.0000E+00  0.7200E+02
  -3.520  0.0000E+00  0.0000E+00  0.7200E+02
  -3.510  0.0000E+00  0.0000E+00  0.7200E+02
  -3.500  0.0000E+00  0.0000E+00  0.7200E+02
  -3.490  0.0000E+00  0.0000E+00  0.7200E+02
  -3.480  0.0000E+00  0.0000E+00  0.7200E+02
  -3.470  0.0000E+00  0.0000E+00  0.7200E+02
  -3.460  0.0000E+00  0.0000E+00  0.7200E+02
  -3.450  0.0000E+00  0.0000E+00  0.7200E+02
  -3.440  0.0000E+00  0.0000E+00  0.7200E+02
  -3.430  0.0000E+00  0.0000E+00  0.7200E+02
  -3.420  0.0000E+00  0.0000E+00  0.7200E+02
  -3.410  0.0000E+00  0.0000E+00  0.7200E+02
  -3.400  0.0000E+00  0.0000E+00  0.7200E+02
  -3.390  0.0000E+00  0.0000E+00  0.7200E+02
  -3.380  0.0000E+00  0.0000E+00  0.7200E+02
  -3.370  0.0000E+00  0.0000E+00  0.7200E+02
  -3.360  0.0000E+00  0.0000E+00  0.7200E+02
  -3.350  0.0000E+00  0.0000E+00  0.7200E+02
  -3.340  0.0000E+00  0.0000E+00  0.7200E+02
  -3.330  0.0000E+00  0.0000E+00  0.7200E+02
  -3.320  0.0000E+00  0.0000E+00  0.7200E+02
  -3.310  0.0000E+00  0.0000E+00  0.7200E+02
  -3.300  0.0000E+00  0.0000E+00  0.7200E+02
  -3.290  0.0000E+00  0.0000E+00  0.7200E+02
  -3.280  0.0000E+00  0.0000E+00  0.7200E+02
  -3.270  0.0000E+00  0.0000E+00  0.7200E+02
  -3.260  0.0000E+00  0.0000E+00  0.7200E+02
  -3.250  0.0000E+00  0.0000E+00  0.7200E+02
  -3.240  0.0000E+00  0.0000E+00  0.7200E+02
  -3.230  0.0000E+00  0.0000E+00  0.7200E+02
  -3.220  0.0000E+00  0.0000E+00  0.7200E+02
  -3.210  0.0000E+00  0.0000E+00  0.7200E+02
  -3.200  0.0000E+00  0.0000E+00  0.7200E+02
  -3.190  0.0000E+00  0.0000E+00  0.7200E+02
  -3.180  0.0000E+00  0.0000E+00  0.7200E+02
  -3.170  0.0000E+00  0.0000E+00  0.7200E+02
  -3.160  0.0000E+00  0.0000E+00  0.7200E+02
  -3.150  0.0000E+00  0.0000E+00  0.7200E+02
  -3.140  0.0000E+00  0.0000E+00  0.7200E+02
  -3.130  0.0000E+00  0.0000E+00  0.7200E+02
  -3.120  0.0000E+00  0.0000E+00  0.7200E+02
  -3.110  0.0000E+00  0.0000E+00  0.7200E+02
  -3.100  0.0000E+00  0.0000E+00  0.7200E+02
  -3.090  0.0000E+00  0.0000E+00  0.7200E+02
  -3.080  0.0000E+00  0.0000E+00  0.7200E+02
  -3.070  0.0000E+00  0.0000E+00  0.7200E+02
  -3.060  0.0000E+00  0.0000E+00  0.7200E+02
  -3.050  0.0000E+00  0.0000E+00  0.7200E+02
  -3.040  0.0000E+00  0.0000E+00  0.7200E+02
  -3.030  0.0000E+00  0.0000E+00  0.7200E+02
  -3.020  0.0000E+00  0.0000E+00  0.7200E+02
  -3.010  0.0000E+00  0.0000E+00  0.7200E+02
  -3.000  0.0000E+00  0.0000E+00  0.7200E+02
  -2.990  0.0000E+00  0.0000E+00  0.7200E+02
  -2.980  0.0000E+00  0.0000E+00  0.7200E+02
  -2.970  0.0000E+00  0.0000E+00  0.7200E+02
  -2.960  0.0000E+00  0.0000E+00  0.7200E+02
  -2.950  0.0000E+00  0.0000E+00  0.7200E+02
  -2.940  0.0000E+00  0.0000E+00  0.7200E+02
  -2.930  0.0000E+00  0.0000E+00  0.7200E+02
  -2.920  0.0000E+00  0.0000E+00  0.7200E+02
  -2.910  0.0000E+00  0.0000E+00  0.7200E+02
  -2.900  0.0000E+00  0.0000E+00  0.7200E+02
  -2.890  0.0000E+00  0.0000E+00  0.7200E+02
  -2.880  0.0000E+00  0.0000E+00  0.7200E+02
  -2.870  0.0000E+00  0.0000E+00  0.7200E+02
  -2.860  0.0000E+00  0.0000E+00  0.7200E+02
  -2.850  0.0000E+00  0.0000E+00  0.7200E+02
  -2.840  0.0000E+00  0.0000E+00  0.7200E+02
  -2.830  0.0000E+00  0.0000E+00  0.7200E+02
  -2.820  0.0000E+00  0.0000E+00  0.7200E+02
  -2.810  0.0000E+00  0.0000E+00  0.7200E+02
  -2.800  0.0000E+00  0.0000E+00  0.7200E+02
  -2.790  0.0000E+00  0.0000E+00  0.7200E+02
  -2.780  0.0000E+00  0.0000E+00  0.7200E+02
  -2.770  0.0000E+00  0.0000E+00  0.7200E+02
  -2.760  0.0000E+00  0.0000E+00  0.7200E+02
  -2.750  0.0000E+00  0.0000E+00  0.7200E+02
  -2.740  0.0000E+00  0.0000E+00  0.7200E+02
  -2.730  0.0000E+00  0.0000E+00  0.7200E+02
  -2.720  0.0000E+00  0.0000E+00  0.7200E+02
  -2.710  0.0000E+00  0.0000E+00  0.7200E+02
  -2.700  0.0000E+00  0.0000E+00  0.7200E+02
  -2.690  0.0000E+00  0.0000E+00  0.7200E+02
  -2.680  0.0000E+00  0.0000E+00  0.7200E+02
  -2.670  0.0000E+00  0.0000E+00  0.7200E+02
  -2.660  0.0000E+00  0.0000E+00  0.7200E+02
  -2.650  0.0000E+00  0.0000E+00  0.7200E+02
  -2.640  0.0000E+00  0.0000E+00  0.7200E+02
  -2.630  0.0000E+00  0.0000E+00  0.7200E+02
  -2.620  0.0000E+00  0.0000E+00  0.7200E+02
  -2.610  0.0000E+00  0.0000E+00  0.7200E+02
  -2.600  0.0000E+00  0.0000E+00  0.7200E+02
  -2.590  0.0000E+00  0.0000E+00  0.7200E+02
  -2.580  0.0000E+00  0.0000E+00  0.7200E+02
  -2.570  0.0000E+00  0.0000E+00  0.7200E+02
  -2.560  0.0000E+00  0.0000E+00  0.7200E+02
  -2.550  0.0000E+00  0.0000E+00  0.7200E+02
  -2.540  0.0000E+00  0.0000E+00  0.7200E+02
  -2.530  0.0000E+00  0.0000E+00  0.7200E+02
  -2.520  0.0000E+00  0.0000E+00  0.7200E+02
  -2.510  0.0000E+00  0.0000E+00  0.7200E+02
  -2.500  0.0000E+00  0.0000E+00  0.7200E+02
  -2.490  0.0000E+00  0.0000E+00  0.7200E+02
  -2.480  0.0000E+00  0.0000E+00  0.7200E+02
  -2.470  0.0000E+00  0.0000E+00  0.7200E+02
  -2.460  0.0000E+00  0.0000E+00  0.7200E+02
  -2.450  0.0000E+00  0.0000E+00  0.7200E+02
  -2.440  0.0000E+00  0.0000E+00  0.7200E+02
  -2.430  0.0000E+00  0.0000E+00  0.7200E+02
  -2.420  0.0000E+00  0.0000E+00  0.7200E+02
  -2.410  0.0000E+00  0.0000E+00  0.7200E+02
  -2.400  0.0000E+00  0.0000E+00  0.7200E+02
  -2.390  0.0000E+00  0.0000E+00  0.7200E+02
  -2.380  0.0000E+00  0.0000E+00  0.7200E+02
  -2.370  0.0000E+00  0.0000E+00  0.7200E+02
  -2.360  0.0000E+00  0.0000E+00  0.7200E+02
  -2.350  0.0000E+00  0.0000E+00  0.7200E+02
  -2.340  0.0000E+00  0.0000E+00  0.7200E+02
  -2.330  0.0000E+00  0.0000E+00  0.7200E+02
  -2.320  0.0000E+00  0.0000E+00  0.7200E+02
  -2.310  0.0000E+00  0.0000E+00  0.7200E+02
  -2.300  0.0000E+00  0.0000E+00  0.7200E+02
  -2.290  0.0000E+00  0.0000E+00  0.7200E+02
  -2.280  0.0000E+00  0.0000E+00  0.7200E+02
  -2.270  0.0000E+00  0.0000E+00  0.7200E+02
  -2.260  0.0000E+00  0.0000E+00  0.7200E+02
  -2.250  0.0000E+00  0.0000E+00  0.7200E+02
  -2.240  0.0000E+00  0.0000E+00  0.7200E+02
  -2.230  0.0000E+00  0.0000E+00  0.7200E+02
  -2.220  0.0000E+00  0.0000E+00  0.7200E+02
  -2.210  0.0000E+00  0.0000E+00  0.7200E+02
  -2.200  0.0000E+00  0.0000E+00  0.7200E+02
  -2.190  0.0000E+00  0.0000E+00  0.7200E+02
  -2.180  0.0000E+00  0.0000E+00  0.7200E+02
  -2.170  0.0000E+00  0.0000E+00  0.7200E+02
  -2.160  0.0000E+00  0.0000E+00  0.7200E+02
  -2.150  0.0000E+00  0.0000E+00  0.7200E+02
  -2.140  0.0000E+00  0.0000E+00  0.7200E+02
  -2.130  0.0000E+00  0.0000E+00  0.7200E+02
  -2.120  0.0000E+00  0.0000E+00  0.7200E+02
  -2.110  0.0000E+00  0.0000E+00  0.7200E+02
  -2.100  0.0000E+00  0.0000E+00  0.7200E+02
  -2.090  0.0000E+00  0.0000E+00  0.7200E+02
  -2.080  0.0000E+00  0.0000E+00  0.7200E+02
  -2.070  0.0000E+00  0.0000E+00  0.7200E+02
  -2.060  0.0000E+00  0.0000E+00  0.7200E+02
  -2.050  0.0000E+00  0.0000E+00  0.7200E+02
  -2.040  0.0000E+00  0.0000E+00  0.7200E+02
  -2.030  0.0000E+00  0.0000E+00  0.7200E+02
  -2.020  0.0000E+00  0.0000E+00  0.7200E+02
  -2.010  0.0000E+00  0.0000E+00  0.7200E+02
  -2.000  0.0000E+00  0.0000E+00  0.7200E+02
  -1.990  0.0000E+00  0.0000E+00  0.7200E+02
  -1.980  0.0000E+00  0.0000E+00  0.7200E+02
  -1.970  0.0000E+00  0.0000E+00  0.7200E+02
  -1.960  0.0000E+00  0.0000E+00  0.7200E+02
  -1.950  0.0000E+00  0.0000E+00  0.7200E+02
  -1.940  0.0000E+00  0.0000E+00  0.7200E+02
  -1.930  0.0000E+00  0.0000E+00  0.7200E+02
  -1.920  0.0000E+00  0.0000E+00  0.7200E+02
  -1.910  0.0000E+00  0.0000E+00  0.7200E+02
  -1.900  0.0000E+00  0.0000E+00  0.7200E+02
  -1.890  0.0000E+00  0.0000E+00  0.7200E+02
  -1.880  0.0000E+00  0.0000E+00  0.7200E+02
  -1.870  0.0000E+00  0.0000E+00  0.7200E+02
  -1.860  0.0000E+00  0.0000E+00  0.7200E+02
  -1.850  0.0000E+00  0.0000E+00  0.7200E+02
  -1.840  0.0000E+00  0.0000E+00  0.7200E+02
  -1.830  0.0000E+00  0.0000E+00  0.7200E+02
  -1.820  0.0000E+00  0.0000E+00  0.7200E+02
  -1.810  0.0000E+00  0.0000E+00  0.7200E+02
  -1.800  0.0000E+00  0.0000E+00  0.7200E+02
  -1.790  0.0000E+00  0.0000E+00  0.7200E+02
  -1.780  0.0000E+00  0.0000E+00  0.7200E+02
  -1.770  0.0000E+00  0.0000E+00  0.7200E+02
  -1.760  0.0000E+00  0.0000E+00  0.7200E+02
  -1.750  0.0000E+00  0.0000E+00  0.7200E+02
  -1.740  0.0000E+00  0.0000E+00  0.7200E+02
  -1.730  0.0000E+00  0.0000E+00  0.7200E+02
  -1.720  0.0000E+00  0.0000E+00  0.7200E+02
  -1.710  0.0000E+00  0.0000E+00  0.7200E+02
  -1.700  0.0000E+00  0.0000E+00  0.7200E+02
  -1.690  0.0000E+00  0.0000E+00  0.7200E+02
  -1.680  0.0000E+00  0.0000E+00  0.7200E+02
  -1.670  0.0000E+00  0.0000E+00  0.7200E+02
  -1.660  0.0000E+00  0.0000E+00  0.7200E+02
  -1.650  0.0000E+00  0.0000E+00  0.7200E+02
  -1.640  0.0000E+00  0.0000E+00  0.7200E+02
  -1.630  0.0000E+00  0.0000E+00  0.7200E+02
  -1.620  0.0000E+00  0.0000E+00  0.7200E+02
  -1.610  0.0000E+00  0.0000E+00  0.7200E+02
  -1.600  0.0000E+00  0.0000E+00  0.7200E+02
  -1.590  0.0000E+00  0.0000E+00  0.7200E+02
  -1.580  0.0000E+00  0.0000E+00  0.7200E+02
  -1.570  0.0000E+00  0.0000E+00  0.7200E+02
  -1.560  0.0000E+00  0.0000E+00  0.7200E+02
  -1.550  0.0000E+00  0.0000E+00  0.7200E+02
  -1.540  0.0000E+00  0.0000E+00  0.7200E+02
  -1.530  0.0000E+00  0.0000E+00  0.7200E+02
  -1.520  0.0000E+00  0.0000E+00  0.7200E+02
  -1.510  0.0000E+00  0.0000E+00  0.7200E+02
  -1.500  0.0000E+00  0.0000E+00  0.7200E+02
  -1.490  0.0000E+00  0.0000E+00  0.7200E+02
  -1.480  0.0000E+00  0.0000E+00  0.7200E+02
  -1.470  0.0000E+00  0.0000E+00  0.7200E+02
  -1.460  0.0000E+00  0.0000E+00  0.7200E+02
  -1.450  0.0000E+00  0.0000E+00  0.7200E+02
  -1.440  0.0000E+00  0.0000E+00  0.7200E+02
  -1.430  0.0000E+00  0.0000E+00  0.7200E+02
  -1.420  0.0000E+00  0.0000E+00  0.7200E+02
  -1.410  0.0000E+00  0.0000E+00  0.7200E+02
  -1.400  0.0000E+00  0.0000E+00  0.7200E+02
  -1.390  0.0000E+00  0.0000E+00  0.7200E+02
  -1.380  0.0000E+00  0.0000E+00  0.7200E+02
  -1.370  0.0000E+00  0.0000E+00  0.7200E+02
  -1.360  0.0000E+00  0.0000E+00  0.7200E+02
  -1.350  0.0000E+00  0.0000E+00  0.7200E+02
  -1.340  0.0000E+00  0.0000E+00  0.7200E+02
  -1.330  0.0000E+00  0.0000E+00  0.7200E+02
  -1.320  0.0000E+00  0.0000E+00  0.7200E+02
  -1.310  0.0000E+00  0.0000E+00  0.7200E+02
  -1.300  0.0000E+00  0.0000E+00  0.7200E+02
  -1.290  0.0000E+00  0.0000E+00  0.7200E+02
  -1.280  0.0000E+00  0.0000E+00  0.7200E+02
  -1.270  0.0000E+00  0.0000E+00  0.7200E+02
  -1.260  0.0000E+00  0.0000E+00  0.7200E+02
  -1.250  0.0000E+00  0.0000E+00  0.7200E+02
  -1.240  0.0000E+00  0.0000E+00  0.7200E+02
  -1.230  0.0000E+00  0.0000E+00  0.7200E+02
  -1.220  0.0000E+00  0.0000E+00  0.7200E+02
  -1.210  0.0000E+00  0.0000E+00  0.7200E+02
  -1.200  0.0000E+00  0.0000E+00  0.7200E+02
  -1.190  0.0000E+00  0.0000E+00  0.7200E+02
  -1.180  0.0000E+00  0.0000E+00  0.7200E+02
  -1.170  0.0000E+00  0.0000E+00  0.7200E+02
  -1.160  0.0000E+00  0.0000E+00  0.7200E+02
  -1.150  0.0000E+00  0.0000E+00  0.7200E+02
  -1.140  0.0000E+00  0.0000E+00  0.7200E+02
  -1.130  0.0000E+00  0.0000E+00  0.7200E+02
  -1.120  0.0000E+00  0.0000E+00  0.7200E+02
  -1.110  0.0000E+00  0.0000E+00  0.7200E+02
  -1.100  0.0000E+00  0.0000E+00  0.7200E+02
  -1.090  0.0000E+00  0.0000E+00  0.7200E+02
  -1.080  0.0000E+00  0.0000E+00  0.7200E+02
  -1.070  0.0000E+00  0.0000E+00  0.7200E+02
  -1.060  0.0000E+00  0.0000E+00  0.7200E+02
  -1.050  0.0000E+00  0.0000E+00  0.7200E+02
  -1.040  0.0000E+00  0.0000E+00  0.7200E+02
  -1.030  0.0000E+00  0.0000E+00  0.7200E+02
  -1.020  0.0000E+00  0.0000E+00  0.7200E+02
  -1.010  0.0000E+00  0.0000E+00  0.7200E+02
  -1.000  0.0000E+00  0.0000E+00  0.7200E+02
  -0.990  0.0000E+00  0.0000E+00  0.7200E+02
  -0.980  0.0000E+00  0.0000E+00  0.7200E+02
  -0.970  0.0000E+00  0.0000E+00  0.7200E+02
  -0.960  0.0000E+00  0.0000E+00  0.7200E+02
  -0.950  0.0000E+00  0.0000E+00  0.7200E+02
  -0.940  0.0000E+00  0.0000E+00  0.7200E+02
  -0.930  0.0000E+00  0.0000E+00  0.7200E+02
  -0.920  0.0000E+00  0.0000E+00  0.7200E+02
  -0.910  0.0000E+00  0.0000E+00  0.7200E+02
  -0.900  0.0000E+00  0.0000E+00  0.7200E+02
  -0.890  0.0000E+00  0.0000E+00  0.7200E+02
  -0.880  0.0000E+00  0.0000E+00  0.7200E+02
  -0.870  0.0000E+00  0.0000E+00  0.7200E+02
  -0.860  0.0000E+00  0.0000E+00  0.7200E+02
  -0.850  0.0000E+00  0.0000E+00  0.7200E+02
  -0.840  0.0000E+00  0.0000E+00  0.7200E+02
  -0.830  0.0000E+00  0.0000E+00  0.7200E+02
  -0.820  0.0000E+00  0.0000E+00  0.7200E+02
  -0.810  0.0000E+00  0.0000E+00  0.7200E+02
  -0.800  0.0000E+00  0.0000E+00  0.7200E+02
  -0.790  0.0000E+00  0.0000E+00  0.7200E+02
  -0.780  0.0000E+00  0.0000E+00  0.7200E+02
  -0.770  0.0000E+00  0.0000E+00  0.7200E+02
  -0.760  0.0000E+00  0.0000E+00  0.7200E+02
  -0.750  0.0000E+00  0.0000E+00  0.7200E+02
  -0.740  0.0000E+00  0.0000E+00  0.7200E+02
  -0.730  0.0000E+00  0.0000E+00  0.7200E+02
  -0.720  0.0000E+00  0.0000E+00  0.7200E+02
  -0.710  0.0000E+00  0.0000E+00  0.7200E+02
  -0.700  0.0000E+00  0.0000E+00  0.7200E+02
  -0.690  0.1380E+00  0.0000E+00  0.7200E+02
  -0.680  0.1990E+02  0.1376E+02  0.7214E+02
  -0.670  0.7058E+02  0.5511E+02  0.7286E+02
  -0.660  0.1079E+03  0.9609E+02  0.7455E+02
  -0.650  0.1259E+03  0.1167E+03  0.7682E+02
  -0.640  0.1425E+03  0.1307E+03  0.7936E+02
  -0.630  0.1746E+03  0.1804E+03  0.8254E+02
  -0.620  0.1938E+03  0.1838E+03  0.8615E+02
  -0.610  0.2010E+03  0.2138E+03  0.9017E+02
  -0.600  0.1773E+03  0.1835E+03  0.9409E+02
  -0.590  0.1390E+03  0.1274E+03  0.9707E+02
  -0.580  0.2068E+03  0.2822E+03  0.1013E+03
  -0.570  0.2670E+03  0.2411E+03  0.1057E+03
  -0.560  0.3752E+03  0.3631E+03  0.1119E+03
  -0.550  0.3771E+03  0.3696E+03  0.1191E+03
  -0.540  0.5345E+03  0.4528E+03  0.1274E+03
  -0.530  0.7531E+03  0.7462E+03  0.1403E+03
  -0.520  0.4248E+03  0.4847E+03  0.1524E+03
  -0.510  0.3650E+03  0.2540E+03  0.1601E+03
  -0.500  0.2271E+03  0.4398E+03  0.1658E+03
  -0.490  0.1977E+03  0.1957E+03  0.1705E+03
  -0.480  0.2213E+03  0.1875E+03  0.1745E+03
  -0.470  0.2191E+03  0.1972E+03  0.1788E+03
  -0.460  0.1395E+03  0.2303E+03  0.1831E+03
  -0.450  0.2228E+03  0.2133E+03  0.1868E+03
  -0.440  0.2060E+03  0.2338E+03  0.1914E+03
  -0.430  0.1404E+03  0.1456E+03  0.1953E+03
  -0.420  0.1975E+03  0.1742E+03  0.1983E+03
  -0.410  0.2020E+03  0.1890E+03  0.2028E+03
  -0.400  0.1249E+03  0.1464E+03  0.2060E+03
  -0.390  0.1737E+03  0.1427E+03  0.2086E+03
  -0.380  0.1242E+03  0.1272E+03  0.2116E+03
  -0.370  0.1914E+03  0.1797E+03  0.2151E+03
  -0.360  0.1341E+03  0.1588E+03  0.2185E+03
  -0.350  0.1286E+03  0.1247E+03  0.2211E+03
  -0.340  0.1439E+03  0.1476E+03  0.2239E+03
  -0.330  0.1241E+03  0.1271E+03  0.2266E+03
  -0.320  0.8396E+02  0.1004E+03  0.2288E+03
  -0.310  0.7558E+02  0.7134E+02  0.2304E+03
  -0.300  0.9540E+02  0.8234E+02  0.2320E+03
  -0.290  0.1224E+03  0.1554E+03  0.2343E+03
  -0.280  0.1282E+03  0.1248E+03  0.2368E+03
  -0.270  0.1163E+03  0.1329E+03  0.2394E+03
  -0.260  0.1288E+03  0.1148E+03  0.2417E+03
  -0.250  0.1130E+03  0.1086E+03  0.2440E+03
  -0.240  0.1406E+03  0.1345E+03  0.2465E+03
  -0.230  0.1314E+03  0.1390E+03  0.2493E+03
  -0.220  0.1805E+03  0.1788E+03  0.2524E+03
  -0.210  0.1287E+03  0.1428E+03  0.2558E+03
  -0.200  0.1364E+03  0.1184E+03  0.2580E+03
  -0.190  0.4002E+03  0.3646E+03  0.2630E+03
  -0.180  0.4022E+03  0.4103E+03  0.2713E+03
  -0.170  0.4479E+03  0.3716E+03  0.2790E+03
  -0.160  0.6958E+03  0.6388E+03  0.2900E+03
  -0.150  0.6133E+03  0.6477E+03  0.3036E+03
  -0.140  0.5407E+03  0.5313E+03  0.3152E+03
  -0.130  0.4235E+03  0.4672E+03  0.3261E+03
  -0.120  0.3719E+03  0.6047E+03  0.3371E+03
  -0.110  0.2335E+03  0.2114E+03  0.3424E+03
  -0.100  0.1196E+03  0.1453E+03  0.3466E+03
  -0.090  0.8044E+02  0.8492E+02  0.3486E+03
  -0.080  0.6819E+02  0.6811E+02  0.3501E+03
  -0.070  0.7958E+02  0.7090E+02  0.3515E+03
  -0.060  0.7694E+02  0.8438E+02  0.3531E+03
  -0.050  0.7946E+02  0.7247E+02  0.3546E+03
  -0.040  0.7355E+02  0.7462E+02  0.3562E+03
  -0.030  0.5809E+02  0.6645E+02  0.3575E+03
  -0.020  0.4449E+02  0.5119E+02  0.3586E+03
  -0.010  0.4452E+02  0.4181E+02  0.3595E+03
   0.000  0.7075E+02  0.6079E+02  0.3606E+03
   0.010  0.1059E+03  0.8969E+02  0.3622E+03
   0.020  0.4960E+02  0.6482E+02  0.3637E+03
   0.030  0.3703E+02  0.3346E+02  0.3646E+03
   0.040  0.7267E+02  0.7058E+02  0.3657E+03
   0.050  0.6768E+02  0.7071E+02  0.3672E+03
   0.060  0.8447E+02  0.8167E+02  0.3687E+03
   0.070  0.7864E+02  0.9364E+02  0.3705E+03
   0.080  0.5952E+02  0.6020E+02  0.3718E+03
   0.090  0.4651E+02  0.5177E+02  0.3729E+03
   0.100  0.4114E+02  0.3898E+02  0.3738E+03
   0.110  0.5674E+02  0.5508E+02  0.3748E+03
   0.120  0.6921E+02  0.6705E+02  0.3760E+03
   0.130  0.9217E+02  0.1057E+03  0.3777E+03
   0.140  0.6143E+02  0.7008E+02  0.3793E+03
   0.150  0.3721E+02  0.4323E+02  0.3804E+03
   0.160  0.2199E+02  0.2562E+02  0.3810E+03
   0.170  0.1425E+02  0.1581E+02  0.3814E+03
   0.180  0.1239E+02  0.1226E+02  0.3817E+03
   0.190  0.5551E+01  0.6365E+01  0.3819E+03
   0.200  0.2248E+01  0.2746E+01  0.3820E+03
   0.210  0.4243E+00  0.6341E+00  0.3820E+03
   0.220  0.1419E-02  0.9145E-02  0.3820E+03
   0.230  0.0000E+00  0.0000E+00  0.3820E+03
   0.240  0.0000E+00  0.0000E+00  0.3820E+03
   0.250  0.0000E+00  0.0000E+00  0.3820E+03
   0.260  0.0000E+00  0.0000E+00  0.3820E+03
   0.270  0.0000E+00  0.0000E+00  0.3820E+03
   0.280  0.0000E+00  0.0000E+00  0.3820E+03
   0.290  0.0000E+00  0.0000E+00  0.3820E+03
   0.300  0.0000E+00  0.0000E+00  0.3820E+03
   0.310  0.0000E+00  0.0000E+00  0.3820E+03
   0.320  0.0000E+00  0.0000E+00  0.3820E+03
   0.330  0.0000E+00  0.0000E+00  0.3820E+03
   0.340  0.0000E+00  0.0000E+00  0.3820E+03
   0.350  0.0000E+00  0.0000E+00  0.3820E+03
   0.360  0.1165E-04  0.0000E+00  0.3820E+03
   0.370  0.1358E-02  0.2641E-04  0.3820E+03
   0.380  0.9596E-02  0.1686E-02  0.3820E+03
   0.390  0.2967E-01  0.1037E-01  0.3820E+03
   0.400  0.6179E-01  0.3057E-01  0.3820E+03
   0.410  0.1066E+00  0.6240E-01  0.3820E+03
   0.420  0.1646E+00  0.1059E+00  0.3820E+03
   0.430  0.2358E+00  0.1620E+00  0.3820E+03
   0.440  0.3204E+00  0.2309E+00  0.3820E+03
   0.450  0.4181E+00  0.3127E+00  0.3820E+03
   0.460  0.5292E+00  0.4075E+00  0.3820E+03
   0.470  0.6535E+00  0.5152E+00  0.3820E+03
   0.480  0.7910E+00  0.6358E+00  0.3821E+03
   0.490  0.9507E+00  0.7693E+00  0.3821E+03
   0.500  0.1290E+01  0.9255E+00  0.3821E+03
   0.510  0.1868E+01  0.1256E+01  0.3821E+03
   0.520  0.2670E+01  0.1798E+01  0.3821E+03
   0.530  0.3559E+01  0.2476E+01  0.3822E+03
   0.540  0.4137E+01  0.3385E+01  0.3823E+03
   0.550  0.4403E+01  0.4031E+01  0.3824E+03
   0.560  0.4364E+01  0.4359E+01  0.3824E+03
   0.570  0.4022E+01  0.4375E+01  0.3825E+03
   0.580  0.3624E+01  0.4081E+01  0.3826E+03
   0.590  0.3709E+01  0.3638E+01  0.3827E+03
   0.600  0.3955E+01  0.3640E+01  0.3828E+03
   0.610  0.4199E+01  0.3879E+01  0.3828E+03
   0.620  0.4462E+01  0.4122E+01  0.3829E+03
   0.630  0.4740E+01  0.4374E+01  0.3830E+03
   0.640  0.5033E+01  0.4643E+01  0.3831E+03
   0.650  0.5343E+01  0.4927E+01  0.3832E+03
   0.660  0.5668E+01  0.5228E+01  0.3833E+03
   0.670  0.6009E+01  0.5545E+01  0.3834E+03
   0.680  0.6354E+01  0.5878E+01  0.3835E+03
   0.690  0.6676E+01  0.6218E+01  0.3837E+03
   0.700  0.7152E+01  0.6532E+01  0.3838E+03
   0.710  0.8090E+01  0.6949E+01  0.3839E+03
   0.720  0.9483E+01  0.7869E+01  0.3841E+03
   0.730  0.1097E+02  0.9299E+01  0.3843E+03
   0.740  0.1173E+02  0.1063E+02  0.3845E+03
   0.750  0.1251E+02  0.1140E+02  0.3847E+03
   0.760  0.1266E+02  0.1218E+02  0.3850E+03
   0.770  0.1279E+02  0.1248E+02  0.3852E+03
   0.780  0.1336E+02  0.1246E+02  0.3855E+03
   0.790  0.1346E+02  0.1288E+02  0.3857E+03
   0.800  0.1278E+02  0.1300E+02  0.3860E+03
   0.810  0.1286E+02  0.1211E+02  0.3863E+03
   0.820  0.1305E+02  0.1232E+02  0.3865E+03
   0.830  0.1319E+02  0.1257E+02  0.3868E+03
   0.840  0.1330E+02  0.1278E+02  0.3870E+03
   0.850  0.1338E+02  0.1296E+02  0.3873E+03
   0.860  0.1344E+02  0.1311E+02  0.3875E+03
   0.870  0.1348E+02  0.1322E+02  0.3878E+03
   0.880  0.1350E+02  0.1332E+02  0.3881E+03
   0.890  0.1350E+02  0.1339E+02  0.3884E+03
   0.900  0.1347E+02  0.1345E+02  0.3886E+03
   0.910  0.1346E+02  0.1350E+02  0.3889E+03
   0.920  0.1395E+02  0.1367E+02  0.3892E+03
   0.930  0.1582E+02  0.1480E+02  0.3895E+03
   0.940  0.1794E+02  0.1622E+02  0.3898E+03
   0.950  0.1915E+02  0.1785E+02  0.3901E+03
   0.960  0.1959E+02  0.1896E+02  0.3905E+03
   0.970  0.1907E+02  0.1963E+02  0.3909E+03
   0.980  0.2108E+02  0.1992E+02  0.3913E+03
   0.990  0.2500E+02  0.1966E+02  0.3917E+03
   1.000  0.2930E+02  0.2169E+02  0.3922E+03
   1.010  0.3119E+02  0.2730E+02  0.3927E+03
   1.020  0.3246E+02  0.3019E+02  0.3934E+03
   1.030  0.3338E+02  0.3392E+02  0.3940E+03
   1.040  0.3784E+02  0.3594E+02  0.3947E+03
   1.050  0.4138E+02  0.3947E+02  0.3955E+03
   1.060  0.6272E+02  0.4488E+02  0.3965E+03
   1.070  0.5460E+02  0.6548E+02  0.3976E+03
   1.080  0.6503E+02  0.5546E+02  0.3989E+03
   1.090  0.6883E+02  0.6553E+02  0.4001E+03
   1.100  0.6056E+02  0.7892E+02  0.4015E+03
   1.110  0.4726E+02  0.4146E+02  0.4026E+03
   1.120  0.3789E+02  0.3724E+02  0.4034E+03
   1.130  0.3355E+02  0.3691E+02  0.4042E+03
   1.140  0.2704E+02  0.3232E+02  0.4048E+03
   1.150  0.1152E+02  0.2963E+02  0.4054E+03
   1.160  0.6082E+01  0.2686E+02  0.4057E+03
   1.170  0.9753E+01  0.2293E+02  0.4061E+03
   1.180  0.1743E+02  0.9929E+01  0.4063E+03
   1.190  0.2743E+02  0.1645E+02  0.4067E+03
   1.200  0.3476E+02  0.2366E+02  0.4072E+03
   1.210  0.3693E+02  0.2811E+02  0.4078E+03
   1.220  0.3451E+02  0.2951E+02  0.4085E+03
   1.230  0.3258E+02  0.2833E+02  0.4091E+03
   1.240  0.3318E+02  0.2619E+02  0.4097E+03
   1.250  0.3284E+02  0.2672E+02  0.4103E+03
   1.260  0.3111E+02  0.2806E+02  0.4109E+03
   1.270  0.2840E+02  0.2886E+02  0.4115E+03
   1.280  0.2551E+02  0.2884E+02  0.4120E+03
   1.290  0.2351E+02  0.2806E+02  0.4126E+03
   1.300  0.2274E+02  0.2648E+02  0.4131E+03
   1.310  0.2254E+02  0.2431E+02  0.4136E+03
   1.320  0.2279E+02  0.2220E+02  0.4140E+03
   1.330  0.2354E+02  0.2092E+02  0.4145E+03
   1.340  0.2463E+02  0.1966E+02  0.4149E+03
   1.350  0.2593E+02  0.1834E+02  0.4154E+03
   1.360  0.1849E+02  0.1719E+02  0.4158E+03
   1.370  0.1627E+02  0.2398E+02  0.4161E+03
   1.380  0.1476E+02  0.2308E+02  0.4165E+03
   1.390  0.1361E+02  0.2223E+02  0.4169E+03
   1.400  0.1281E+02  0.2121E+02  0.4173E+03
   1.410  0.1229E+02  0.1907E+02  0.4176E+03
   1.420  0.1196E+02  0.1534E+02  0.4179E+03
   1.430  0.1207E+02  0.1279E+02  0.4181E+03
   1.440  0.1246E+02  0.1182E+02  0.4184E+03
   1.450  0.1297E+02  0.1177E+02  0.4186E+03
   1.460  0.1398E+02  0.1196E+02  0.4189E+03
   1.470  0.1549E+02  0.1238E+02  0.4191E+03
   1.480  0.1679E+02  0.1308E+02  0.4194E+03
   1.490  0.1758E+02  0.1368E+02  0.4197E+03
   1.500  0.1789E+02  0.1414E+02  0.4200E+03
   1.510  0.1763E+02  0.1447E+02  0.4204E+03
   1.520  0.1676E+02  0.1465E+02  0.4207E+03
   1.530  0.1529E+02  0.1469E+02  0.4210E+03
   1.540  0.1343E+02  0.1457E+02  0.4213E+03
   1.550  0.1233E+02  0.1431E+02  0.4216E+03
   1.560  0.1202E+02  0.1390E+02  0.4218E+03
   1.570  0.1177E+02  0.1335E+02  0.4221E+03
   1.580  0.1151E+02  0.1272E+02  0.4223E+03
   1.590  0.1125E+02  0.1199E+02  0.4226E+03
   1.600  0.1105E+02  0.1138E+02  0.4228E+03
   1.610  0.1110E+02  0.1111E+02  0.4230E+03
   1.620  0.1128E+02  0.1091E+02  0.4232E+03
   1.630  0.1136E+02  0.1077E+02  0.4235E+03
   1.640  0.1369E+02  0.1075E+02  0.4237E+03
   1.650  0.1146E+02  0.1083E+02  0.4239E+03
   1.660  0.1047E+02  0.1092E+02  0.4241E+03
   1.670  0.9121E+01  0.1112E+02  0.4243E+03
   1.680  0.8057E+01  0.1262E+02  0.4246E+03
   1.690  0.7585E+01  0.1312E+02  0.4248E+03
   1.700  0.7853E+01  0.1140E+02  0.4250E+03
   1.710  0.8194E+01  0.1039E+02  0.4251E+03
   1.720  0.8439E+01  0.9571E+01  0.4253E+03
   1.730  0.9023E+01  0.9523E+01  0.4255E+03
   1.740  0.1013E+02  0.9757E+01  0.4257E+03
   1.750  0.8293E+01  0.9736E+01  0.4259E+03
   1.760  0.5343E+01  0.9244E+01  0.4261E+03
   1.770  0.5544E+01  0.1084E+02  0.4262E+03
   1.780  0.5867E+01  0.7417E+01  0.4264E+03
   1.790  0.6281E+01  0.5360E+01  0.4265E+03
   1.800  0.6803E+01  0.5328E+01  0.4266E+03
   1.810  0.7468E+01  0.5566E+01  0.4267E+03
   1.820  0.8211E+01  0.5864E+01  0.4269E+03
   1.830  0.9367E+01  0.6225E+01  0.4270E+03
   1.840  0.1057E+02  0.6656E+01  0.4272E+03
   1.850  0.1160E+02  0.7074E+01  0.4274E+03
   1.860  0.1249E+02  0.7458E+01  0.4276E+03
   1.870  0.1340E+02  0.7810E+01  0.4278E+03
   1.880  0.1392E+02  0.8127E+01  0.4280E+03
   1.890  0.1400E+02  0.8412E+01  0.4282E+03
   1.900  0.1372E+02  0.8663E+01  0.4284E+03
   1.910  0.1335E+02  0.8873E+01  0.4286E+03
   1.920  0.1294E+02  0.9069E+01  0.4289E+03
   1.930  0.1243E+02  0.9476E+01  0.4291E+03
   1.940  0.1170E+02  0.9842E+01  0.4293E+03
   1.950  0.1100E+02  0.1005E+02  0.4295E+03
   1.960  0.1047E+02  0.1011E+02  0.4297E+03
   1.970  0.9986E+01  0.1001E+02  0.4299E+03
   1.980  0.9626E+01  0.9760E+01  0.4301E+03
   1.990  0.9265E+01  0.9390E+01  0.4303E+03
   2.000  0.8873E+01  0.8985E+01  0.4305E+03
   2.010  0.8597E+01  0.8651E+01  0.4307E+03
   2.020  0.8342E+01  0.8350E+01  0.4308E+03
   2.030  0.8260E+01  0.8077E+01  0.4310E+03
   2.040  0.8301E+01  0.7872E+01  0.4312E+03
   2.050  0.8377E+01  0.7699E+01  0.4313E+03
   2.060  0.8535E+01  0.7568E+01  0.4315E+03
   2.070  0.8596E+01  0.7470E+01  0.4317E+03
   2.080  0.1115E+02  0.7410E+01  0.4318E+03
   2.090  0.5696E+01  0.7337E+01  0.4320E+03
   2.100  0.5599E+01  0.7332E+01  0.4321E+03
   2.110  0.5691E+01  0.7380E+01  0.4322E+03
   2.120  0.5872E+01  0.7449E+01  0.4324E+03
   2.130  0.6084E+01  0.7523E+01  0.4325E+03
   2.140  0.6228E+01  0.7603E+01  0.4326E+03
   2.150  0.6293E+01  0.7669E+01  0.4328E+03
   2.160  0.6146E+01  0.7744E+01  0.4329E+03
   2.170  0.6000E+01  0.7838E+01  0.4331E+03
   2.180  0.6726E+01  0.7869E+01  0.4332E+03
   2.190  0.8176E+01  0.7836E+01  0.4333E+03
   2.200  0.8670E+01  0.7740E+01  0.4335E+03
   2.210  0.9184E+01  0.7561E+01  0.4337E+03
   2.220  0.9788E+01  0.7145E+01  0.4338E+03
   2.230  0.9445E+01  0.6244E+01  0.4340E+03
   2.240  0.8279E+01  0.6260E+01  0.4342E+03
   2.250  0.7443E+01  0.7626E+01  0.4343E+03
   2.260  0.7164E+01  0.6563E+01  0.4345E+03
   2.270  0.7294E+01  0.6110E+01  0.4346E+03
   2.280  0.7680E+01  0.6148E+01  0.4347E+03
   2.290  0.8216E+01  0.6165E+01  0.4349E+03
   2.300  0.8700E+01  0.6156E+01  0.4350E+03
   2.310  0.8977E+01  0.6121E+01  0.4352E+03
   2.320  0.9078E+01  0.6103E+01  0.4353E+03
   2.330  0.8965E+01  0.6091E+01  0.4355E+03
   2.340  0.8649E+01  0.6075E+01  0.4356E+03
   2.350  0.8139E+01  0.6056E+01  0.4358E+03
   2.360  0.7447E+01  0.6030E+01  0.4359E+03
   2.370  0.6931E+01  0.6048E+01  0.4360E+03
   2.380  0.6653E+01  0.6117E+01  0.4362E+03
   2.390  0.6292E+01  0.6173E+01  0.4363E+03
   2.400  0.5852E+01  0.6216E+01  0.4364E+03
   2.410  0.5840E+01  0.6246E+01  0.4365E+03
   2.420  0.7194E+01  0.6263E+01  0.4367E+03
   2.430  0.4397E+01  0.6267E+01  0.4368E+03
   2.440  0.2691E+01  0.6258E+01  0.4369E+03
   2.450  0.3691E+01  0.6232E+01  0.4370E+03
   2.460  0.5102E+01  0.6194E+01  0.4371E+03
   2.470  0.6943E+01  0.6508E+01  0.4372E+03
   2.480  0.9166E+01  0.7295E+01  0.4373E+03
   2.490  0.1142E+02  0.7794E+01  0.4375E+03
   2.500  0.1385E+02  0.8087E+01  0.4377E+03
   2.510  0.1657E+02  0.8324E+01  0.4380E+03
   2.520  0.2010E+02  0.8731E+01  0.4382E+03
   2.530  0.2195E+02  0.9146E+01  0.4385E+03
   2.540  0.2027E+02  0.9570E+01  0.4388E+03
   2.550  0.1757E+02  0.1006E+02  0.4391E+03
   2.560  0.1679E+02  0.1058E+02  0.4394E+03
   2.570  0.1701E+02  0.1103E+02  0.4397E+03
   2.580  0.1673E+02  0.1137E+02  0.4400E+03
   2.590  0.1707E+02  0.1175E+02  0.4402E+03
   2.600  0.1745E+02  0.1211E+02  0.4405E+03
   2.610  0.1779E+02  0.1244E+02  0.4408E+03
   2.620  0.1811E+02  0.1275E+02  0.4411E+03
   2.630  0.1997E+02  0.1306E+02  0.4415E+03
   2.640  0.1975E+02  0.1363E+02  0.4418E+03
   2.650  0.2089E+02  0.1422E+02  0.4421E+03
   2.660  0.2278E+02  0.1504E+02  0.4425E+03
   2.670  0.2340E+02  0.1579E+02  0.4429E+03
   2.680  0.2325E+02  0.1661E+02  0.4433E+03
   2.690  0.2287E+02  0.1827E+02  0.4437E+03
   2.700  0.2214E+02  0.2104E+02  0.4441E+03
   2.710  0.2108E+02  0.2410E+02  0.4445E+03
   2.720  0.2254E+02  0.2662E+02  0.4450E+03
   2.730  0.2687E+02  0.2792E+02  0.4455E+03
   2.740  0.2630E+02  0.2912E+02  0.4461E+03
   2.750  0.2561E+02  0.3198E+02  0.4467E+03
   2.760  0.2481E+02  0.3544E+02  0.4472E+03
   2.770  0.2470E+02  0.4465E+02  0.4479E+03
   2.780  0.2707E+02  0.4403E+02  0.4486E+03
   2.790  0.2771E+02  0.2795E+02  0.4492E+03
   2.800  0.2615E+02  0.1884E+02  0.4497E+03
   2.810  0.2671E+02  0.1592E+02  0.4502E+03
   2.820  0.2433E+02  0.1564E+02  0.4506E+03
   2.830  0.2024E+02  0.1553E+02  0.4510E+03
   2.840  0.1489E+02  0.1456E+02  0.4513E+03
   2.850  0.1591E+02  0.1671E+02  0.4516E+03
   2.860  0.1970E+02  0.3046E+02  0.4520E+03
   2.870  0.2588E+02  0.3017E+02  0.4526E+03
   2.880  0.2690E+02  0.2771E+02  0.4531E+03
   2.890  0.2225E+02  0.2307E+02  0.4536E+03
   2.900  0.2813E+02  0.1733E+02  0.4541E+03
   2.910  0.3297E+02  0.1560E+02  0.4546E+03
   2.920  0.2917E+02  0.1716E+02  0.4550E+03
   2.930  0.2170E+02  0.1713E+02  0.4554E+03
   2.940  0.1949E+02  0.1775E+02  0.4558E+03
   2.950  0.1744E+02  0.1747E+02  0.4562E+03
   2.960  0.1643E+02  0.1694E+02  0.4565E+03
   2.970  0.1643E+02  0.1785E+02  0.4568E+03
   2.980  0.1621E+02  0.1880E+02  0.4572E+03
   2.990  0.1733E+02  0.2126E+02  0.4576E+03
   3.000  0.1757E+02  0.2377E+02  0.4580E+03
   3.010  0.1708E+02  0.2493E+02  0.4584E+03
   3.020  0.1601E+02  0.2549E+02  0.4588E+03
   3.030  0.1496E+02  0.2587E+02  0.4592E+03
   3.040  0.1439E+02  0.2594E+02  0.4596E+03
   3.050  0.1450E+02  0.2596E+02  0.4600E+03
   3.060  0.1472E+02  0.2623E+02  0.4604E+03
   3.070  0.1665E+02  0.2662E+02  0.4608E+03
   3.080  0.1873E+02  0.2659E+02  0.4613E+03
   3.090  0.2133E+02  0.2660E+02  0.4618E+03
   3.100  0.2470E+02  0.2510E+02  0.4622E+03
   3.110  0.2610E+02  0.2538E+02  0.4628E+03
   3.120  0.2646E+02  0.2641E+02  0.4633E+03
   3.130  0.2690E+02  0.2859E+02  0.4638E+03
   3.140  0.2373E+02  0.2928E+02  0.4644E+03
   3.150  0.2421E+02  0.2591E+02  0.4649E+03
   3.160  0.2509E+02  0.1786E+02  0.4653E+03
   3.170  0.2636E+02  0.1308E+02  0.4657E+03
   3.180  0.2916E+02  0.1361E+02  0.4662E+03
   3.190  0.3224E+02  0.1422E+02  0.4666E+03
   3.200  0.3342E+02  0.1467E+02  0.4671E+03
   3.210  0.2984E+02  0.1498E+02  0.4675E+03
   3.220  0.2776E+02  0.1515E+02  0.4680E+03
   3.230  0.2680E+02  0.1519E+02  0.4684E+03
   3.240  0.2548E+02  0.1521E+02  0.4688E+03
   3.250  0.2395E+02  0.1523E+02  0.4692E+03
   3.260  0.2311E+02  0.1617E+02  0.4696E+03
   3.270  0.2257E+02  0.1930E+02  0.4700E+03
   3.280  0.2257E+02  0.2227E+02  0.4704E+03
   3.290  0.2360E+02  0.2585E+02  0.4709E+03
   3.300  0.2554E+02  0.2957E+02  0.4714E+03
   3.310  0.2694E+02  0.3161E+02  0.4720E+03
   3.320  0.2713E+02  0.3366E+02  0.4726E+03
   3.330  0.2659E+02  0.3585E+02  0.4732E+03
   3.340  0.2400E+02  0.3638E+02  0.4738E+03
   3.350  0.2338E+02  0.3740E+02  0.4744E+03
   3.360  0.2348E+02  0.3350E+02  0.4750E+03
   3.370  0.2510E+02  0.3175E+02  0.4756E+03
   3.380  0.2655E+02  0.3069E+02  0.4762E+03
   3.390  0.2843E+02  0.2956E+02  0.4767E+03
   3.400  0.3054E+02  0.2940E+02  0.4773E+03
   3.410  0.3122E+02  0.2967E+02  0.4779E+03
   3.420  0.3127E+02  0.3192E+02  0.4786E+03
   3.430  0.3105E+02  0.3344E+02  0.4792E+03
   3.440  0.2975E+02  0.3277E+02  0.4798E+03
   3.450  0.2905E+02  0.3350E+02  0.4805E+03
   3.460  0.2866E+02  0.3446E+02  0.4811E+03
   3.470  0.2894E+02  0.3377E+02  0.4817E+03
   3.480  0.2933E+02  0.3378E+02  0.4823E+03
   3.490  0.2969E+02  0.3426E+02  0.4830E+03
   3.500  0.2981E+02  0.3422E+02  0.4836E+03
   3.510  0.2987E+02  0.3408E+02  0.4843E+03
   3.520  0.2982E+02  0.3264E+02  0.4849E+03
   3.530  0.2869E+02  0.3132E+02  0.4855E+03
   3.540  0.2920E+02  0.3111E+02  0.4861E+03
   3.550  0.2963E+02  0.3137E+02  0.4867E+03
   3.560  0.3028E+02  0.3184E+02  0.4873E+03
   3.570  0.3076E+02  0.3007E+02  0.4879E+03
   3.580  0.3186E+02  0.2929E+02  0.4886E+03
   3.590  0.3271E+02  0.2978E+02  0.4892E+03
   3.600  0.3467E+02  0.2932E+02  0.4898E+03
   3.610  0.3379E+02  0.2950E+02  0.4904E+03
   3.620  0.3246E+02  0.3134E+02  0.4911E+03
   3.630  0.3157E+02  0.2981E+02  0.4917E+03
   3.640  0.3142E+02  0.2998E+02  0.4923E+03
   3.650  0.3157E+02  0.3050E+02  0.4929E+03
   3.660  0.3236E+02  0.2972E+02  0.4936E+03
   3.670  0.3346E+02  0.2925E+02  0.4942E+03
   3.680  0.3172E+02  0.2915E+02  0.4948E+03
   3.690  0.3047E+02  0.2991E+02  0.4954E+03
   3.700  0.2993E+02  0.2951E+02  0.4960E+03
   3.710  0.2532E+02  0.3055E+02  0.4966E+03
   3.720  0.2608E+02  0.2698E+02  0.4971E+03
   3.730  0.2797E+02  0.2662E+02  0.4977E+03
   3.740  0.2801E+02  0.2555E+02  0.4982E+03
   3.750  0.2801E+02  0.2228E+02  0.4987E+03
   3.760  0.2493E+02  0.2265E+02  0.4992E+03
   3.770  0.2451E+02  0.2379E+02  0.4997E+03
   3.780  0.2608E+02  0.2401E+02  0.5002E+03
   3.790  0.2521E+02  0.2388E+02  0.5007E+03
   3.800  0.2576E+02  0.2960E+02  0.5012E+03
   3.810  0.2405E+02  0.3650E+02  0.5018E+03
   3.820  0.2306E+02  0.3973E+02  0.5024E+03
   3.830  0.2218E+02  0.3983E+02  0.5031E+03
   3.840  0.2499E+02  0.3723E+02  0.5037E+03
   3.850  0.3470E+02  0.4095E+02  0.5044E+03
   3.860  0.4272E+02  0.3512E+02  0.5051E+03
   3.870  0.4663E+02  0.3414E+02  0.5059E+03
   3.880  0.4799E+02  0.3114E+02  0.5067E+03
   3.890  0.4517E+02  0.3294E+02  0.5075E+03
   3.900  0.3736E+02  0.3416E+02  0.5083E+03
   3.910  0.3143E+02  0.3588E+02  0.5090E+03
   3.920  0.2847E+02  0.4198E+02  0.5096E+03
   3.930  0.2722E+02  0.3756E+02  0.5103E+03
   3.940  0.2513E+02  0.3151E+02  0.5109E+03
   3.950  0.2641E+02  0.2817E+02  0.5115E+03
   3.960  0.2732E+02  0.2785E+02  0.5120E+03
   3.970  0.2835E+02  0.2491E+02  0.5126E+03
   3.980  0.2920E+02  0.2385E+02  0.5131E+03
   3.990  0.2961E+02  0.2320E+02  0.5136E+03
   4.000  0.2850E+02  0.2359E+02  0.5142E+03
   4.010  0.2983E+02  0.2430E+02  0.5147E+03
   4.020  0.2868E+02  0.2505E+02  0.5152E+03
   4.030  0.2930E+02  0.2496E+02  0.5158E+03
   4.040  0.2615E+02  0.2469E+02  0.5163E+03
   4.050  0.2577E+02  0.2485E+02  0.5168E+03
   4.060  0.2888E+02  0.2508E+02  0.5173E+03
   4.070  0.2716E+02  0.2572E+02  0.5179E+03
   4.080  0.2937E+02  0.2687E+02  0.5184E+03
   4.090  0.2851E+02  0.2877E+02  0.5190E+03
   4.100  0.2889E+02  0.3067E+02  0.5196E+03
   4.110  0.2956E+02  0.3146E+02  0.5202E+03
   4.120  0.2936E+02  0.3269E+02  0.5208E+03
   4.130  0.3274E+02  0.2946E+02  0.5214E+03
   4.140  0.3030E+02  0.2933E+02  0.5220E+03
   4.150  0.3155E+02  0.3027E+02  0.5226E+03
   4.160  0.3545E+02  0.3129E+02  0.5233E+03
   4.170  0.3016E+02  0.3269E+02  0.5239E+03
   4.180  0.3041E+02  0.3461E+02  0.5246E+03
   4.190  0.2918E+02  0.3252E+02  0.5252E+03
   4.200  0.2841E+02  0.3109E+02  0.5258E+03
   4.210  0.2750E+02  0.3024E+02  0.5264E+03
   4.220  0.2802E+02  0.2932E+02  0.5270E+03
   4.230  0.2896E+02  0.2902E+02  0.5275E+03
   4.240  0.2909E+02  0.2924E+02  0.5281E+03
   4.250  0.2935E+02  0.2970E+02  0.5287E+03
   4.260  0.3066E+02  0.2985E+02  0.5293E+03
   4.270  0.3211E+02  0.2980E+02  0.5299E+03
   4.280  0.3213E+02  0.3234E+02  0.5305E+03
   4.290  0.3170E+02  0.3312E+02  0.5312E+03
   4.300  0.3019E+02  0.3489E+02  0.5319E+03
   4.310  0.3062E+02  0.3541E+02  0.5325E+03
   4.320  0.2781E+02  0.3542E+02  0.5332E+03
   4.330  0.2616E+02  0.3630E+02  0.5338E+03
   4.340  0.2667E+02  0.3495E+02  0.5344E+03
   4.350  0.3007E+02  0.3413E+02  0.5351E+03
   4.360  0.3186E+02  0.3376E+02  0.5357E+03
   4.370  0.3409E+02  0.3204E+02  0.5364E+03
   4.380  0.3565E+02  0.3013E+02  0.5370E+03
   4.390  0.3641E+02  0.2810E+02  0.5377E+03
   4.400  0.3362E+02  0.2815E+02  0.5383E+03
   4.410  0.3111E+02  0.2736E+02  0.5389E+03
   4.420  0.2782E+02  0.2847E+02  0.5395E+03
   4.430  0.2593E+02  0.2779E+02  0.5400E+03
   4.440  0.2945E+02  0.2744E+02  0.5406E+03
   4.450  0.3324E+02  0.2695E+02  0.5412E+03
   4.460  0.2833E+02  0.2734E+02  0.5418E+03
   4.470  0.3016E+02  0.2717E+02  0.5423E+03
   4.480  0.2748E+02  0.2542E+02  0.5429E+03
   4.490  0.2274E+02  0.2278E+02  0.5434E+03
   4.500  0.2217E+02  0.2123E+02  0.5438E+03
   4.510  0.2201E+02  0.2101E+02  0.5442E+03
   4.520  0.2192E+02  0.2171E+02  0.5447E+03
   4.530  0.2317E+02  0.2365E+02  0.5451E+03
   4.540  0.3067E+02  0.2435E+02  0.5456E+03
   4.550  0.3329E+02  0.2666E+02  0.5462E+03
   4.560  0.3086E+02  0.2667E+02  0.5468E+03
   4.570  0.2731E+02  0.2661E+02  0.5474E+03
   4.580  0.2645E+02  0.2634E+02  0.5479E+03
   4.590  0.2495E+02  0.2686E+02  0.5484E+03
   4.600  0.2314E+02  0.2677E+02  0.5489E+03
   4.610  0.2215E+02  0.2739E+02  0.5494E+03
   4.620  0.2214E+02  0.2700E+02  0.5499E+03
   4.630  0.2272E+02  0.2696E+02  0.5504E+03
   4.640  0.2291E+02  0.2754E+02  0.5509E+03
   4.650  0.2383E+02  0.2726E+02  0.5514E+03
   4.660  0.2493E+02  0.2776E+02  0.5519E+03
   4.670  0.2973E+02  0.2971E+02  0.5525E+03
   4.680  0.3389E+02  0.3251E+02  0.5531E+03
   4.690  0.3489E+02  0.3489E+02  0.5538E+03
   4.700  0.3321E+02  0.3456E+02  0.5545E+03
   4.710  0.2943E+02  0.3349E+02  0.5552E+03
   4.720  0.2909E+02  0.3221E+02  0.5558E+03
   4.730  0.2579E+02  0.2895E+02  0.5564E+03
   4.740  0.2207E+02  0.3672E+02  0.5569E+03
   4.750  0.2682E+02  0.3059E+02  0.5575E+03
   4.760  0.3054E+02  0.3154E+02  0.5581E+03
   4.770  0.3053E+02  0.3727E+02  0.5587E+03
   4.780  0.2519E+02  0.3102E+02  0.5594E+03
   4.790  0.2220E+02  0.2309E+02  0.5599E+03
   4.800  0.2113E+02  0.2072E+02  0.5603E+03
   4.810  0.2064E+02  0.1937E+02  0.5607E+03
   4.820  0.2028E+02  0.1827E+02  0.5611E+03
   4.830  0.1984E+02  0.1733E+02  0.5615E+03
   4.840  0.1948E+02  0.1657E+02  0.5618E+03
   4.850  0.1882E+02  0.1600E+02  0.5622E+03
   4.860  0.1835E+02  0.1555E+02  0.5625E+03
   4.870  0.1795E+02  0.1521E+02  0.5629E+03
   4.880  0.1799E+02  0.1492E+02  0.5632E+03
   4.890  0.1923E+02  0.1466E+02  0.5635E+03
   4.900  0.2428E+02  0.1434E+02  0.5639E+03
   4.910  0.2533E+02  0.1410E+02  0.5643E+03
   4.920  0.2428E+02  0.1387E+02  0.5647E+03
   4.930  0.2247E+02  0.1464E+02  0.5650E+03
   4.940  0.1951E+02  0.1553E+02  0.5654E+03
   4.950  0.1755E+02  0.1301E+02  0.5657E+03
   4.960  0.1667E+02  0.1324E+02  0.5660E+03
   4.970  0.1678E+02  0.1485E+02  0.5663E+03
   4.980  0.1695E+02  0.1624E+02  0.5667E+03
   4.990  0.1714E+02  0.1441E+02  0.5670E+03
   5.000  0.1697E+02  0.1434E+02  0.5673E+03
   5.010  0.2053E+02  0.1395E+02  0.5676E+03
   5.020  0.1613E+02  0.1412E+02  0.5680E+03
   5.030  0.1544E+02  0.1427E+02  0.5683E+03
   5.040  0.1787E+02  0.1541E+02  0.5686E+03
   5.050  0.1976E+02  0.1798E+02  0.5689E+03
   5.060  0.2381E+02  0.1891E+02  0.5693E+03
   5.070  0.2305E+02  0.1570E+02  0.5697E+03
   5.080  0.1893E+02  0.1319E+02  0.5701E+03
   5.090  0.2022E+02  0.1166E+02  0.5704E+03
   5.100  0.1544E+02  0.1053E+02  0.5707E+03
   5.110  0.1413E+02  0.9704E+01  0.5710E+03
   5.120  0.1331E+02  0.9236E+01  0.5712E+03
   5.130  0.1205E+02  0.8717E+01  0.5714E+03
   5.140  0.1103E+02  0.8197E+01  0.5716E+03
   5.150  0.1025E+02  0.7681E+01  0.5718E+03
   5.160  0.9783E+01  0.7212E+01  0.5720E+03
   5.170  0.9642E+01  0.7049E+01  0.5721E+03
   5.180  0.9800E+01  0.8381E+01  0.5723E+03
   5.190  0.9824E+01  0.1034E+02  0.5725E+03
   5.200  0.1040E+02  0.1203E+02  0.5727E+03
   5.210  0.1126E+02  0.1207E+02  0.5729E+03
   5.220  0.1218E+02  0.1014E+02  0.5732E+03
   5.230  0.1618E+02  0.9586E+01  0.5734E+03
   5.240  0.2030E+02  0.9921E+01  0.5737E+03
   5.250  0.2490E+02  0.1017E+02  0.5740E+03
   5.260  0.1029E+02  0.1026E+02  0.5742E+03
   5.270  0.8907E+01  0.1017E+02  0.5744E+03
   5.280  0.7616E+01  0.1039E+02  0.5746E+03
   5.290  0.6732E+01  0.1065E+02  0.5748E+03
   5.300  0.6398E+01  0.1060E+02  0.5750E+03
   5.310  0.6620E+01  0.9976E+01  0.5751E+03
   5.320  0.6905E+01  0.9114E+01  0.5753E+03
   5.330  0.7042E+01  0.8488E+01  0.5755E+03
   5.340  0.7202E+01  0.7888E+01  0.5756E+03
   5.350  0.7297E+01  0.7215E+01  0.5758E+03
   5.360  0.7327E+01  0.6504E+01  0.5759E+03
   5.370  0.7291E+01  0.5796E+01  0.5760E+03
   5.380  0.7217E+01  0.5114E+01  0.5762E+03
   5.390  0.7194E+01  0.4509E+01  0.5763E+03
   5.400  0.7048E+01  0.4382E+01  0.5764E+03
   5.410  0.6729E+01  0.4399E+01  0.5765E+03
   5.420  0.6451E+01  0.4087E+01  0.5766E+03
   5.430  0.5682E+01  0.3498E+01  0.5767E+03
   5.440  0.4720E+01  0.2626E+01  0.5768E+03
   5.450  0.3784E+01  0.1462E+01  0.5769E+03
   5.460  0.2946E+01  0.5864E+00  0.5769E+03
   5.470  0.5156E+01  0.3215E+00  0.5770E+03
   5.480  0.6867E+01  0.1428E+00  0.5770E+03
   5.490  0.9434E+01  0.3732E-01  0.5771E+03
   5.500  0.1188E+02  0.2972E-02  0.5772E+03
   5.510  0.1370E+02  0.7012E-03  0.5773E+03
   5.520  0.1614E+02  0.1132E-03  0.5775E+03
   5.530  0.1862E+02  0.0000E+00  0.5777E+03
   5.540  0.2023E+02  0.0000E+00  0.5778E+03
   5.550  0.1889E+02  0.0000E+00  0.5780E+03
   5.560  0.1551E+02  0.0000E+00  0.5782E+03
   5.570  0.1270E+02  0.0000E+00  0.5784E+03
   5.580  0.1064E+02  0.0000E+00  0.5785E+03
   5.590  0.8512E+01  0.0000E+00  0.5786E+03
   5.600  0.6512E+01  0.0000E+00  0.5786E+03
   5.610  0.5446E+01  0.0000E+00  0.5787E+03
   5.620  0.4870E+01  0.0000E+00  0.5788E+03
   5.630  0.4863E+01  0.0000E+00  0.5788E+03
   5.640  0.4668E+01  0.0000E+00  0.5789E+03
   5.650  0.4210E+01  0.0000E+00  0.5789E+03
   5.660  0.3518E+01  0.0000E+00  0.5789E+03
   5.670  0.2590E+01  0.0000E+00  0.5790E+03
   5.680  0.1398E+01  0.0000E+00  0.5790E+03
   5.690  0.4798E+00  0.0000E+00  0.5790E+03
   5.700  0.2202E+00  0.0000E+00  0.5790E+03
   5.710  0.6408E-01  0.0000E+00  0.5790E+03
   5.720  0.4523E-02  0.0000E+00  0.5790E+03
   5.730  0.1691E-02  0.0000E+00  0.5790E+03
   5.740  0.5052E-03  0.0000E+00  0.5790E+03
   5.750  0.4153E-04  0.0000E+00  0.5790E+03
   5.760  0.0000E+00  0.0000E+00  0.5790E+03
   5.770  0.0000E+00  0.0000E+00  0.5790E+03
   5.780  0.0000E+00  0.0000E+00  0.5790E+03
   5.790  0.0000E+00  0.1007E+01  0.5790E+03
   5.800  0.0000E+00  0.1532E+02  0.5791E+03
   5.810  0.0000E+00  0.5021E+02  0.5794E+03
   5.820  0.0000E+00  0.4362E+02  0.5799E+03
   5.830  0.0000E+00  0.6156E+02  0.5804E+03
   5.840  0.0000E+00  0.2154E+02  0.5809E+03
   5.850  0.0000E+00  0.4952E+01  0.5810E+03
   5.860  0.0000E+00  0.1321E+01  0.5810E+03
   5.870  0.0000E+00  0.1153E-01  0.5810E+03
   5.880  0.0000E+00  0.0000E+00  0.5810E+03
   5.890  0.0000E+00  0.0000E+00  0.5810E+03
   5.900  0.0000E+00  0.0000E+00  0.5810E+03
   5.910  0.0000E+00  0.0000E+00  0.5810E+03
   5.920  0.0000E+00  0.0000E+00  0.5810E+03
   5.930  0.0000E+00  0.0000E+00  0.5810E+03
   5.940  0.0000E+00  0.0000E+00  0.5810E+03
   5.950  0.0000E+00  0.0000E+00  0.5810E+03
   5.960  0.0000E+00  0.0000E+00  0.5810E+03
   5.970  0.0000E+00  0.0000E+00  0.5810E+03
   5.980  0.0000E+00  0.0000E+00  0.5810E+03
   5.990  0.0000E+00  0.0000E+00  0.5810E+03
   6.000  0.0000E+00  0.0000E+00  0.5810E+03
   6.010  0.0000E+00  0.0000E+00  0.5810E+03
   6.020  0.0000E+00  0.0000E+00  0.5810E+03
   6.030  0.0000E+00  0.0000E+00  0.5810E+03
   6.040  0.0000E+00  0.0000E+00  0.5810E+03
   6.050  0.0000E+00  0.0000E+00  0.5810E+03
   6.060  0.0000E+00  0.0000E+00  0.5810E+03
   6.070  0.0000E+00  0.0000E+00  0.5810E+03
   6.080  0.0000E+00  0.0000E+00  0.5810E+03
   6.090  0.0000E+00  0.0000E+00  0.5810E+03
   6.100  0.0000E+00  0.0000E+00  0.5810E+03
   6.110  0.0000E+00  0.0000E+00  0.5810E+03
   6.120  0.0000E+00  0.0000E+00  0.5810E+03
   6.130  0.0000E+00  0.0000E+00  0.5810E+03
   6.140  0.0000E+00  0.0000E+00  0.5810E+03
   6.150  0.0000E+00  0.0000E+00  0.5810E+03
   6.160  0.0000E+00  0.0000E+00  0.5810E+03
   6.170  0.0000E+00  0.0000E+00  0.5810E+03
   6.180  0.0000E+00  0.0000E+00  0.5810E+03
   6.190  0.0000E+00  0.0000E+00  0.5810E+03
   6.200  0.0000E+00  0.0000E+00  0.5810E+03
   6.210  0.0000E+00  0.0000E+00  0.5810E+03
   6.220  0.0000E+00  0.0000E+00  0.5810E+03
   6.230  0.0000E+00  0.0000E+00  0.5810E+03
   6.240  0.0000E+00  0.0000E+00  0.5810E+03
   6.250  0.0000E+00  0.0000E+00  0.5810E+03
   6.260  0.0000E+00  0.0000E+00  0.5810E+03
   6.270  0.0000E+00  0.0000E+00  0.5810E+03
   6.280  0.0000E+00  0.0000E+00  0.5810E+03
   6.290  0.0000E+00  0.0000E+00  0.5810E+03
   6.300  0.0000E+00  0.0000E+00  0.5810E+03
   6.310  0.0000E+00  0.0000E+00  0.5810E+03
   6.320  0.0000E+00  0.0000E+00  0.5810E+03
   6.330  0.0000E+00  0.0000E+00  0.5810E+03
   6.340  0.0000E+00  0.0000E+00  0.5810E+03
   6.350  0.0000E+00  0.0000E+00  0.5810E+03
   6.360  0.0000E+00  0.0000E+00  0.5810E+03
   6.370  0.0000E+00  0.0000E+00  0.5810E+03
   6.380  0.0000E+00  0.0000E+00  0.5810E+03
   6.390  0.0000E+00  0.0000E+00  0.5810E+03
   6.400  0.0000E+00  0.0000E+00  0.5810E+03
   6.410  0.0000E+00  0.0000E+00  0.5810E+03
   6.420  0.0000E+00  0.0000E+00  0.5810E+03
   6.430  0.0000E+00  0.0000E+00  0.5810E+03
   6.440  0.0000E+00  0.0000E+00  0.5810E+03
   6.450  0.0000E+00  0.0000E+00  0.5810E+03
   6.460  0.0000E+00  0.0000E+00  0.5810E+03
   6.470  0.0000E+00  0.0000E+00  0.5810E+03
   6.480  0.0000E+00  0.0000E+00  0.5810E+03
   6.490  0.0000E+00  0.0000E+00  0.5810E+03
   6.500  0.0000E+00  0.0000E+00  0.5810E+03
   6.510  0.0000E+00  0.0000E+00  0.5810E+03
   6.520  0.0000E+00  0.0000E+00  0.5810E+03
   6.530  0.0000E+00  0.0000E+00  0.5810E+03
   6.540  0.0000E+00  0.0000E+00  0.5810E+03
   6.550  0.0000E+00  0.0000E+00  0.5810E+03
   6.560  0.0000E+00  0.0000E+00  0.5810E+03
   6.570  0.0000E+00  0.0000E+00  0.5810E+03
   6.580  0.0000E+00  0.0000E+00  0.5810E+03
   6.590  0.0000E+00  0.0000E+00  0.5810E+03
   6.600  0.0000E+00  0.0000E+00  0.5810E+03
   6.610  0.0000E+00  0.0000E+00  0.5810E+03
   6.620  0.0000E+00  0.0000E+00  0.5810E+03
   6.630  0.0000E+00  0.0000E+00  0.5810E+03
   6.640  0.0000E+00  0.0000E+00  0.5810E+03
   6.650  0.0000E+00  0.0000E+00  0.5810E+03
   6.660  0.0000E+00  0.0000E+00  0.5810E+03
   6.670  0.0000E+00  0.0000E+00  0.5810E+03
   6.680  0.0000E+00  0.0000E+00  0.5810E+03
   6.690  0.0000E+00  0.0000E+00  0.5810E+03
   6.700  0.0000E+00  0.0000E+00  0.5810E+03
   6.710  0.0000E+00  0.0000E+00  0.5810E+03
   6.720  0.0000E+00  0.0000E+00  0.5810E+03
   6.730  0.0000E+00  0.0000E+00  0.5810E+03
   6.740  0.0000E+00  0.0000E+00  0.5810E+03
   6.750  0.0000E+00  0.0000E+00  0.5810E+03
   6.760  0.0000E+00  0.0000E+00  0.5810E+03
   6.770  0.0000E+00  0.0000E+00  0.5810E+03
   6.780  0.0000E+00  0.0000E+00  0.5810E+03
   6.790  0.0000E+00  0.0000E+00  0.5810E+03
   6.800  0.0000E+00  0.0000E+00  0.5810E+03
   6.810  0.0000E+00  0.0000E+00  0.5810E+03
   6.820  0.0000E+00  0.0000E+00  0.5810E+03
   6.830  0.0000E+00  0.0000E+00  0.5810E+03
   6.840  0.0000E+00  0.0000E+00  0.5810E+03
   6.850  0.0000E+00  0.0000E+00  0.5810E+03
   6.860  0.0000E+00  0.0000E+00  0.5810E+03
   6.870  0.0000E+00  0.0000E+00  0.5810E+03
   6.880  0.0000E+00  0.0000E+00  0.5810E+03
   6.890  0.0000E+00  0.0000E+00  0.5810E+03
   6.900  0.0000E+00  0.0000E+00  0.5810E+03
   6.910  0.0000E+00  0.0000E+00  0.5810E+03
   6.920  0.0000E+00  0.0000E+00  0.5810E+03
   6.930  0.0000E+00  0.0000E+00  0.5810E+03
   6.940  0.0000E+00  0.0000E+00  0.5810E+03
   6.950  0.0000E+00  0.0000E+00  0.5810E+03
   6.960  0.0000E+00  0.0000E+00  0.5810E+03
   6.970  0.0000E+00  0.0000E+00  0.5810E+03
   6.980  0.0000E+00  0.0000E+00  0.5810E+03
   6.990  0.0000E+00  0.0000E+00  0.5810E+03
   7.000  0.0000E+00  0.0000E+00  0.5810E+03
   7.010  0.0000E+00  0.0000E+00  0.5810E+03
   7.020  0.0000E+00  0.0000E+00  0.5810E+03
   7.030  0.0000E+00  0.0000E+00  0.5810E+03
   7.040  0.0000E+00  0.0000E+00  0.5810E+03
   7.050  0.0000E+00  0.0000E+00  0.5810E+03
   7.060  0.0000E+00  0.2758E+00  0.5810E+03
   7.070  0.0000E+00  0.2676E+01  0.5810E+03
   7.080  0.0000E+00  0.9327E+01  0.5811E+03
   7.090  0.0000E+00  0.2839E+02  0.5813E+03
   7.100  0.0000E+00  0.2947E+02  0.5816E+03
   7.110  0.0000E+00  0.1323E+02  0.5818E+03
   7.120  0.0000E+00  0.2183E+02  0.5819E+03
   7.130  0.0000E+00  0.3361E+02  0.5822E+03
   7.140  0.0000E+00  0.4890E+02  0.5826E+03
   7.150  0.0000E+00  0.6447E+02  0.5832E+03
   7.160  0.0000E+00  0.2241E+02  0.5839E+03
   7.170  0.0000E+00  0.2122E+01  0.5840E+03
   7.180  0.0000E+00  0.6488E-02  0.5840E+03
   7.190  0.0000E+00  0.0000E+00  0.5840E+03
   7.200  0.0000E+00  0.0000E+00  0.5840E+03
   7.210  0.0000E+00  0.0000E+00  0.5840E+03
   7.220  0.0000E+00  0.0000E+00  0.5840E+03
   7.230  0.0000E+00  0.0000E+00  0.5840E+03
   7.240  0.0000E+00  0.0000E+00  0.5840E+03
   7.250  0.0000E+00  0.0000E+00  0.5840E+03
   7.260  0.0000E+00  0.0000E+00  0.5840E+03
   7.270  0.0000E+00  0.0000E+00  0.5840E+03
   7.280  0.0000E+00  0.0000E+00  0.5840E+03
   7.290  0.0000E+00  0.0000E+00  0.5840E+03
   7.300  0.0000E+00  0.0000E+00  0.5840E+03
   7.310  0.0000E+00  0.0000E+00  0.5840E+03
   7.320  0.0000E+00  0.0000E+00  0.5840E+03
   7.330  0.0000E+00  0.0000E+00  0.5840E+03
   7.340  0.0000E+00  0.0000E+00  0.5840E+03
   7.350  0.0000E+00  0.0000E+00  0.5840E+03
   7.360  0.0000E+00  0.0000E+00  0.5840E+03
   7.370  0.0000E+00  0.0000E+00  0.5840E+03
   7.380  0.0000E+00  0.0000E+00  0.5840E+03
   7.390  0.0000E+00  0.0000E+00  0.5840E+03
   7.400  0.0000E+00  0.0000E+00  0.5840E+03
   7.410  0.0000E+00  0.0000E+00  0.5840E+03
   7.420  0.0000E+00  0.0000E+00  0.5840E+03
   7.430  0.0000E+00  0.0000E+00  0.5840E+03
   7.440  0.0000E+00  0.0000E+00  0.5840E+03
   7.450  0.0000E+00  0.0000E+00  0.5840E+03
   7.460  0.0000E+00  0.0000E+00  0.5840E+03
   7.470  0.1690E-04  0.0000E+00  0.5840E+03
   7.480  0.9581E-04  0.2272E-05  0.5840E+03
   7.490  0.2392E-03  0.4923E-04  0.5840E+03
   7.500  0.4917E-03  0.1569E-03  0.5840E+03
   7.510  0.9860E-03  0.3345E-03  0.5840E+03
   7.520  0.1731E-02  0.7030E-03  0.5840E+03
   7.530  0.2726E-02  0.1300E-02  0.5840E+03
   7.540  0.3973E-02  0.2125E-02  0.5840E+03
   7.550  0.5469E-02  0.3179E-02  0.5840E+03
   7.560  0.7217E-02  0.4461E-02  0.5840E+03
   7.570  0.9215E-02  0.5971E-02  0.5840E+03
   7.580  0.1146E-01  0.7710E-02  0.5840E+03
   7.590  0.1396E-01  0.9677E-02  0.5840E+03
   7.600  0.1671E-01  0.1187E-01  0.5840E+03
   7.610  0.1971E-01  0.1430E-01  0.5840E+03
   7.620  0.2296E-01  0.1695E-01  0.5840E+03
   7.630  0.2647E-01  0.1983E-01  0.5840E+03
   7.640  0.3022E-01  0.2294E-01  0.5840E+03
   7.650  0.3422E-01  0.2627E-01  0.5840E+03
   7.660  0.3847E-01  0.2984E-01  0.5840E+03
   7.670  0.4298E-01  0.3363E-01  0.5840E+03
   7.680  0.4773E-01  0.3766E-01  0.5840E+03
   7.690  0.5274E-01  0.4191E-01  0.5840E+03
   7.700  0.5799E-01  0.4639E-01  0.5840E+03
   7.710  0.6350E-01  0.5109E-01  0.5840E+03
   7.720  0.6926E-01  0.5603E-01  0.5840E+03
   7.730  0.7526E-01  0.6119E-01  0.5840E+03
   7.740  0.8152E-01  0.6659E-01  0.5840E+03
   7.750  0.8803E-01  0.7221E-01  0.5840E+03
   7.760  0.9479E-01  0.7805E-01  0.5840E+03
   7.770  0.1018E+00  0.8413E-01  0.5840E+03
   7.780  0.1091E+00  0.9044E-01  0.5840E+03
   7.790  0.1166E+00  0.9697E-01  0.5840E+03
   7.800  0.1243E+00  0.1037E+00  0.5840E+03
   7.810  0.1323E+00  0.1107E+00  0.5840E+03
   7.820  0.1406E+00  0.1179E+00  0.5840E+03
   7.830  0.1491E+00  0.1254E+00  0.5840E+03
   7.840  0.1579E+00  0.1331E+00  0.5840E+03
   7.850  0.1669E+00  0.1410E+00  0.5840E+03
   7.860  0.1762E+00  0.1491E+00  0.5840E+03
   7.870  0.1853E+00  0.1575E+00  0.5840E+03
   7.880  0.1939E+00  0.1661E+00  0.5840E+03
   7.890  0.2034E+00  0.1749E+00  0.5841E+03
   7.900  0.2143E+00  0.1836E+00  0.5841E+03
   7.910  0.2266E+00  0.1917E+00  0.5841E+03
   7.920  0.2412E+00  0.2010E+00  0.5841E+03
   7.930  0.2550E+00  0.2118E+00  0.5841E+03
   7.940  0.2681E+00  0.2243E+00  0.5841E+03
   7.950  0.2805E+00  0.2394E+00  0.5841E+03
   7.960  0.2923E+00  0.2539E+00  0.5841E+03
   7.970  0.3036E+00  0.2675E+00  0.5841E+03
   7.980  0.3145E+00  0.2804E+00  0.5841E+03
   7.990  0.3251E+00  0.2927E+00  0.5841E+03
   8.000  0.3355E+00  0.3044E+00  0.5841E+03
   8.010  0.3456E+00  0.3158E+00  0.5841E+03
   8.020  0.3555E+00  0.3268E+00  0.5841E+03
   8.030  0.3652E+00  0.3376E+00  0.5841E+03
   8.040  0.3747E+00  0.3481E+00  0.5841E+03
   8.050  0.3840E+00  0.3584E+00  0.5841E+03
   8.060  0.3932E+00  0.3684E+00  0.5841E+03
   8.070  0.4021E+00  0.3783E+00  0.5842E+03
   8.080  0.4109E+00  0.3880E+00  0.5842E+03
   8.090  0.4194E+00  0.3974E+00  0.5842E+03
   8.100  0.4278E+00  0.4067E+00  0.5842E+03
   8.110  0.4360E+00  0.4157E+00  0.5842E+03
   8.120  0.4440E+00  0.4246E+00  0.5842E+03
   8.130  0.4518E+00  0.4332E+00  0.5842E+03
   8.140  0.4594E+00  0.4417E+00  0.5842E+03
   8.150  0.4668E+00  0.4499E+00  0.5842E+03
   8.160  0.4726E+00  0.4579E+00  0.5842E+03
   8.170  0.4759E+00  0.4657E+00  0.5842E+03
   8.180  0.4770E+00  0.4732E+00  0.5843E+03
   8.190  0.4761E+00  0.4783E+00  0.5843E+03
   8.200  0.4773E+00  0.4809E+00  0.5843E+03
   8.210  0.4792E+00  0.4810E+00  0.5843E+03
   8.220  0.4824E+00  0.4802E+00  0.5843E+03
   8.230  0.4858E+00  0.4815E+00  0.5843E+03
   8.240  0.4890E+00  0.4836E+00  0.5843E+03
   8.250  0.4920E+00  0.4871E+00  0.5843E+03
   8.260  0.4952E+00  0.4905E+00  0.5843E+03
   8.270  0.4987E+00  0.4936E+00  0.5843E+03
   8.280  0.5028E+00  0.4966E+00  0.5843E+03
   8.290  0.5075E+00  0.5000E+00  0.5844E+03
   8.300  0.5131E+00  0.5038E+00  0.5844E+03
   8.310  0.5196E+00  0.5081E+00  0.5844E+03
   8.320  0.5271E+00  0.5133E+00  0.5844E+03
   8.330  0.5354E+00  0.5195E+00  0.5844E+03
   8.340  0.5450E+00  0.5266E+00  0.5844E+03
   8.350  0.5564E+00  0.5346E+00  0.5844E+03
   8.360  0.5692E+00  0.5438E+00  0.5844E+03
   8.370  0.5827E+00  0.5547E+00  0.5844E+03
   8.380  0.5965E+00  0.5674E+00  0.5845E+03
   8.390  0.6104E+00  0.5809E+00  0.5845E+03
   8.400  0.6245E+00  0.5949E+00  0.5845E+03
   8.410  0.6388E+00  0.6090E+00  0.5845E+03
   8.420  0.6530E+00  0.6232E+00  0.5845E+03
   8.430  0.6673E+00  0.6378E+00  0.5845E+03
   8.440  0.6817E+00  0.6523E+00  0.5845E+03
   8.450  0.6965E+00  0.6668E+00  0.5845E+03
   8.460  0.7115E+00  0.6815E+00  0.5846E+03
   8.470  0.7268E+00  0.6964E+00  0.5846E+03
   8.480  0.7425E+00  0.7117E+00  0.5846E+03
   8.490  0.7586E+00  0.7272E+00  0.5846E+03
   8.500  0.7750E+00  0.7432E+00  0.5846E+03
   8.510  0.7919E+00  0.7595E+00  0.5846E+03
   8.520  0.8094E+00  0.7761E+00  0.5846E+03
   8.530  0.8274E+00  0.7933E+00  0.5847E+03
   8.540  0.8459E+00  0.8110E+00  0.5847E+03
   8.550  0.8650E+00  0.8293E+00  0.5847E+03
   8.560  0.8846E+00  0.8481E+00  0.5847E+03
   8.570  0.9048E+00  0.8674E+00  0.5847E+03
   8.580  0.9255E+00  0.8874E+00  0.5847E+03
   8.590  0.9468E+00  0.9079E+00  0.5848E+03
   8.600  0.9686E+00  0.9289E+00  0.5848E+03
   8.610  0.9909E+00  0.9505E+00  0.5848E+03
   8.620  0.1014E+01  0.9727E+00  0.5848E+03
   8.630  0.1037E+01  0.9954E+00  0.5848E+03
   8.640  0.1061E+01  0.1019E+01  0.5849E+03
   8.650  0.1086E+01  0.1042E+01  0.5849E+03
   8.660  0.1111E+01  0.1067E+01  0.5849E+03
   8.670  0.1136E+01  0.1092E+01  0.5849E+03
   8.680  0.1162E+01  0.1117E+01  0.5850E+03
   8.690  0.1189E+01  0.1143E+01  0.5850E+03
   8.700  0.1216E+01  0.1170E+01  0.5850E+03
   8.710  0.1244E+01  0.1197E+01  0.5850E+03
   8.720  0.1272E+01  0.1225E+01  0.5850E+03
   8.730  0.1301E+01  0.1253E+01  0.5851E+03
   8.740  0.1329E+01  0.1282E+01  0.5851E+03
   8.750  0.1353E+01  0.1311E+01  0.5851E+03
   8.760  0.1372E+01  0.1341E+01  0.5852E+03
   8.770  0.1401E+01  0.1371E+01  0.5852E+03
   8.780  0.1451E+01  0.1399E+01  0.5852E+03
   8.790  0.1520E+01  0.1442E+01  0.5852E+03
   8.800  0.1605E+01  0.1505E+01  0.5853E+03
   8.810  0.1707E+01  0.1589E+01  0.5853E+03
   8.820  0.1828E+01  0.1695E+01  0.5853E+03
   8.830  0.1964E+01  0.1818E+01  0.5854E+03
   8.840  0.2123E+01  0.1955E+01  0.5854E+03
   8.850  0.2322E+01  0.2104E+01  0.5855E+03
   8.860  0.2607E+01  0.2268E+01  0.5855E+03
   8.870  0.3212E+01  0.2473E+01  0.5856E+03
   8.880  0.5521E+01  0.2799E+01  0.5856E+03
   8.890  0.6276E+01  0.3509E+01  0.5857E+03
   8.900  0.5966E+01  0.6851E+01  0.5858E+03
   8.910  0.6028E+01  0.6219E+01  0.5859E+03
   8.920  0.6521E+01  0.6019E+01  0.5861E+03
   8.930  0.6829E+01  0.6461E+01  0.5862E+03
   8.940  0.7085E+01  0.6902E+01  0.5863E+03
   8.950  0.7271E+01  0.7233E+01  0.5865E+03
   8.960  0.7341E+01  0.7449E+01  0.5866E+03
   8.970  0.7386E+01  0.7546E+01  0.5868E+03
   8.980  0.7410E+01  0.7590E+01  0.5869E+03
   8.990  0.7404E+01  0.7612E+01  0.5871E+03
   9.000  0.7385E+01  0.7601E+01  0.5872E+03
   9.010  0.7455E+01  0.7549E+01  0.5874E+03
   9.020  0.7520E+01  0.7545E+01  0.5875E+03
   9.030  0.7376E+01  0.7572E+01  0.5877E+03
   9.040  0.7149E+01  0.7408E+01  0.5878E+03
   9.050  0.6874E+01  0.7121E+01  0.5880E+03
   9.060  0.6578E+01  0.6773E+01  0.5881E+03
   9.070  0.7390E+01  0.6410E+01  0.5882E+03
   9.080  0.6984E+01  0.6975E+01  0.5884E+03
   9.090  0.5393E+01  0.6777E+01  0.5885E+03
   9.100  0.5538E+01  0.5476E+01  0.5886E+03
   9.110  0.5831E+01  0.5317E+01  0.5887E+03
   9.120  0.6122E+01  0.5606E+01  0.5888E+03
   9.130  0.6372E+01  0.5887E+01  0.5890E+03
   9.140  0.6578E+01  0.6110E+01  0.5891E+03
   9.150  0.6767E+01  0.6294E+01  0.5892E+03
   9.160  0.7020E+01  0.6478E+01  0.5894E+03
   9.170  0.7299E+01  0.6672E+01  0.5895E+03
   9.180  0.7574E+01  0.6951E+01  0.5896E+03
   9.190  0.7868E+01  0.7219E+01  0.5898E+03
   9.200  0.8179E+01  0.7497E+01  0.5899E+03
   9.210  0.8507E+01  0.7793E+01  0.5901E+03
   9.220  0.8843E+01  0.8106E+01  0.5903E+03
   9.230  0.9162E+01  0.8434E+01  0.5904E+03
   9.240  0.9491E+01  0.8768E+01  0.5906E+03
   9.250  0.9849E+01  0.9099E+01  0.5908E+03
   9.260  0.1020E+02  0.9428E+01  0.5910E+03
   9.270  0.1055E+02  0.9750E+01  0.5912E+03
   9.280  0.1092E+02  0.1011E+02  0.5914E+03
   9.290  0.1130E+02  0.1049E+02  0.5916E+03
   9.300  0.1171E+02  0.1087E+02  0.5918E+03
   9.310  0.1213E+02  0.1125E+02  0.5921E+03
   9.320  0.1257E+02  0.1165E+02  0.5923E+03
   9.330  0.1299E+02  0.1207E+02  0.5925E+03
   9.340  0.1339E+02  0.1251E+02  0.5928E+03
   9.350  0.1397E+02  0.1295E+02  0.5931E+03
   9.360  0.1463E+02  0.1338E+02  0.5933E+03
   9.370  0.1526E+02  0.1382E+02  0.5936E+03
   9.380  0.1591E+02  0.1442E+02  0.5939E+03
   9.390  0.1645E+02  0.1531E+02  0.5942E+03
   9.400  0.1676E+02  0.1624E+02  0.5946E+03
   9.410  0.1689E+02  0.1697E+02  0.5949E+03
   9.420  0.1677E+02  0.1748E+02  0.5952E+03
   9.430  0.1662E+02  0.1775E+02  0.5956E+03
   9.440  0.1663E+02  0.1766E+02  0.5959E+03
   9.450  0.1683E+02  0.1742E+02  0.5963E+03
   9.460  0.1710E+02  0.1750E+02  0.5966E+03
   9.470  0.1677E+02  0.1788E+02  0.5970E+03
   9.480  0.1578E+02  0.1798E+02  0.5973E+03
   9.490  0.1510E+02  0.1660E+02  0.5976E+03
   9.500  0.1866E+02  0.1710E+02  0.5980E+03
   9.510  0.1640E+02  0.1641E+02  0.5983E+03
   9.520  0.1822E+02  0.1530E+02  0.5986E+03
   9.530  0.1888E+02  0.1654E+02  0.5990E+03
   9.540  0.1817E+02  0.1778E+02  0.5993E+03
   9.550  0.1713E+02  0.1744E+02  0.5997E+03
   9.560  0.1671E+02  0.1604E+02  0.6000E+03
   9.570  0.1635E+02  0.1633E+02  0.6003E+03
   9.580  0.1552E+02  0.1680E+02  0.6007E+03
   9.590  0.1478E+02  0.1594E+02  0.6010E+03
   9.600  0.1489E+02  0.1579E+02  0.6013E+03
   9.610  0.1482E+02  0.1580E+02  0.6016E+03
   9.620  0.1514E+02  0.1565E+02  0.6019E+03
   9.630  0.1551E+02  0.1559E+02  0.6022E+03
   9.640  0.1585E+02  0.1553E+02  0.6025E+03
   9.650  0.1594E+02  0.1543E+02  0.6028E+03
   9.660  0.1570E+02  0.1539E+02  0.6032E+03
   9.670  0.1470E+02  0.1570E+02  0.6035E+03
   9.680  0.1331E+02  0.1581E+02  0.6038E+03
   9.690  0.1272E+02  0.1467E+02  0.6040E+03
   9.700  0.1309E+02  0.1288E+02  0.6043E+03
   9.710  0.1462E+02  0.1259E+02  0.6046E+03
   9.720  0.1561E+02  0.1351E+02  0.6049E+03
   9.730  0.1651E+02  0.1469E+02  0.6052E+03
   9.740  0.1739E+02  0.1568E+02  0.6055E+03
   9.750  0.1831E+02  0.1668E+02  0.6058E+03
   9.760  0.1928E+02  0.1770E+02  0.6062E+03
   9.770  0.2007E+02  0.1850E+02  0.6066E+03
   9.780  0.1995E+02  0.1899E+02  0.6069E+03
   9.790  0.1925E+02  0.1912E+02  0.6073E+03
   9.800  0.1851E+02  0.1898E+02  0.6077E+03
   9.810  0.1839E+02  0.1886E+02  0.6081E+03
   9.820  0.1848E+02  0.1864E+02  0.6085E+03
   9.830  0.1875E+02  0.1849E+02  0.6088E+03
   9.840  0.1920E+02  0.1849E+02  0.6092E+03
   9.850  0.1988E+02  0.1864E+02  0.6096E+03
   9.860  0.2654E+02  0.1915E+02  0.6100E+03
   9.870  0.3458E+02  0.2476E+02  0.6105E+03
   9.880  0.4526E+02  0.3295E+02  0.6112E+03
   9.890  0.4612E+02  0.4204E+02  0.6120E+03
   9.900  0.4865E+02  0.4520E+02  0.6130E+03
   9.910  0.5091E+02  0.4719E+02  0.6139E+03
   9.920  0.4281E+02  0.4443E+02  0.6149E+03
   9.930  0.4152E+02  0.4817E+02  0.6157E+03
   9.940  0.3237E+02  0.4815E+02  0.6166E+03
   9.950  0.3237E+02  0.3429E+02  0.6173E+03
   9.960  0.3245E+02  0.3182E+02  0.6180E+03
   9.970  0.3075E+02  0.3283E+02  0.6186E+03
   9.980  0.2899E+02  0.3300E+02  0.6192E+03
   9.990  0.2914E+02  0.2968E+02  0.6198E+03
  10.000  0.2968E+02  0.2835E+02  0.6204E+03
  10.010  0.3029E+02  0.2811E+02  0.6210E+03
  10.020  0.3084E+02  0.2844E+02  0.6216E+03
  10.030  0.3139E+02  0.2918E+02  0.6222E+03
  10.040  0.3175E+02  0.3016E+02  0.6228E+03
  10.050  0.3195E+02  0.3119E+02  0.6234E+03
  10.060  0.3212E+02  0.3216E+02  0.6241E+03
  10.070  0.3220E+02  0.3274E+02  0.6247E+03
  10.080  0.3236E+02  0.3276E+02  0.6254E+03
  10.090  0.3257E+02  0.3278E+02  0.6260E+03
  10.100  0.3328E+02  0.3304E+02  0.6267E+03
  10.110  0.3308E+02  0.3273E+02  0.6273E+03
  10.120  0.4187E+02  0.3314E+02  0.6280E+03
  10.130  0.3077E+02  0.3541E+02  0.6287E+03
  10.140  0.2880E+02  0.3321E+02  0.6294E+03
  10.150  0.2783E+02  0.2946E+02  0.6300E+03
  10.160  0.2774E+02  0.2878E+02  0.6305E+03
  10.170  0.2750E+02  0.2844E+02  0.6311E+03
  10.180  0.2706E+02  0.2805E+02  0.6317E+03
  10.190  0.2607E+02  0.2728E+02  0.6322E+03
  10.200  0.2432E+02  0.2617E+02  0.6327E+03
  10.210  0.2221E+02  0.2457E+02  0.6332E+03
  10.220  0.2042E+02  0.2289E+02  0.6337E+03
  10.230  0.2008E+02  0.2078E+02  0.6341E+03
  10.240  0.1969E+02  0.2076E+02  0.6345E+03
  10.250  0.1947E+02  0.2049E+02  0.6349E+03
  10.260  0.1920E+02  0.2046E+02  0.6353E+03
  10.270  0.1899E+02  0.2026E+02  0.6357E+03
  10.280  0.1884E+02  0.2003E+02  0.6361E+03
  10.290  0.1876E+02  0.1983E+02  0.6364E+03
  10.300  0.1878E+02  0.1967E+02  0.6368E+03
  10.310  0.1888E+02  0.1950E+02  0.6372E+03
  10.320  0.1891E+02  0.1946E+02  0.6376E+03
  10.330  0.2213E+02  0.1963E+02  0.6380E+03
  10.340  0.3093E+02  0.2336E+02  0.6385E+03
  10.350  0.3291E+02  0.3128E+02  0.6391E+03
  10.360  0.3081E+02  0.3136E+02  0.6397E+03
  10.370  0.3124E+02  0.3192E+02  0.6403E+03
  10.380  0.2997E+02  0.3178E+02  0.6410E+03
  10.390  0.2925E+02  0.2707E+02  0.6416E+03
  10.400  0.2532E+02  0.2395E+02  0.6421E+03
  10.410  0.2242E+02  0.2342E+02  0.6426E+03
  10.420  0.1965E+02  0.2338E+02  0.6430E+03
  10.430  0.1734E+02  0.2219E+02  0.6434E+03
  10.440  0.1618E+02  0.1852E+02  0.6438E+03
  10.450  0.1585E+02  0.1704E+02  0.6441E+03
  10.460  0.1608E+02  0.1687E+02  0.6445E+03
  10.470  0.1666E+02  0.1723E+02  0.6448E+03
  10.480  0.1720E+02  0.1762E+02  0.6451E+03
  10.490  0.1733E+02  0.1774E+02  0.6455E+03
  10.500  0.1704E+02  0.1733E+02  0.6458E+03
  10.510  0.1648E+02  0.1734E+02  0.6462E+03
  10.520  0.1610E+02  0.1710E+02  0.6465E+03
  10.530  0.1577E+02  0.1687E+02  0.6468E+03
  10.540  0.1526E+02  0.1650E+02  0.6472E+03
  10.550  0.1476E+02  0.1567E+02  0.6475E+03
  10.560  0.1438E+02  0.1497E+02  0.6478E+03
  10.570  0.1412E+02  0.1439E+02  0.6481E+03
  10.580  0.1395E+02  0.1395E+02  0.6483E+03
  10.590  0.1412E+02  0.1341E+02  0.6486E+03
  10.600  0.1435E+02  0.1337E+02  0.6489E+03
  10.610  0.1458E+02  0.1364E+02  0.6492E+03
  10.620  0.1485E+02  0.1380E+02  0.6495E+03
  10.630  0.1516E+02  0.1399E+02  0.6498E+03
  10.640  0.1551E+02  0.1420E+02  0.6500E+03
  10.650  0.1632E+02  0.1442E+02  0.6503E+03
  10.660  0.1766E+02  0.1452E+02  0.6507E+03
  10.670  0.1868E+02  0.1512E+02  0.6510E+03
  10.680  0.1949E+02  0.1588E+02  0.6513E+03
  10.690  0.1950E+02  0.1781E+02  0.6517E+03
  10.700  0.1900E+02  0.2029E+02  0.6521E+03
  10.710  0.1821E+02  0.2018E+02  0.6525E+03
  10.720  0.1736E+02  0.1833E+02  0.6528E+03
  10.730  0.1687E+02  0.1589E+02  0.6532E+03
  10.740  0.1703E+02  0.1386E+02  0.6535E+03
  10.750  0.1851E+02  0.1433E+02  0.6538E+03
  10.760  0.1946E+02  0.1601E+02  0.6542E+03
  10.770  0.1905E+02  0.1726E+02  0.6545E+03
  10.780  0.1805E+02  0.1840E+02  0.6549E+03
  10.790  0.1676E+02  0.1985E+02  0.6553E+03
  10.800  0.1563E+02  0.1924E+02  0.6556E+03
  10.810  0.1375E+02  0.1805E+02  0.6559E+03
  10.820  0.1272E+02  0.1664E+02  0.6563E+03
  10.830  0.1101E+02  0.1512E+02  0.6565E+03
  10.840  0.8376E+01  0.1353E+02  0.6568E+03
  10.850  0.7058E+01  0.1216E+02  0.6570E+03
  10.860  0.6813E+01  0.1077E+02  0.6572E+03
  10.870  0.6496E+01  0.9321E+01  0.6573E+03
  10.880  0.8052E+01  0.7913E+01  0.6575E+03
  10.890  0.1287E+02  0.7241E+01  0.6577E+03
  10.900  0.1309E+02  0.1053E+02  0.6579E+03
  10.910  0.1367E+02  0.1072E+02  0.6581E+03
  10.920  0.1425E+02  0.1100E+02  0.6584E+03
  10.930  0.1438E+02  0.1149E+02  0.6586E+03
  10.940  0.1360E+02  0.1222E+02  0.6589E+03
  10.950  0.1315E+02  0.1315E+02  0.6591E+03
  10.960  0.1347E+02  0.1386E+02  0.6594E+03
  10.970  0.9976E+01  0.1339E+02  0.6597E+03
  10.980  0.8950E+01  0.1250E+02  0.6599E+03
  10.990  0.9749E+01  0.1590E+02  0.6601E+03
  11.000  0.1096E+02  0.1142E+02  0.6604E+03
  11.010  0.1219E+02  0.1034E+02  0.6606E+03
  11.020  0.1357E+02  0.1158E+02  0.6608E+03
  11.030  0.1582E+02  0.1282E+02  0.6611E+03
  11.040  0.1807E+02  0.1446E+02  0.6614E+03
  11.050  0.2254E+02  0.1617E+02  0.6618E+03
  11.060  0.2532E+02  0.1899E+02  0.6622E+03
  11.070  0.2364E+02  0.2030E+02  0.6626E+03
  11.080  0.1989E+02  0.2012E+02  0.6631E+03
  11.090  0.1852E+02  0.1981E+02  0.6634E+03
  11.100  0.1707E+02  0.1921E+02  0.6638E+03
  11.110  0.1518E+02  0.1668E+02  0.6642E+03
  11.120  0.1333E+02  0.1606E+02  0.6645E+03
  11.130  0.1161E+02  0.1478E+02  0.6647E+03
  11.140  0.1004E+02  0.1352E+02  0.6650E+03
  11.150  0.8634E+01  0.1241E+02  0.6652E+03
  11.160  0.7653E+01  0.1106E+02  0.6654E+03
  11.170  0.7376E+01  0.9703E+01  0.6656E+03
  11.180  0.7295E+01  0.8483E+01  0.6658E+03
  11.190  0.7256E+01  0.7705E+01  0.6659E+03
  11.200  0.7238E+01  0.7292E+01  0.6661E+03
  11.210  0.6995E+01  0.7039E+01  0.6662E+03
  11.220  0.6679E+01  0.6990E+01  0.6663E+03
  11.230  0.7006E+01  0.6977E+01  0.6665E+03
  11.240  0.7145E+01  0.6989E+01  0.6666E+03
  11.250  0.7135E+01  0.6947E+01  0.6668E+03
  11.260  0.7105E+01  0.6647E+01  0.6669E+03
  11.270  0.7096E+01  0.6721E+01  0.6670E+03
  11.280  0.7405E+01  0.7049E+01  0.6672E+03
  11.290  0.8443E+01  0.7431E+01  0.6673E+03
  11.300  0.9497E+01  0.7556E+01  0.6675E+03
  11.310  0.1055E+02  0.7616E+01  0.6677E+03
  11.320  0.1191E+02  0.7719E+01  0.6679E+03
  11.330  0.1245E+02  0.8566E+01  0.6681E+03
  11.340  0.1246E+02  0.1071E+02  0.6683E+03
  11.350  0.1264E+02  0.1268E+02  0.6685E+03
  11.360  0.1315E+02  0.1360E+02  0.6688E+03
  11.370  0.1409E+02  0.1460E+02  0.6691E+03
  11.380  0.1528E+02  0.1574E+02  0.6694E+03
  11.390  0.1679E+02  0.1684E+02  0.6697E+03
  11.400  0.1864E+02  0.1805E+02  0.6700E+03
  11.410  0.2051E+02  0.1955E+02  0.6704E+03
  11.420  0.2260E+02  0.2144E+02  0.6708E+03
  11.430  0.2478E+02  0.2334E+02  0.6713E+03
  11.440  0.2647E+02  0.2515E+02  0.6718E+03
  11.450  0.2715E+02  0.2673E+02  0.6723E+03
  11.460  0.2790E+02  0.2743E+02  0.6729E+03
  11.470  0.2898E+02  0.2797E+02  0.6734E+03
  11.480  0.2981E+02  0.2883E+02  0.6740E+03
  11.490  0.2970E+02  0.2956E+02  0.6746E+03
  11.500  0.2903E+02  0.2948E+02  0.6752E+03
  11.510  0.2761E+02  0.2912E+02  0.6758E+03
  11.520  0.2612E+02  0.2805E+02  0.6763E+03
  11.530  0.2538E+02  0.2639E+02  0.6768E+03
  11.540  0.2341E+02  0.2488E+02  0.6774E+03
  11.550  0.2176E+02  0.2307E+02  0.6778E+03
  11.560  0.2126E+02  0.2250E+02  0.6783E+03
  11.570  0.2060E+02  0.2275E+02  0.6787E+03
  11.580  0.2139E+02  0.2082E+02  0.6791E+03
  11.590  0.2217E+02  0.2002E+02  0.6796E+03
  11.600  0.2315E+02  0.2026E+02  0.6800E+03
  11.610  0.2404E+02  0.2096E+02  0.6804E+03
  11.620  0.2398E+02  0.2145E+02  0.6809E+03
  11.630  0.2473E+02  0.2196E+02  0.6814E+03
  11.640  0.2543E+02  0.2492E+02  0.6819E+03
  11.650  0.2536E+02  0.2333E+02  0.6824E+03
  11.660  0.2556E+02  0.2484E+02  0.6828E+03
  11.670  0.2653E+02  0.2649E+02  0.6834E+03
  11.680  0.2853E+02  0.2730E+02  0.6839E+03
  11.690  0.2982E+02  0.2837E+02  0.6845E+03
  11.700  0.2843E+02  0.2905E+02  0.6851E+03
  11.710  0.2679E+02  0.2689E+02  0.6856E+03
  11.720  0.2609E+02  0.2353E+02  0.6861E+03
  11.730  0.2537E+02  0.2186E+02  0.6866E+03
  11.740  0.2417E+02  0.2290E+02  0.6871E+03
  11.750  0.2276E+02  0.3074E+02  0.6876E+03
  11.760  0.2206E+02  0.2468E+02  0.6881E+03
  11.770  0.2204E+02  0.2449E+02  0.6886E+03
  11.780  0.2215E+02  0.2367E+02  0.6890E+03
  11.790  0.2667E+02  0.2275E+02  0.6895E+03
  11.800  0.2509E+02  0.2349E+02  0.6900E+03
  11.810  0.2445E+02  0.2506E+02  0.6905E+03
  11.820  0.2379E+02  0.2623E+02  0.6910E+03
  11.830  0.2293E+02  0.2445E+02  0.6914E+03
  11.840  0.2193E+02  0.2387E+02  0.6919E+03
  11.850  0.2092E+02  0.2304E+02  0.6924E+03
  11.860  0.2001E+02  0.2212E+02  0.6928E+03
  11.870  0.1909E+02  0.2102E+02  0.6932E+03
  11.880  0.1796E+02  0.2005E+02  0.6936E+03
  11.890  0.1659E+02  0.1904E+02  0.6940E+03
  11.900  0.1506E+02  0.1794E+02  0.6943E+03
  11.910  0.1392E+02  0.1666E+02  0.6946E+03
  11.920  0.1272E+02  0.1542E+02  0.6949E+03
  11.930  0.1166E+02  0.1427E+02  0.6952E+03
  11.940  0.1068E+02  0.1317E+02  0.6954E+03
  11.950  0.9851E+01  0.1196E+02  0.6957E+03
  11.960  0.9226E+01  0.1098E+02  0.6959E+03
  11.970  0.9272E+01  0.1019E+02  0.6961E+03
  11.980  0.9516E+01  0.1009E+02  0.6963E+03
  11.990  0.9026E+01  0.9617E+01  0.6965E+03
  12.000  0.8496E+01  0.9785E+01  0.6966E+03
  12.010  0.7906E+01  0.9140E+01  0.6968E+03
  12.020  0.7255E+01  0.8574E+01  0.6970E+03
  12.030  0.6541E+01  0.7940E+01  0.6971E+03
  12.040  0.5761E+01  0.7228E+01  0.6973E+03
  12.050  0.4911E+01  0.6437E+01  0.6974E+03
  12.060  0.4059E+01  0.5556E+01  0.6975E+03
  12.070  0.3332E+01  0.4576E+01  0.6976E+03
  12.080  0.2739E+01  0.3689E+01  0.6977E+03
  12.090  0.2321E+01  0.2986E+01  0.6977E+03
  12.100  0.2000E+01  0.2523E+01  0.6978E+03
  12.110  0.1714E+01  0.2182E+01  0.6978E+03
  12.120  0.1454E+01  0.1876E+01  0.6978E+03
  12.130  0.1217E+01  0.1594E+01  0.6979E+03
  12.140  0.1002E+01  0.1337E+01  0.6979E+03
  12.150  0.8089E+00  0.1103E+01  0.6979E+03
  12.160  0.6383E+00  0.8937E+00  0.6979E+03
  12.170  0.4899E+00  0.7080E+00  0.6980E+03
  12.180  0.3637E+00  0.5461E+00  0.6980E+03
  12.190  0.2598E+00  0.4080E+00  0.6980E+03
  12.200  0.1780E+00  0.2939E+00  0.6980E+03
  12.210  0.1178E+00  0.2036E+00  0.6980E+03
  12.220  0.7857E-01  0.1372E+00  0.6980E+03
  12.230  0.5726E-01  0.9367E-01  0.6980E+03
  12.240  0.4805E-01  0.6922E-01  0.6980E+03
  12.250  0.4353E-01  0.5633E-01  0.6980E+03
  12.260  0.3974E-01  0.4976E-01  0.6980E+03
  12.270  0.3612E-01  0.4448E-01  0.6980E+03
  12.280  0.3268E-01  0.3988E-01  0.6980E+03
  12.290  0.2940E-01  0.3592E-01  0.6980E+03
  12.300  0.2630E-01  0.3241E-01  0.6980E+03
  12.310  0.2337E-01  0.2914E-01  0.6980E+03
  12.320  0.2062E-01  0.2604E-01  0.6980E+03
  12.330  0.1804E-01  0.2312E-01  0.6980E+03
  12.340  0.1563E-01  0.2037E-01  0.6980E+03
  12.350  0.1339E-01  0.1779E-01  0.6980E+03
  12.360  0.1133E-01  0.1539E-01  0.6980E+03
  12.370  0.9437E-02  0.1317E-01  0.6980E+03
  12.380  0.7720E-02  0.1111E-01  0.6980E+03
  12.390  0.6175E-02  0.9236E-02  0.6980E+03
  12.400  0.4803E-02  0.7532E-02  0.6980E+03
  12.410  0.3604E-02  0.6002E-02  0.6980E+03
  12.420  0.2578E-02  0.4646E-02  0.6980E+03
  12.430  0.1725E-02  0.3465E-02  0.6980E+03
  12.440  0.1044E-02  0.2458E-02  0.6980E+03
  12.450  0.5371E-03  0.1625E-02  0.6980E+03
  12.460  0.2026E-03  0.9656E-03  0.6980E+03
  12.470  0.4080E-04  0.4808E-03  0.6980E+03
  12.480  0.4309E-08  0.1701E-03  0.6980E+03
  12.490  0.0000E+00  0.3126E-04  0.6980E+03
  12.500  0.0000E+00  0.0000E+00  0.6980E+03
  12.510  0.0000E+00  0.0000E+00  0.6980E+03
  12.520  0.0000E+00  0.0000E+00  0.6980E+03
  12.530  0.0000E+00  0.0000E+00  0.6980E+03
  12.540  0.0000E+00  0.0000E+00  0.6980E+03
  12.550  0.0000E+00  0.0000E+00  0.6980E+03
  12.560  0.0000E+00  0.0000E+00  0.6980E+03
  12.570  0.0000E+00  0.0000E+00  0.6980E+03
  12.580  0.0000E+00  0.0000E+00  0.6980E+03
  12.590  0.0000E+00  0.0000E+00  0.6980E+03
  12.600  0.0000E+00  0.0000E+00  0.6980E+03
  12.610  0.0000E+00  0.0000E+00  0.6980E+03
  12.620  0.0000E+00  0.0000E+00  0.6980E+03
  12.630  0.0000E+00  0.0000E+00  0.6980E+03
  12.640  0.0000E+00  0.0000E+00  0.6980E+03
  12.650  0.0000E+00  0.0000E+00  0.6980E+03
  12.660  0.0000E+00  0.0000E+00  0.6980E+03
  12.670  0.0000E+00  0.0000E+00  0.6980E+03
  12.680  0.0000E+00  0.0000E+00  0.6980E+03
  12.690  0.0000E+00  0.0000E+00  0.6980E+03
  12.700  0.0000E+00  0.0000E+00  0.6980E+03
  12.710  0.0000E+00  0.0000E+00  0.6980E+03
  12.720  0.0000E+00  0.0000E+00  0.6980E+03
  12.730  0.0000E+00  0.0000E+00  0.6980E+03
  12.740  0.0000E+00  0.0000E+00  0.6980E+03
  12.750  0.0000E+00  0.0000E+00  0.6980E+03
  12.760  0.0000E+00  0.0000E+00  0.6980E+03
  12.770  0.0000E+00  0.0000E+00  0.6980E+03
  12.780  0.0000E+00  0.0000E+00  0.6980E+03
  12.790  0.0000E+00  0.0000E+00  0.6980E+03
  12.800  0.0000E+00  0.0000E+00  0.6980E+03
  12.810  0.0000E+00  0.0000E+00  0.6980E+03
  12.820  0.0000E+00  0.0000E+00  0.6980E+03
  12.830  0.0000E+00  0.0000E+00  0.6980E+03
  12.840  0.0000E+00  0.0000E+00  0.6980E+03
  12.850  0.0000E+00  0.0000E+00  0.6980E+03
  12.860  0.0000E+00  0.0000E+00  0.6980E+03
  12.870  0.0000E+00  0.0000E+00  0.6980E+03
  12.880  0.0000E+00  0.0000E+00  0.6980E+03
  12.890  0.0000E+00  0.0000E+00  0.6980E+03
  12.900  0.0000E+00  0.0000E+00  0.6980E+03
  12.910  0.0000E+00  0.0000E+00  0.6980E+03
  12.920  0.0000E+00  0.0000E+00  0.6980E+03
  12.930  0.0000E+00  0.0000E+00  0.6980E+03
  12.940  0.0000E+00  0.0000E+00  0.6980E+03
  12.950  0.0000E+00  0.0000E+00  0.6980E+03
  12.960  0.0000E+00  0.0000E+00  0.6980E+03
  12.970  0.0000E+00  0.0000E+00  0.6980E+03
  12.980  0.0000E+00  0.0000E+00  0.6980E+03
  12.990  0.0000E+00  0.0000E+00  0.6980E+03
  13.000  0.0000E+00  0.0000E+00  0.6980E+03
  13.010  0.0000E+00  0.0000E+00  0.6980E+03
  13.020  0.0000E+00  0.0000E+00  0.6980E+03
  13.030  0.0000E+00  0.0000E+00  0.6980E+03
  13.040  0.0000E+00  0.0000E+00  0.6980E+03
  13.050  0.0000E+00  0.0000E+00  0.6980E+03
  13.060  0.0000E+00  0.0000E+00  0.6980E+03
  13.070  0.0000E+00  0.0000E+00  0.6980E+03
  13.080  0.0000E+00  0.0000E+00  0.6980E+03
  13.090  0.0000E+00  0.0000E+00  0.6980E+03
  13.100  0.0000E+00  0.0000E+00  0.6980E+03
  13.110  0.0000E+00  0.0000E+00  0.6980E+03
  13.120  0.0000E+00  0.0000E+00  0.6980E+03
  13.130  0.0000E+00  0.0000E+00  0.6980E+03
  13.140  0.0000E+00  0.0000E+00  0.6980E+03
  13.150  0.0000E+00  0.0000E+00  0.6980E+03
  13.160  0.0000E+00  0.0000E+00  0.6980E+03
  13.170  0.0000E+00  0.0000E+00  0.6980E+03
  13.180  0.0000E+00  0.0000E+00  0.6980E+03
  13.190  0.0000E+00  0.0000E+00  0.6980E+03
  13.200  0.0000E+00  0.0000E+00  0.6980E+03
  13.210  0.0000E+00  0.0000E+00  0.6980E+03
  13.220  0.0000E+00  0.0000E+00  0.6980E+03
  13.230  0.0000E+00  0.0000E+00  0.6980E+03
  13.240  0.0000E+00  0.0000E+00  0.6980E+03
  13.250  0.0000E+00  0.0000E+00  0.6980E+03
  13.260  0.0000E+00  0.0000E+00  0.6980E+03
  13.270  0.0000E+00  0.0000E+00  0.6980E+03
  13.280  0.0000E+00  0.0000E+00  0.6980E+03
  13.290  0.0000E+00  0.0000E+00  0.6980E+03
  13.300  0.0000E+00  0.0000E+00  0.6980E+03
  13.310  0.0000E+00  0.0000E+00  0.6980E+03
  13.320  0.0000E+00  0.0000E+00  0.6980E+03
  13.330  0.0000E+00  0.0000E+00  0.6980E+03
  13.340  0.0000E+00  0.0000E+00  0.6980E+03
  13.350  0.0000E+00  0.0000E+00  0.6980E+03
  13.360  0.0000E+00  0.0000E+00  0.6980E+03
  13.370  0.0000E+00  0.0000E+00  0.6980E+03
  13.380  0.0000E+00  0.0000E+00  0.6980E+03
  13.390  0.0000E+00  0.0000E+00  0.6980E+03
  13.400  0.0000E+00  0.0000E+00  0.6980E+03
  13.410  0.0000E+00  0.0000E+00  0.6980E+03
  13.420  0.0000E+00  0.0000E+00  0.6980E+03
  13.430  0.0000E+00  0.0000E+00  0.6980E+03
  13.440  0.0000E+00  0.0000E+00  0.6980E+03
  13.450  0.0000E+00  0.0000E+00  0.6980E+03
  13.460  0.0000E+00  0.0000E+00  0.6980E+03
  13.470  0.0000E+00  0.0000E+00  0.6980E+03
  13.480  0.0000E+00  0.0000E+00  0.6980E+03
  13.490  0.0000E+00  0.0000E+00  0.6980E+03
  13.500  0.0000E+00  0.0000E+00  0.6980E+03
  13.510  0.0000E+00  0.0000E+00  0.6980E+03
  13.520  0.0000E+00  0.0000E+00  0.6980E+03
  13.530  0.0000E+00  0.0000E+00  0.6980E+03
  13.540  0.0000E+00  0.0000E+00  0.6980E+03
  13.550  0.0000E+00  0.0000E+00  0.6980E+03
  13.560  0.0000E+00  0.0000E+00  0.6980E+03
  13.570  0.0000E+00  0.0000E+00  0.6980E+03
  13.580  0.0000E+00  0.0000E+00  0.6980E+03
  13.590  0.0000E+00  0.0000E+00  0.6980E+03
  13.600  0.0000E+00  0.0000E+00  0.6980E+03
  13.610  0.0000E+00  0.0000E+00  0.6980E+03
  13.620  0.0000E+00  0.0000E+00  0.6980E+03
  13.630  0.0000E+00  0.0000E+00  0.6980E+03
  13.640  0.0000E+00  0.0000E+00  0.6980E+03
  13.650  0.0000E+00  0.0000E+00  0.6980E+03
  13.660  0.0000E+00  0.0000E+00  0.6980E+03
  13.670  0.0000E+00  0.0000E+00  0.6980E+03
  13.680  0.0000E+00  0.0000E+00  0.6980E+03
  13.690  0.0000E+00  0.0000E+00  0.6980E+03
  13.700  0.0000E+00  0.0000E+00  0.6980E+03
  13.710  0.0000E+00  0.0000E+00  0.6980E+03
  13.720  0.0000E+00  0.0000E+00  0.6980E+03
  13.730  0.0000E+00  0.0000E+00  0.6980E+03
  13.740  0.0000E+00  0.0000E+00  0.6980E+03
  13.750  0.0000E+00  0.0000E+00  0.6980E+03
  13.760  0.0000E+00  0.0000E+00  0.6980E+03
  13.770  0.0000E+00  0.0000E+00  0.6980E+03
  13.780  0.0000E+00  0.0000E+00  0.6980E+03
  13.790  0.0000E+00  0.0000E+00  0.6980E+03
  13.800  0.0000E+00  0.0000E+00  0.6980E+03
  13.810  0.0000E+00  0.0000E+00  0.6980E+03
  13.820  0.0000E+00  0.0000E+00  0.6980E+03
  13.830  0.0000E+00  0.0000E+00  0.6980E+03
  13.840  0.0000E+00  0.0000E+00  0.6980E+03
  13.850  0.0000E+00  0.0000E+00  0.6980E+03
  13.860  0.0000E+00  0.0000E+00  0.6980E+03
  13.870  0.0000E+00  0.0000E+00  0.6980E+03
  13.880  0.0000E+00  0.0000E+00  0.6980E+03
  13.890  0.0000E+00  0.0000E+00  0.6980E+03
  13.900  0.0000E+00  0.0000E+00  0.6980E+03
  13.910  0.0000E+00  0.0000E+00  0.6980E+03
  13.920  0.0000E+00  0.0000E+00  0.6980E+03
  13.930  0.0000E+00  0.0000E+00  0.6980E+03
  13.940  0.0000E+00  0.0000E+00  0.6980E+03
  13.950  0.0000E+00  0.0000E+00  0.6980E+03
  13.960  0.0000E+00  0.0000E+00  0.6980E+03
  13.970  0.0000E+00  0.0000E+00  0.6980E+03
  13.980  0.0000E+00  0.0000E+00  0.6980E+03
  13.990  0.0000E+00  0.0000E+00  0.6980E+03
  14.000  0.0000E+00  0.0000E+00  0.6980E+03
  14.010  0.0000E+00  0.0000E+00  0.6980E+03
  14.020  0.0000E+00  0.0000E+00  0.6980E+03
  14.030  0.0000E+00  0.0000E+00  0.6980E+03
  14.040  0.0000E+00  0.0000E+00  0.6980E+03
  14.050  0.0000E+00  0.0000E+00  0.6980E+03
  14.060  0.0000E+00  0.0000E+00  0.6980E+03
  14.070  0.0000E+00  0.0000E+00  0.6980E+03
  14.080  0.0000E+00  0.0000E+00  0.6980E+03
  14.090  0.0000E+00  0.0000E+00  0.6980E+03
  14.100  0.0000E+00  0.0000E+00  0.6980E+03
  14.110  0.0000E+00  0.0000E+00  0.6980E+03
  14.120  0.0000E+00  0.0000E+00  0.6980E+03
  14.130  0.0000E+00  0.0000E+00  0.6980E+03
  14.140  0.0000E+00  0.0000E+00  0.6980E+03
  14.150  0.0000E+00  0.0000E+00  0.6980E+03
  14.160  0.0000E+00  0.0000E+00  0.6980E+03
  14.170  0.0000E+00  0.0000E+00  0.6980E+03
  14.180  0.0000E+00  0.0000E+00  0.6980E+03
  14.190  0.0000E+00  0.0000E+00  0.6980E+03
  14.200  0.0000E+00  0.0000E+00  0.6980E+03
  14.210  0.0000E+00  0.0000E+00  0.6980E+03
  14.220  0.0000E+00  0.0000E+00  0.6980E+03
  14.230  0.0000E+00  0.0000E+00  0.6980E+03
  14.240  0.0000E+00  0.0000E+00  0.6980E+03
  14.250  0.0000E+00  0.0000E+00  0.6980E+03
  14.260  0.0000E+00  0.0000E+00  0.6980E+03
  14.270  0.0000E+00  0.0000E+00  0.6980E+03
  14.280  0.0000E+00  0.0000E+00  0.6980E+03
  14.290  0.0000E+00  0.0000E+00  0.6980E+03
  14.300  0.0000E+00  0.0000E+00  0.6980E+03
  14.310  0.0000E+00  0.0000E+00  0.6980E+03
  14.320  0.0000E+00  0.0000E+00  0.6980E+03
  14.330  0.0000E+00  0.0000E+00  0.6980E+03
  14.340  0.0000E+00  0.0000E+00  0.6980E+03
  14.350  0.0000E+00  0.0000E+00  0.6980E+03
  14.360  0.0000E+00  0.0000E+00  0.6980E+03
  14.370  0.0000E+00  0.0000E+00  0.6980E+03
  14.380  0.0000E+00  0.0000E+00  0.6980E+03
  14.390  0.0000E+00  0.0000E+00  0.6980E+03
  14.400  0.0000E+00  0.0000E+00  0.6980E+03
  14.410  0.0000E+00  0.0000E+00  0.6980E+03
  14.420  0.0000E+00  0.0000E+00  0.6980E+03
  14.430  0.0000E+00  0.0000E+00  0.6980E+03
  14.440  0.0000E+00  0.0000E+00  0.6980E+03
  14.450  0.0000E+00  0.0000E+00  0.6980E+03
  14.460  0.0000E+00  0.0000E+00  0.6980E+03
  14.470  0.0000E+00  0.0000E+00  0.6980E+03
  14.480  0.0000E+00  0.0000E+00  0.6980E+03
  14.490  0.0000E+00  0.0000E+00  0.6980E+03
  14.500  0.0000E+00  0.0000E+00  0.6980E+03
  14.510  0.0000E+00  0.0000E+00  0.6980E+03
  14.520  0.0000E+00  0.0000E+00  0.6980E+03
  14.530  0.0000E+00  0.0000E+00  0.6980E+03
  14.540  0.0000E+00  0.0000E+00  0.6980E+03
  14.550  0.0000E+00  0.0000E+00  0.6980E+03
  14.560  0.0000E+00  0.0000E+00  0.6980E+03
  14.570  0.0000E+00  0.0000E+00  0.6980E+03
  14.580  0.0000E+00  0.0000E+00  0.6980E+03
  14.590  0.0000E+00  0.0000E+00  0.6980E+03
  14.600  0.0000E+00  0.0000E+00  0.6980E+03
  14.610  0.0000E+00  0.0000E+00  0.6980E+03
  14.620  0.0000E+00  0.0000E+00  0.6980E+03
  14.630  0.0000E+00  0.0000E+00  0.6980E+03
  14.640  0.0000E+00  0.0000E+00  0.6980E+03
  14.650  0.0000E+00  0.0000E+00  0.6980E+03
  14.660  0.0000E+00  0.0000E+00  0.6980E+03
  14.670  0.0000E+00  0.0000E+00  0.6980E+03
  14.680  0.0000E+00  0.0000E+00  0.6980E+03
  14.690  0.0000E+00  0.0000E+00  0.6980E+03
  14.700  0.0000E+00  0.0000E+00  0.6980E+03
  14.710  0.0000E+00  0.0000E+00  0.6980E+03
  14.720  0.0000E+00  0.0000E+00  0.6980E+03
  14.730  0.0000E+00  0.0000E+00  0.6980E+03
  14.740  0.0000E+00  0.0000E+00  0.6980E+03
  14.750  0.0000E+00  0.0000E+00  0.6980E+03
  14.760  0.0000E+00  0.0000E+00  0.6980E+03
  14.770  0.0000E+00  0.0000E+00  0.6980E+03
  14.780  0.0000E+00  0.0000E+00  0.6980E+03
  14.790  0.0000E+00  0.0000E+00  0.6980E+03
  14.800  0.0000E+00  0.0000E+00  0.6980E+03
  14.810  0.0000E+00  0.0000E+00  0.6980E+03
  14.820  0.0000E+00  0.0000E+00  0.6980E+03
  14.830  0.0000E+00  0.0000E+00  0.6980E+03
  14.840  0.0000E+00  0.0000E+00  0.6980E+03
  14.850  0.0000E+00  0.0000E+00  0.6980E+03
  14.860  0.0000E+00  0.0000E+00  0.6980E+03
  14.870  0.0000E+00  0.0000E+00  0.6980E+03
  14.880  0.0000E+00  0.0000E+00  0.6980E+03
  14.890  0.0000E+00  0.0000E+00  0.6980E+03
  14.900  0.0000E+00  0.0000E+00  0.6980E+03
  14.910  0.0000E+00  0.0000E+00  0.6980E+03
  14.920  0.0000E+00  0.0000E+00  0.6980E+03
  14.930  0.0000E+00  0.0000E+00  0.6980E+03
  14.940  0.0000E+00  0.0000E+00  0.6980E+03
  14.950  0.0000E+00  0.0000E+00  0.6980E+03
  14.960  0.0000E+00  0.0000E+00  0.6980E+03
  14.970  0.0000E+00  0.0000E+00  0.6980E+03
  14.980  0.0000E+00  0.0000E+00  0.6980E+03
  14.990  0.0000E+00  0.0000E+00  0.6980E+03
  15.000  0.0000E+00  0.0000E+00  0.6980E+03
