#  E (eV)   dosup(E)     dosdw(E)   Int dos(E) EFermi =    6.769 eV
 -15.000  0.0000E+00  0.0000E+00  0.8000E+01
 -14.990  0.0000E+00  0.0000E+00  0.8000E+01
 -14.980  0.0000E+00  0.0000E+00  0.8000E+01
 -14.970  0.0000E+00  0.0000E+00  0.8000E+01
 -14.960  0.0000E+00  0.0000E+00  0.8000E+01
 -14.950  0.0000E+00  0.0000E+00  0.8000E+01
 -14.940  0.0000E+00  0.0000E+00  0.8000E+01
 -14.930  0.0000E+00  0.0000E+00  0.8000E+01
 -14.920  0.0000E+00  0.0000E+00  0.8000E+01
 -14.910  0.0000E+00  0.0000E+00  0.8000E+01
 -14.900  0.0000E+00  0.0000E+00  0.8000E+01
 -14.890  0.0000E+00  0.0000E+00  0.8000E+01
 -14.880  0.0000E+00  0.0000E+00  0.8000E+01
 -14.870  0.0000E+00  0.0000E+00  0.8000E+01
 -14.860  0.0000E+00  0.0000E+00  0.8000E+01
 -14.850  0.0000E+00  0.0000E+00  0.8000E+01
 -14.840  0.0000E+00  0.0000E+00  0.8000E+01
 -14.830  0.0000E+00  0.0000E+00  0.8000E+01
 -14.820  0.0000E+00  0.0000E+00  0.8000E+01
 -14.810  0.0000E+00  0.0000E+00  0.8000E+01
 -14.800  0.0000E+00  0.0000E+00  0.8000E+01
 -14.790  0.0000E+00  0.0000E+00  0.8000E+01
 -14.780  0.0000E+00  0.0000E+00  0.8000E+01
 -14.770  0.0000E+00  0.0000E+00  0.8000E+01
 -14.760  0.0000E+00  0.0000E+00  0.8000E+01
 -14.750  0.0000E+00  0.0000E+00  0.8000E+01
 -14.740  0.0000E+00  0.0000E+00  0.8000E+01
 -14.730  0.0000E+00  0.0000E+00  0.8000E+01
 -14.720  0.0000E+00  0.0000E+00  0.8000E+01
 -14.710  0.0000E+00  0.0000E+00  0.8000E+01
 -14.700  0.0000E+00  0.0000E+00  0.8000E+01
 -14.690  0.0000E+00  0.0000E+00  0.8000E+01
 -14.680  0.0000E+00  0.0000E+00  0.8000E+01
 -14.670  0.0000E+00  0.0000E+00  0.8000E+01
 -14.660  0.0000E+00  0.0000E+00  0.8000E+01
 -14.650  0.0000E+00  0.0000E+00  0.8000E+01
 -14.640  0.0000E+00  0.0000E+00  0.8000E+01
 -14.630  0.0000E+00  0.0000E+00  0.8000E+01
 -14.620  0.0000E+00  0.0000E+00  0.8000E+01
 -14.610  0.0000E+00  0.0000E+00  0.8000E+01
 -14.600  0.0000E+00  0.0000E+00  0.8000E+01
 -14.590  0.0000E+00  0.0000E+00  0.8000E+01
 -14.580  0.0000E+00  0.0000E+00  0.8000E+01
 -14.570  0.0000E+00  0.0000E+00  0.8000E+01
 -14.560  0.0000E+00  0.0000E+00  0.8000E+01
 -14.550  0.0000E+00  0.0000E+00  0.8000E+01
 -14.540  0.0000E+00  0.0000E+00  0.8000E+01
 -14.530  0.0000E+00  0.0000E+00  0.8000E+01
 -14.520  0.0000E+00  0.0000E+00  0.8000E+01
 -14.510  0.0000E+00  0.0000E+00  0.8000E+01
 -14.500  0.0000E+00  0.0000E+00  0.8000E+01
 -14.490  0.0000E+00  0.0000E+00  0.8000E+01
 -14.480  0.0000E+00  0.0000E+00  0.8000E+01
 -14.470  0.0000E+00  0.0000E+00  0.8000E+01
 -14.460  0.0000E+00  0.0000E+00  0.8000E+01
 -14.450  0.0000E+00  0.0000E+00  0.8000E+01
 -14.440  0.0000E+00  0.0000E+00  0.8000E+01
 -14.430  0.0000E+00  0.0000E+00  0.8000E+01
 -14.420  0.0000E+00  0.0000E+00  0.8000E+01
 -14.410  0.0000E+00  0.0000E+00  0.8000E+01
 -14.400  0.0000E+00  0.0000E+00  0.8000E+01
 -14.390  0.0000E+00  0.0000E+00  0.8000E+01
 -14.380  0.0000E+00  0.0000E+00  0.8000E+01
 -14.370  0.0000E+00  0.0000E+00  0.8000E+01
 -14.360  0.0000E+00  0.0000E+00  0.8000E+01
 -14.350  0.0000E+00  0.0000E+00  0.8000E+01
 -14.340  0.0000E+00  0.0000E+00  0.8000E+01
 -14.330  0.0000E+00  0.0000E+00  0.8000E+01
 -14.320  0.0000E+00  0.0000E+00  0.8000E+01
 -14.310  0.0000E+00  0.0000E+00  0.8000E+01
 -14.300  0.0000E+00  0.0000E+00  0.8000E+01
 -14.290  0.0000E+00  0.0000E+00  0.8000E+01
 -14.280  0.0000E+00  0.0000E+00  0.8000E+01
 -14.270  0.0000E+00  0.0000E+00  0.8000E+01
 -14.260  0.0000E+00  0.0000E+00  0.8000E+01
 -14.250  0.0000E+00  0.0000E+00  0.8000E+01
 -14.240  0.0000E+00  0.0000E+00  0.8000E+01
 -14.230  0.0000E+00  0.0000E+00  0.8000E+01
 -14.220  0.0000E+00  0.0000E+00  0.8000E+01
 -14.210  0.0000E+00  0.0000E+00  0.8000E+01
 -14.200  0.0000E+00  0.0000E+00  0.8000E+01
 -14.190  0.0000E+00  0.0000E+00  0.8000E+01
 -14.180  0.0000E+00  0.0000E+00  0.8000E+01
 -14.170  0.0000E+00  0.0000E+00  0.8000E+01
 -14.160  0.0000E+00  0.0000E+00  0.8000E+01
 -14.150  0.0000E+00  0.0000E+00  0.8000E+01
 -14.140  0.0000E+00  0.0000E+00  0.8000E+01
 -14.130  0.0000E+00  0.0000E+00  0.8000E+01
 -14.120  0.0000E+00  0.0000E+00  0.8000E+01
 -14.110  0.0000E+00  0.0000E+00  0.8000E+01
 -14.100  0.0000E+00  0.0000E+00  0.8000E+01
 -14.090  0.0000E+00  0.0000E+00  0.8000E+01
 -14.080  0.0000E+00  0.0000E+00  0.8000E+01
 -14.070  0.0000E+00  0.0000E+00  0.8000E+01
 -14.060  0.0000E+00  0.0000E+00  0.8000E+01
 -14.050  0.0000E+00  0.0000E+00  0.8000E+01
 -14.040  0.0000E+00  0.0000E+00  0.8000E+01
 -14.030  0.0000E+00  0.0000E+00  0.8000E+01
 -14.020  0.0000E+00  0.0000E+00  0.8000E+01
 -14.010  0.0000E+00  0.0000E+00  0.8000E+01
 -14.000  0.0000E+00  0.0000E+00  0.8000E+01
 -13.990  0.0000E+00  0.0000E+00  0.8000E+01
 -13.980  0.0000E+00  0.0000E+00  0.8000E+01
 -13.970  0.0000E+00  0.0000E+00  0.8000E+01
 -13.960  0.0000E+00  0.0000E+00  0.8000E+01
 -13.950  0.0000E+00  0.0000E+00  0.8000E+01
 -13.940  0.0000E+00  0.0000E+00  0.8000E+01
 -13.930  0.0000E+00  0.0000E+00  0.8000E+01
 -13.920  0.0000E+00  0.0000E+00  0.8000E+01
 -13.910  0.0000E+00  0.0000E+00  0.8000E+01
 -13.900  0.0000E+00  0.0000E+00  0.8000E+01
 -13.890  0.0000E+00  0.0000E+00  0.8000E+01
 -13.880  0.0000E+00  0.0000E+00  0.8000E+01
 -13.870  0.0000E+00  0.0000E+00  0.8000E+01
 -13.860  0.0000E+00  0.0000E+00  0.8000E+01
 -13.850  0.0000E+00  0.0000E+00  0.8000E+01
 -13.840  0.0000E+00  0.0000E+00  0.8000E+01
 -13.830  0.0000E+00  0.0000E+00  0.8000E+01
 -13.820  0.0000E+00  0.0000E+00  0.8000E+01
 -13.810  0.0000E+00  0.0000E+00  0.8000E+01
 -13.800  0.0000E+00  0.0000E+00  0.8000E+01
 -13.790  0.0000E+00  0.0000E+00  0.8000E+01
 -13.780  0.0000E+00  0.0000E+00  0.8000E+01
 -13.770  0.0000E+00  0.0000E+00  0.8000E+01
 -13.760  0.0000E+00  0.0000E+00  0.8000E+01
 -13.750  0.0000E+00  0.0000E+00  0.8000E+01
 -13.740  0.0000E+00  0.0000E+00  0.8000E+01
 -13.730  0.0000E+00  0.0000E+00  0.8000E+01
 -13.720  0.0000E+00  0.0000E+00  0.8000E+01
 -13.710  0.0000E+00  0.0000E+00  0.8000E+01
 -13.700  0.0000E+00  0.0000E+00  0.8000E+01
 -13.690  0.0000E+00  0.0000E+00  0.8000E+01
 -13.680  0.0000E+00  0.0000E+00  0.8000E+01
 -13.670  0.0000E+00  0.0000E+00  0.8000E+01
 -13.660  0.0000E+00  0.0000E+00  0.8000E+01
 -13.650  0.0000E+00  0.0000E+00  0.8000E+01
 -13.640  0.0000E+00  0.0000E+00  0.8000E+01
 -13.630  0.0000E+00  0.0000E+00  0.8000E+01
 -13.620  0.0000E+00  0.0000E+00  0.8000E+01
 -13.610  0.0000E+00  0.0000E+00  0.8000E+01
 -13.600  0.0000E+00  0.0000E+00  0.8000E+01
 -13.590  0.0000E+00  0.0000E+00  0.8000E+01
 -13.580  0.0000E+00  0.0000E+00  0.8000E+01
 -13.570  0.0000E+00  0.0000E+00  0.8000E+01
 -13.560  0.0000E+00  0.0000E+00  0.8000E+01
 -13.550  0.0000E+00  0.0000E+00  0.8000E+01
 -13.540  0.0000E+00  0.0000E+00  0.8000E+01
 -13.530  0.0000E+00  0.0000E+00  0.8000E+01
 -13.520  0.0000E+00  0.0000E+00  0.8000E+01
 -13.510  0.0000E+00  0.0000E+00  0.8000E+01
 -13.500  0.0000E+00  0.0000E+00  0.8000E+01
 -13.490  0.0000E+00  0.0000E+00  0.8000E+01
 -13.480  0.0000E+00  0.0000E+00  0.8000E+01
 -13.470  0.0000E+00  0.0000E+00  0.8000E+01
 -13.460  0.0000E+00  0.0000E+00  0.8000E+01
 -13.450  0.0000E+00  0.0000E+00  0.8000E+01
 -13.440  0.0000E+00  0.0000E+00  0.8000E+01
 -13.430  0.0000E+00  0.0000E+00  0.8000E+01
 -13.420  0.0000E+00  0.0000E+00  0.8000E+01
 -13.410  0.0000E+00  0.0000E+00  0.8000E+01
 -13.400  0.0000E+00  0.0000E+00  0.8000E+01
 -13.390  0.0000E+00  0.0000E+00  0.8000E+01
 -13.380  0.0000E+00  0.0000E+00  0.8000E+01
 -13.370  0.0000E+00  0.0000E+00  0.8000E+01
 -13.360  0.0000E+00  0.0000E+00  0.8000E+01
 -13.350  0.0000E+00  0.0000E+00  0.8000E+01
 -13.340  0.0000E+00  0.0000E+00  0.8000E+01
 -13.330  0.0000E+00  0.0000E+00  0.8000E+01
 -13.320  0.0000E+00  0.0000E+00  0.8000E+01
 -13.310  0.0000E+00  0.0000E+00  0.8000E+01
 -13.300  0.0000E+00  0.0000E+00  0.8000E+01
 -13.290  0.0000E+00  0.0000E+00  0.8000E+01
 -13.280  0.0000E+00  0.0000E+00  0.8000E+01
 -13.270  0.0000E+00  0.0000E+00  0.8000E+01
 -13.260  0.0000E+00  0.0000E+00  0.8000E+01
 -13.250  0.0000E+00  0.0000E+00  0.8000E+01
 -13.240  0.0000E+00  0.0000E+00  0.8000E+01
 -13.230  0.0000E+00  0.0000E+00  0.8000E+01
 -13.220  0.0000E+00  0.0000E+00  0.8000E+01
 -13.210  0.0000E+00  0.0000E+00  0.8000E+01
 -13.200  0.0000E+00  0.0000E+00  0.8000E+01
 -13.190  0.0000E+00  0.0000E+00  0.8000E+01
 -13.180  0.0000E+00  0.0000E+00  0.8000E+01
 -13.170  0.0000E+00  0.0000E+00  0.8000E+01
 -13.160  0.0000E+00  0.0000E+00  0.8000E+01
 -13.150  0.0000E+00  0.0000E+00  0.8000E+01
 -13.140  0.0000E+00  0.0000E+00  0.8000E+01
 -13.130  0.0000E+00  0.0000E+00  0.8000E+01
 -13.120  0.0000E+00  0.0000E+00  0.8000E+01
 -13.110  0.0000E+00  0.0000E+00  0.8000E+01
 -13.100  0.0000E+00  0.0000E+00  0.8000E+01
 -13.090  0.0000E+00  0.0000E+00  0.8000E+01
 -13.080  0.0000E+00  0.0000E+00  0.8000E+01
 -13.070  0.0000E+00  0.0000E+00  0.8000E+01
 -13.060  0.0000E+00  0.0000E+00  0.8000E+01
 -13.050  0.0000E+00  0.0000E+00  0.8000E+01
 -13.040  0.0000E+00  0.0000E+00  0.8000E+01
 -13.030  0.0000E+00  0.0000E+00  0.8000E+01
 -13.020  0.0000E+00  0.0000E+00  0.8000E+01
 -13.010  0.0000E+00  0.0000E+00  0.8000E+01
 -13.000  0.0000E+00  0.0000E+00  0.8000E+01
 -12.990  0.0000E+00  0.0000E+00  0.8000E+01
 -12.980  0.0000E+00  0.0000E+00  0.8000E+01
 -12.970  0.0000E+00  0.0000E+00  0.8000E+01
 -12.960  0.0000E+00  0.0000E+00  0.8000E+01
 -12.950  0.0000E+00  0.0000E+00  0.8000E+01
 -12.940  0.0000E+00  0.0000E+00  0.8000E+01
 -12.930  0.0000E+00  0.0000E+00  0.8000E+01
 -12.920  0.0000E+00  0.0000E+00  0.8000E+01
 -12.910  0.0000E+00  0.0000E+00  0.8000E+01
 -12.900  0.0000E+00  0.0000E+00  0.8000E+01
 -12.890  0.0000E+00  0.0000E+00  0.8000E+01
 -12.880  0.0000E+00  0.0000E+00  0.8000E+01
 -12.870  0.0000E+00  0.0000E+00  0.8000E+01
 -12.860  0.0000E+00  0.0000E+00  0.8000E+01
 -12.850  0.0000E+00  0.0000E+00  0.8000E+01
 -12.840  0.0000E+00  0.0000E+00  0.8000E+01
 -12.830  0.0000E+00  0.0000E+00  0.8000E+01
 -12.820  0.0000E+00  0.0000E+00  0.8000E+01
 -12.810  0.0000E+00  0.0000E+00  0.8000E+01
 -12.800  0.0000E+00  0.0000E+00  0.8000E+01
 -12.790  0.0000E+00  0.0000E+00  0.8000E+01
 -12.780  0.0000E+00  0.0000E+00  0.8000E+01
 -12.770  0.0000E+00  0.0000E+00  0.8000E+01
 -12.760  0.0000E+00  0.0000E+00  0.8000E+01
 -12.750  0.0000E+00  0.0000E+00  0.8000E+01
 -12.740  0.0000E+00  0.0000E+00  0.8000E+01
 -12.730  0.0000E+00  0.0000E+00  0.8000E+01
 -12.720  0.0000E+00  0.0000E+00  0.8000E+01
 -12.710  0.0000E+00  0.0000E+00  0.8000E+01
 -12.700  0.0000E+00  0.0000E+00  0.8000E+01
 -12.690  0.0000E+00  0.0000E+00  0.8000E+01
 -12.680  0.0000E+00  0.0000E+00  0.8000E+01
 -12.670  0.0000E+00  0.0000E+00  0.8000E+01
 -12.660  0.0000E+00  0.0000E+00  0.8000E+01
 -12.650  0.0000E+00  0.0000E+00  0.8000E+01
 -12.640  0.0000E+00  0.0000E+00  0.8000E+01
 -12.630  0.0000E+00  0.0000E+00  0.8000E+01
 -12.620  0.0000E+00  0.0000E+00  0.8000E+01
 -12.610  0.0000E+00  0.0000E+00  0.8000E+01
 -12.600  0.0000E+00  0.0000E+00  0.8000E+01
 -12.590  0.0000E+00  0.0000E+00  0.8000E+01
 -12.580  0.0000E+00  0.0000E+00  0.8000E+01
 -12.570  0.0000E+00  0.0000E+00  0.8000E+01
 -12.560  0.0000E+00  0.0000E+00  0.8000E+01
 -12.550  0.0000E+00  0.0000E+00  0.8000E+01
 -12.540  0.0000E+00  0.0000E+00  0.8000E+01
 -12.530  0.0000E+00  0.0000E+00  0.8000E+01
 -12.520  0.0000E+00  0.0000E+00  0.8000E+01
 -12.510  0.0000E+00  0.0000E+00  0.8000E+01
 -12.500  0.0000E+00  0.0000E+00  0.8000E+01
 -12.490  0.0000E+00  0.0000E+00  0.8000E+01
 -12.480  0.0000E+00  0.0000E+00  0.8000E+01
 -12.470  0.0000E+00  0.0000E+00  0.8000E+01
 -12.460  0.0000E+00  0.0000E+00  0.8000E+01
 -12.450  0.0000E+00  0.0000E+00  0.8000E+01
 -12.440  0.0000E+00  0.0000E+00  0.8000E+01
 -12.430  0.0000E+00  0.0000E+00  0.8000E+01
 -12.420  0.0000E+00  0.0000E+00  0.8000E+01
 -12.410  0.0000E+00  0.0000E+00  0.8000E+01
 -12.400  0.0000E+00  0.0000E+00  0.8000E+01
 -12.390  0.0000E+00  0.0000E+00  0.8000E+01
 -12.380  0.0000E+00  0.0000E+00  0.8000E+01
 -12.370  0.0000E+00  0.0000E+00  0.8000E+01
 -12.360  0.0000E+00  0.0000E+00  0.8000E+01
 -12.350  0.0000E+00  0.0000E+00  0.8000E+01
 -12.340  0.0000E+00  0.0000E+00  0.8000E+01
 -12.330  0.0000E+00  0.0000E+00  0.8000E+01
 -12.320  0.0000E+00  0.0000E+00  0.8000E+01
 -12.310  0.0000E+00  0.0000E+00  0.8000E+01
 -12.300  0.0000E+00  0.0000E+00  0.8000E+01
 -12.290  0.0000E+00  0.0000E+00  0.8000E+01
 -12.280  0.0000E+00  0.0000E+00  0.8000E+01
 -12.270  0.0000E+00  0.0000E+00  0.8000E+01
 -12.260  0.0000E+00  0.0000E+00  0.8000E+01
 -12.250  0.0000E+00  0.0000E+00  0.8000E+01
 -12.240  0.0000E+00  0.0000E+00  0.8000E+01
 -12.230  0.0000E+00  0.0000E+00  0.8000E+01
 -12.220  0.0000E+00  0.0000E+00  0.8000E+01
 -12.210  0.0000E+00  0.0000E+00  0.8000E+01
 -12.200  0.0000E+00  0.0000E+00  0.8000E+01
 -12.190  0.0000E+00  0.0000E+00  0.8000E+01
 -12.180  0.0000E+00  0.0000E+00  0.8000E+01
 -12.170  0.0000E+00  0.0000E+00  0.8000E+01
 -12.160  0.0000E+00  0.0000E+00  0.8000E+01
 -12.150  0.0000E+00  0.0000E+00  0.8000E+01
 -12.140  0.0000E+00  0.0000E+00  0.8000E+01
 -12.130  0.0000E+00  0.0000E+00  0.8000E+01
 -12.120  0.0000E+00  0.0000E+00  0.8000E+01
 -12.110  0.0000E+00  0.0000E+00  0.8000E+01
 -12.100  0.0000E+00  0.0000E+00  0.8000E+01
 -12.090  0.0000E+00  0.0000E+00  0.8000E+01
 -12.080  0.0000E+00  0.0000E+00  0.8000E+01
 -12.070  0.0000E+00  0.0000E+00  0.8000E+01
 -12.060  0.0000E+00  0.0000E+00  0.8000E+01
 -12.050  0.0000E+00  0.0000E+00  0.8000E+01
 -12.040  0.0000E+00  0.0000E+00  0.8000E+01
 -12.030  0.0000E+00  0.0000E+00  0.8000E+01
 -12.020  0.0000E+00  0.0000E+00  0.8000E+01
 -12.010  0.0000E+00  0.0000E+00  0.8000E+01
 -12.000  0.0000E+00  0.0000E+00  0.8000E+01
 -11.990  0.0000E+00  0.0000E+00  0.8000E+01
 -11.980  0.0000E+00  0.0000E+00  0.8000E+01
 -11.970  0.0000E+00  0.0000E+00  0.8000E+01
 -11.960  0.0000E+00  0.0000E+00  0.8000E+01
 -11.950  0.0000E+00  0.0000E+00  0.8000E+01
 -11.940  0.0000E+00  0.0000E+00  0.8000E+01
 -11.930  0.0000E+00  0.0000E+00  0.8000E+01
 -11.920  0.0000E+00  0.0000E+00  0.8000E+01
 -11.910  0.0000E+00  0.0000E+00  0.8000E+01
 -11.900  0.0000E+00  0.0000E+00  0.8000E+01
 -11.890  0.0000E+00  0.0000E+00  0.8000E+01
 -11.880  0.0000E+00  0.0000E+00  0.8000E+01
 -11.870  0.0000E+00  0.0000E+00  0.8000E+01
 -11.860  0.0000E+00  0.0000E+00  0.8000E+01
 -11.850  0.0000E+00  0.0000E+00  0.8000E+01
 -11.840  0.0000E+00  0.0000E+00  0.8000E+01
 -11.830  0.0000E+00  0.0000E+00  0.8000E+01
 -11.820  0.0000E+00  0.0000E+00  0.8000E+01
 -11.810  0.0000E+00  0.0000E+00  0.8000E+01
 -11.800  0.0000E+00  0.0000E+00  0.8000E+01
 -11.790  0.0000E+00  0.0000E+00  0.8000E+01
 -11.780  0.0000E+00  0.0000E+00  0.8000E+01
 -11.770  0.0000E+00  0.0000E+00  0.8000E+01
 -11.760  0.0000E+00  0.0000E+00  0.8000E+01
 -11.750  0.0000E+00  0.0000E+00  0.8000E+01
 -11.740  0.0000E+00  0.0000E+00  0.8000E+01
 -11.730  0.0000E+00  0.0000E+00  0.8000E+01
 -11.720  0.0000E+00  0.0000E+00  0.8000E+01
 -11.710  0.0000E+00  0.0000E+00  0.8000E+01
 -11.700  0.0000E+00  0.0000E+00  0.8000E+01
 -11.690  0.0000E+00  0.0000E+00  0.8000E+01
 -11.680  0.0000E+00  0.0000E+00  0.8000E+01
 -11.670  0.0000E+00  0.0000E+00  0.8000E+01
 -11.660  0.0000E+00  0.0000E+00  0.8000E+01
 -11.650  0.0000E+00  0.0000E+00  0.8000E+01
 -11.640  0.0000E+00  0.0000E+00  0.8000E+01
 -11.630  0.0000E+00  0.0000E+00  0.8000E+01
 -11.620  0.0000E+00  0.0000E+00  0.8000E+01
 -11.610  0.0000E+00  0.0000E+00  0.8000E+01
 -11.600  0.0000E+00  0.0000E+00  0.8000E+01
 -11.590  0.0000E+00  0.0000E+00  0.8000E+01
 -11.580  0.0000E+00  0.0000E+00  0.8000E+01
 -11.570  0.0000E+00  0.0000E+00  0.8000E+01
 -11.560  0.0000E+00  0.0000E+00  0.8000E+01
 -11.550  0.0000E+00  0.0000E+00  0.8000E+01
 -11.540  0.0000E+00  0.0000E+00  0.8000E+01
 -11.530  0.0000E+00  0.0000E+00  0.8000E+01
 -11.520  0.0000E+00  0.0000E+00  0.8000E+01
 -11.510  0.0000E+00  0.0000E+00  0.8000E+01
 -11.500  0.0000E+00  0.0000E+00  0.8000E+01
 -11.490  0.0000E+00  0.0000E+00  0.8000E+01
 -11.480  0.0000E+00  0.0000E+00  0.8000E+01
 -11.470  0.0000E+00  0.0000E+00  0.8000E+01
 -11.460  0.0000E+00  0.0000E+00  0.8000E+01
 -11.450  0.0000E+00  0.0000E+00  0.8000E+01
 -11.440  0.0000E+00  0.0000E+00  0.8000E+01
 -11.430  0.0000E+00  0.0000E+00  0.8000E+01
 -11.420  0.0000E+00  0.0000E+00  0.8000E+01
 -11.410  0.0000E+00  0.0000E+00  0.8000E+01
 -11.400  0.0000E+00  0.0000E+00  0.8000E+01
 -11.390  0.0000E+00  0.0000E+00  0.8000E+01
 -11.380  0.0000E+00  0.0000E+00  0.8000E+01
 -11.370  0.0000E+00  0.0000E+00  0.8000E+01
 -11.360  0.0000E+00  0.0000E+00  0.8000E+01
 -11.350  0.0000E+00  0.0000E+00  0.8000E+01
 -11.340  0.0000E+00  0.0000E+00  0.8000E+01
 -11.330  0.0000E+00  0.0000E+00  0.8000E+01
 -11.320  0.0000E+00  0.0000E+00  0.8000E+01
 -11.310  0.0000E+00  0.0000E+00  0.8000E+01
 -11.300  0.0000E+00  0.0000E+00  0.8000E+01
 -11.290  0.0000E+00  0.0000E+00  0.8000E+01
 -11.280  0.0000E+00  0.0000E+00  0.8000E+01
 -11.270  0.0000E+00  0.0000E+00  0.8000E+01
 -11.260  0.0000E+00  0.0000E+00  0.8000E+01
 -11.250  0.0000E+00  0.0000E+00  0.8000E+01
 -11.240  0.0000E+00  0.0000E+00  0.8000E+01
 -11.230  0.0000E+00  0.0000E+00  0.8000E+01
 -11.220  0.0000E+00  0.0000E+00  0.8000E+01
 -11.210  0.0000E+00  0.0000E+00  0.8000E+01
 -11.200  0.0000E+00  0.0000E+00  0.8000E+01
 -11.190  0.0000E+00  0.0000E+00  0.8000E+01
 -11.180  0.0000E+00  0.0000E+00  0.8000E+01
 -11.170  0.0000E+00  0.0000E+00  0.8000E+01
 -11.160  0.0000E+00  0.0000E+00  0.8000E+01
 -11.150  0.0000E+00  0.0000E+00  0.8000E+01
 -11.140  0.0000E+00  0.0000E+00  0.8000E+01
 -11.130  0.0000E+00  0.0000E+00  0.8000E+01
 -11.120  0.0000E+00  0.0000E+00  0.8000E+01
 -11.110  0.0000E+00  0.0000E+00  0.8000E+01
 -11.100  0.0000E+00  0.0000E+00  0.8000E+01
 -11.090  0.0000E+00  0.0000E+00  0.8000E+01
 -11.080  0.0000E+00  0.0000E+00  0.8000E+01
 -11.070  0.0000E+00  0.0000E+00  0.8000E+01
 -11.060  0.0000E+00  0.0000E+00  0.8000E+01
 -11.050  0.0000E+00  0.0000E+00  0.8000E+01
 -11.040  0.0000E+00  0.0000E+00  0.8000E+01
 -11.030  0.0000E+00  0.0000E+00  0.8000E+01
 -11.020  0.0000E+00  0.0000E+00  0.8000E+01
 -11.010  0.0000E+00  0.0000E+00  0.8000E+01
 -11.000  0.0000E+00  0.0000E+00  0.8000E+01
 -10.990  0.0000E+00  0.0000E+00  0.8000E+01
 -10.980  0.0000E+00  0.0000E+00  0.8000E+01
 -10.970  0.0000E+00  0.0000E+00  0.8000E+01
 -10.960  0.0000E+00  0.0000E+00  0.8000E+01
 -10.950  0.0000E+00  0.0000E+00  0.8000E+01
 -10.940  0.0000E+00  0.0000E+00  0.8000E+01
 -10.930  0.0000E+00  0.0000E+00  0.8000E+01
 -10.920  0.0000E+00  0.0000E+00  0.8000E+01
 -10.910  0.0000E+00  0.0000E+00  0.8000E+01
 -10.900  0.0000E+00  0.0000E+00  0.8000E+01
 -10.890  0.0000E+00  0.0000E+00  0.8000E+01
 -10.880  0.0000E+00  0.0000E+00  0.8000E+01
 -10.870  0.0000E+00  0.0000E+00  0.8000E+01
 -10.860  0.0000E+00  0.0000E+00  0.8000E+01
 -10.850  0.0000E+00  0.0000E+00  0.8000E+01
 -10.840  0.0000E+00  0.0000E+00  0.8000E+01
 -10.830  0.0000E+00  0.0000E+00  0.8000E+01
 -10.820  0.0000E+00  0.0000E+00  0.8000E+01
 -10.810  0.0000E+00  0.0000E+00  0.8000E+01
 -10.800  0.0000E+00  0.0000E+00  0.8000E+01
 -10.790  0.0000E+00  0.0000E+00  0.8000E+01
 -10.780  0.0000E+00  0.0000E+00  0.8000E+01
 -10.770  0.0000E+00  0.0000E+00  0.8000E+01
 -10.760  0.0000E+00  0.0000E+00  0.8000E+01
 -10.750  0.0000E+00  0.0000E+00  0.8000E+01
 -10.740  0.0000E+00  0.0000E+00  0.8000E+01
 -10.730  0.0000E+00  0.0000E+00  0.8000E+01
 -10.720  0.0000E+00  0.0000E+00  0.8000E+01
 -10.710  0.0000E+00  0.0000E+00  0.8000E+01
 -10.700  0.0000E+00  0.0000E+00  0.8000E+01
 -10.690  0.0000E+00  0.0000E+00  0.8000E+01
 -10.680  0.0000E+00  0.0000E+00  0.8000E+01
 -10.670  0.0000E+00  0.0000E+00  0.8000E+01
 -10.660  0.0000E+00  0.0000E+00  0.8000E+01
 -10.650  0.0000E+00  0.0000E+00  0.8000E+01
 -10.640  0.0000E+00  0.0000E+00  0.8000E+01
 -10.630  0.0000E+00  0.0000E+00  0.8000E+01
 -10.620  0.0000E+00  0.0000E+00  0.8000E+01
 -10.610  0.0000E+00  0.0000E+00  0.8000E+01
 -10.600  0.0000E+00  0.0000E+00  0.8000E+01
 -10.590  0.0000E+00  0.0000E+00  0.8000E+01
 -10.580  0.0000E+00  0.0000E+00  0.8000E+01
 -10.570  0.0000E+00  0.0000E+00  0.8000E+01
 -10.560  0.0000E+00  0.0000E+00  0.8000E+01
 -10.550  0.0000E+00  0.0000E+00  0.8000E+01
 -10.540  0.0000E+00  0.0000E+00  0.8000E+01
 -10.530  0.0000E+00  0.0000E+00  0.8000E+01
 -10.520  0.0000E+00  0.0000E+00  0.8000E+01
 -10.510  0.0000E+00  0.0000E+00  0.8000E+01
 -10.500  0.0000E+00  0.0000E+00  0.8000E+01
 -10.490  0.0000E+00  0.0000E+00  0.8000E+01
 -10.480  0.0000E+00  0.0000E+00  0.8000E+01
 -10.470  0.0000E+00  0.0000E+00  0.8000E+01
 -10.460  0.0000E+00  0.0000E+00  0.8000E+01
 -10.450  0.0000E+00  0.0000E+00  0.8000E+01
 -10.440  0.0000E+00  0.0000E+00  0.8000E+01
 -10.430  0.0000E+00  0.0000E+00  0.8000E+01
 -10.420  0.0000E+00  0.0000E+00  0.8000E+01
 -10.410  0.0000E+00  0.0000E+00  0.8000E+01
 -10.400  0.0000E+00  0.0000E+00  0.8000E+01
 -10.390  0.0000E+00  0.0000E+00  0.8000E+01
 -10.380  0.0000E+00  0.0000E+00  0.8000E+01
 -10.370  0.0000E+00  0.0000E+00  0.8000E+01
 -10.360  0.0000E+00  0.0000E+00  0.8000E+01
 -10.350  0.0000E+00  0.0000E+00  0.8000E+01
 -10.340  0.0000E+00  0.0000E+00  0.8000E+01
 -10.330  0.0000E+00  0.0000E+00  0.8000E+01
 -10.320  0.0000E+00  0.0000E+00  0.8000E+01
 -10.310  0.0000E+00  0.0000E+00  0.8000E+01
 -10.300  0.0000E+00  0.0000E+00  0.8000E+01
 -10.290  0.0000E+00  0.0000E+00  0.8000E+01
 -10.280  0.0000E+00  0.0000E+00  0.8000E+01
 -10.270  0.0000E+00  0.0000E+00  0.8000E+01
 -10.260  0.0000E+00  0.0000E+00  0.8000E+01
 -10.250  0.0000E+00  0.0000E+00  0.8000E+01
 -10.240  0.0000E+00  0.0000E+00  0.8000E+01
 -10.230  0.0000E+00  0.0000E+00  0.8000E+01
 -10.220  0.0000E+00  0.0000E+00  0.8000E+01
 -10.210  0.0000E+00  0.0000E+00  0.8000E+01
 -10.200  0.0000E+00  0.0000E+00  0.8000E+01
 -10.190  0.0000E+00  0.0000E+00  0.8000E+01
 -10.180  0.0000E+00  0.0000E+00  0.8000E+01
 -10.170  0.0000E+00  0.0000E+00  0.8000E+01
 -10.160  0.0000E+00  0.0000E+00  0.8000E+01
 -10.150  0.0000E+00  0.0000E+00  0.8000E+01
 -10.140  0.0000E+00  0.0000E+00  0.8000E+01
 -10.130  0.0000E+00  0.0000E+00  0.8000E+01
 -10.120  0.0000E+00  0.0000E+00  0.8000E+01
 -10.110  0.0000E+00  0.0000E+00  0.8000E+01
 -10.100  0.0000E+00  0.0000E+00  0.8000E+01
 -10.090  0.0000E+00  0.0000E+00  0.8000E+01
 -10.080  0.0000E+00  0.0000E+00  0.8000E+01
 -10.070  0.0000E+00  0.0000E+00  0.8000E+01
 -10.060  0.0000E+00  0.0000E+00  0.8000E+01
 -10.050  0.0000E+00  0.0000E+00  0.8000E+01
 -10.040  0.0000E+00  0.0000E+00  0.8000E+01
 -10.030  0.0000E+00  0.0000E+00  0.8000E+01
 -10.020  0.0000E+00  0.0000E+00  0.8000E+01
 -10.010  0.0000E+00  0.0000E+00  0.8000E+01
 -10.000  0.0000E+00  0.0000E+00  0.8000E+01
  -9.990  0.0000E+00  0.0000E+00  0.8000E+01
  -9.980  0.0000E+00  0.0000E+00  0.8000E+01
  -9.970  0.0000E+00  0.0000E+00  0.8000E+01
  -9.960  0.0000E+00  0.0000E+00  0.8000E+01
  -9.950  0.0000E+00  0.0000E+00  0.8000E+01
  -9.940  0.0000E+00  0.0000E+00  0.8000E+01
  -9.930  0.0000E+00  0.0000E+00  0.8000E+01
  -9.920  0.0000E+00  0.0000E+00  0.8000E+01
  -9.910  0.0000E+00  0.0000E+00  0.8000E+01
  -9.900  0.0000E+00  0.0000E+00  0.8000E+01
  -9.890  0.0000E+00  0.0000E+00  0.8000E+01
  -9.880  0.0000E+00  0.0000E+00  0.8000E+01
  -9.870  0.0000E+00  0.0000E+00  0.8000E+01
  -9.860  0.0000E+00  0.0000E+00  0.8000E+01
  -9.850  0.0000E+00  0.0000E+00  0.8000E+01
  -9.840  0.0000E+00  0.0000E+00  0.8000E+01
  -9.830  0.0000E+00  0.0000E+00  0.8000E+01
  -9.820  0.0000E+00  0.0000E+00  0.8000E+01
  -9.810  0.0000E+00  0.0000E+00  0.8000E+01
  -9.800  0.0000E+00  0.0000E+00  0.8000E+01
  -9.790  0.0000E+00  0.0000E+00  0.8000E+01
  -9.780  0.0000E+00  0.0000E+00  0.8000E+01
  -9.770  0.0000E+00  0.0000E+00  0.8000E+01
  -9.760  0.0000E+00  0.0000E+00  0.8000E+01
  -9.750  0.0000E+00  0.0000E+00  0.8000E+01
  -9.740  0.0000E+00  0.0000E+00  0.8000E+01
  -9.730  0.0000E+00  0.0000E+00  0.8000E+01
  -9.720  0.0000E+00  0.0000E+00  0.8000E+01
  -9.710  0.0000E+00  0.0000E+00  0.8000E+01
  -9.700  0.0000E+00  0.0000E+00  0.8000E+01
  -9.690  0.0000E+00  0.0000E+00  0.8000E+01
  -9.680  0.0000E+00  0.0000E+00  0.8000E+01
  -9.670  0.0000E+00  0.0000E+00  0.8000E+01
  -9.660  0.0000E+00  0.0000E+00  0.8000E+01
  -9.650  0.0000E+00  0.0000E+00  0.8000E+01
  -9.640  0.0000E+00  0.0000E+00  0.8000E+01
  -9.630  0.0000E+00  0.0000E+00  0.8000E+01
  -9.620  0.0000E+00  0.0000E+00  0.8000E+01
  -9.610  0.0000E+00  0.0000E+00  0.8000E+01
  -9.600  0.0000E+00  0.0000E+00  0.8000E+01
  -9.590  0.0000E+00  0.0000E+00  0.8000E+01
  -9.580  0.0000E+00  0.0000E+00  0.8000E+01
  -9.570  0.0000E+00  0.0000E+00  0.8000E+01
  -9.560  0.0000E+00  0.0000E+00  0.8000E+01
  -9.550  0.0000E+00  0.0000E+00  0.8000E+01
  -9.540  0.0000E+00  0.0000E+00  0.8000E+01
  -9.530  0.0000E+00  0.0000E+00  0.8000E+01
  -9.520  0.0000E+00  0.0000E+00  0.8000E+01
  -9.510  0.0000E+00  0.0000E+00  0.8000E+01
  -9.500  0.0000E+00  0.0000E+00  0.8000E+01
  -9.490  0.0000E+00  0.0000E+00  0.8000E+01
  -9.480  0.0000E+00  0.0000E+00  0.8000E+01
  -9.470  0.0000E+00  0.0000E+00  0.8000E+01
  -9.460  0.0000E+00  0.0000E+00  0.8000E+01
  -9.450  0.0000E+00  0.0000E+00  0.8000E+01
  -9.440  0.0000E+00  0.0000E+00  0.8000E+01
  -9.430  0.0000E+00  0.0000E+00  0.8000E+01
  -9.420  0.0000E+00  0.0000E+00  0.8000E+01
  -9.410  0.0000E+00  0.0000E+00  0.8000E+01
  -9.400  0.0000E+00  0.0000E+00  0.8000E+01
  -9.390  0.0000E+00  0.0000E+00  0.8000E+01
  -9.380  0.0000E+00  0.0000E+00  0.8000E+01
  -9.370  0.0000E+00  0.0000E+00  0.8000E+01
  -9.360  0.0000E+00  0.0000E+00  0.8000E+01
  -9.350  0.0000E+00  0.0000E+00  0.8000E+01
  -9.340  0.0000E+00  0.0000E+00  0.8000E+01
  -9.330  0.0000E+00  0.0000E+00  0.8000E+01
  -9.320  0.0000E+00  0.0000E+00  0.8000E+01
  -9.310  0.0000E+00  0.0000E+00  0.8000E+01
  -9.300  0.0000E+00  0.0000E+00  0.8000E+01
  -9.290  0.0000E+00  0.0000E+00  0.8000E+01
  -9.280  0.0000E+00  0.0000E+00  0.8000E+01
  -9.270  0.0000E+00  0.0000E+00  0.8000E+01
  -9.260  0.0000E+00  0.0000E+00  0.8000E+01
  -9.250  0.0000E+00  0.0000E+00  0.8000E+01
  -9.240  0.0000E+00  0.0000E+00  0.8000E+01
  -9.230  0.0000E+00  0.0000E+00  0.8000E+01
  -9.220  0.0000E+00  0.0000E+00  0.8000E+01
  -9.210  0.0000E+00  0.0000E+00  0.8000E+01
  -9.200  0.0000E+00  0.0000E+00  0.8000E+01
  -9.190  0.0000E+00  0.0000E+00  0.8000E+01
  -9.180  0.0000E+00  0.0000E+00  0.8000E+01
  -9.170  0.0000E+00  0.0000E+00  0.8000E+01
  -9.160  0.0000E+00  0.0000E+00  0.8000E+01
  -9.150  0.0000E+00  0.0000E+00  0.8000E+01
  -9.140  0.0000E+00  0.0000E+00  0.8000E+01
  -9.130  0.0000E+00  0.0000E+00  0.8000E+01
  -9.120  0.0000E+00  0.0000E+00  0.8000E+01
  -9.110  0.0000E+00  0.0000E+00  0.8000E+01
  -9.100  0.0000E+00  0.0000E+00  0.8000E+01
  -9.090  0.0000E+00  0.0000E+00  0.8000E+01
  -9.080  0.0000E+00  0.0000E+00  0.8000E+01
  -9.070  0.0000E+00  0.0000E+00  0.8000E+01
  -9.060  0.0000E+00  0.0000E+00  0.8000E+01
  -9.050  0.0000E+00  0.0000E+00  0.8000E+01
  -9.040  0.0000E+00  0.0000E+00  0.8000E+01
  -9.030  0.0000E+00  0.0000E+00  0.8000E+01
  -9.020  0.0000E+00  0.0000E+00  0.8000E+01
  -9.010  0.0000E+00  0.0000E+00  0.8000E+01
  -9.000  0.0000E+00  0.0000E+00  0.8000E+01
  -8.990  0.0000E+00  0.0000E+00  0.8000E+01
  -8.980  0.0000E+00  0.0000E+00  0.8000E+01
  -8.970  0.0000E+00  0.0000E+00  0.8000E+01
  -8.960  0.0000E+00  0.0000E+00  0.8000E+01
  -8.950  0.0000E+00  0.0000E+00  0.8000E+01
  -8.940  0.0000E+00  0.0000E+00  0.8000E+01
  -8.930  0.0000E+00  0.0000E+00  0.8000E+01
  -8.920  0.0000E+00  0.0000E+00  0.8000E+01
  -8.910  0.0000E+00  0.0000E+00  0.8000E+01
  -8.900  0.0000E+00  0.0000E+00  0.8000E+01
  -8.890  0.0000E+00  0.0000E+00  0.8000E+01
  -8.880  0.0000E+00  0.0000E+00  0.8000E+01
  -8.870  0.0000E+00  0.0000E+00  0.8000E+01
  -8.860  0.0000E+00  0.0000E+00  0.8000E+01
  -8.850  0.0000E+00  0.0000E+00  0.8000E+01
  -8.840  0.0000E+00  0.0000E+00  0.8000E+01
  -8.830  0.0000E+00  0.0000E+00  0.8000E+01
  -8.820  0.0000E+00  0.0000E+00  0.8000E+01
  -8.810  0.0000E+00  0.0000E+00  0.8000E+01
  -8.800  0.0000E+00  0.0000E+00  0.8000E+01
  -8.790  0.0000E+00  0.0000E+00  0.8000E+01
  -8.780  0.0000E+00  0.0000E+00  0.8000E+01
  -8.770  0.0000E+00  0.0000E+00  0.8000E+01
  -8.760  0.0000E+00  0.0000E+00  0.8000E+01
  -8.750  0.0000E+00  0.0000E+00  0.8000E+01
  -8.740  0.0000E+00  0.0000E+00  0.8000E+01
  -8.730  0.0000E+00  0.0000E+00  0.8000E+01
  -8.720  0.0000E+00  0.0000E+00  0.8000E+01
  -8.710  0.0000E+00  0.0000E+00  0.8000E+01
  -8.700  0.0000E+00  0.0000E+00  0.8000E+01
  -8.690  0.0000E+00  0.0000E+00  0.8000E+01
  -8.680  0.0000E+00  0.0000E+00  0.8000E+01
  -8.670  0.0000E+00  0.0000E+00  0.8000E+01
  -8.660  0.0000E+00  0.0000E+00  0.8000E+01
  -8.650  0.0000E+00  0.0000E+00  0.8000E+01
  -8.640  0.0000E+00  0.0000E+00  0.8000E+01
  -8.630  0.0000E+00  0.0000E+00  0.8000E+01
  -8.620  0.0000E+00  0.0000E+00  0.8000E+01
  -8.610  0.0000E+00  0.0000E+00  0.8000E+01
  -8.600  0.0000E+00  0.0000E+00  0.8000E+01
  -8.590  0.0000E+00  0.0000E+00  0.8000E+01
  -8.580  0.0000E+00  0.0000E+00  0.8000E+01
  -8.570  0.0000E+00  0.0000E+00  0.8000E+01
  -8.560  0.0000E+00  0.0000E+00  0.8000E+01
  -8.550  0.0000E+00  0.0000E+00  0.8000E+01
  -8.540  0.0000E+00  0.0000E+00  0.8000E+01
  -8.530  0.0000E+00  0.0000E+00  0.8000E+01
  -8.520  0.0000E+00  0.0000E+00  0.8000E+01
  -8.510  0.0000E+00  0.0000E+00  0.8000E+01
  -8.500  0.0000E+00  0.0000E+00  0.8000E+01
  -8.490  0.0000E+00  0.0000E+00  0.8000E+01
  -8.480  0.0000E+00  0.0000E+00  0.8000E+01
  -8.470  0.0000E+00  0.0000E+00  0.8000E+01
  -8.460  0.0000E+00  0.0000E+00  0.8000E+01
  -8.450  0.0000E+00  0.0000E+00  0.8000E+01
  -8.440  0.0000E+00  0.0000E+00  0.8000E+01
  -8.430  0.0000E+00  0.0000E+00  0.8000E+01
  -8.420  0.0000E+00  0.0000E+00  0.8000E+01
  -8.410  0.0000E+00  0.0000E+00  0.8000E+01
  -8.400  0.0000E+00  0.0000E+00  0.8000E+01
  -8.390  0.0000E+00  0.0000E+00  0.8000E+01
  -8.380  0.0000E+00  0.0000E+00  0.8000E+01
  -8.370  0.0000E+00  0.0000E+00  0.8000E+01
  -8.360  0.0000E+00  0.0000E+00  0.8000E+01
  -8.350  0.0000E+00  0.0000E+00  0.8000E+01
  -8.340  0.0000E+00  0.0000E+00  0.8000E+01
  -8.330  0.0000E+00  0.0000E+00  0.8000E+01
  -8.320  0.0000E+00  0.0000E+00  0.8000E+01
  -8.310  0.0000E+00  0.0000E+00  0.8000E+01
  -8.300  0.0000E+00  0.0000E+00  0.8000E+01
  -8.290  0.0000E+00  0.0000E+00  0.8000E+01
  -8.280  0.0000E+00  0.0000E+00  0.8000E+01
  -8.270  0.0000E+00  0.0000E+00  0.8000E+01
  -8.260  0.0000E+00  0.0000E+00  0.8000E+01
  -8.250  0.0000E+00  0.0000E+00  0.8000E+01
  -8.240  0.0000E+00  0.0000E+00  0.8000E+01
  -8.230  0.0000E+00  0.0000E+00  0.8000E+01
  -8.220  0.0000E+00  0.0000E+00  0.8000E+01
  -8.210  0.0000E+00  0.0000E+00  0.8000E+01
  -8.200  0.0000E+00  0.0000E+00  0.8000E+01
  -8.190  0.0000E+00  0.0000E+00  0.8000E+01
  -8.180  0.0000E+00  0.0000E+00  0.8000E+01
  -8.170  0.0000E+00  0.0000E+00  0.8000E+01
  -8.160  0.0000E+00  0.0000E+00  0.8000E+01
  -8.150  0.0000E+00  0.0000E+00  0.8000E+01
  -8.140  0.0000E+00  0.0000E+00  0.8000E+01
  -8.130  0.0000E+00  0.0000E+00  0.8000E+01
  -8.120  0.0000E+00  0.0000E+00  0.8000E+01
  -8.110  0.0000E+00  0.0000E+00  0.8000E+01
  -8.100  0.0000E+00  0.0000E+00  0.8000E+01
  -8.090  0.0000E+00  0.0000E+00  0.8000E+01
  -8.080  0.0000E+00  0.0000E+00  0.8000E+01
  -8.070  0.0000E+00  0.0000E+00  0.8000E+01
  -8.060  0.0000E+00  0.0000E+00  0.8000E+01
  -8.050  0.0000E+00  0.0000E+00  0.8000E+01
  -8.040  0.0000E+00  0.0000E+00  0.8000E+01
  -8.030  0.0000E+00  0.0000E+00  0.8000E+01
  -8.020  0.0000E+00  0.0000E+00  0.8000E+01
  -8.010  0.0000E+00  0.0000E+00  0.8000E+01
  -8.000  0.0000E+00  0.0000E+00  0.8000E+01
  -7.990  0.0000E+00  0.0000E+00  0.8000E+01
  -7.980  0.0000E+00  0.0000E+00  0.8000E+01
  -7.970  0.0000E+00  0.0000E+00  0.8000E+01
  -7.960  0.0000E+00  0.0000E+00  0.8000E+01
  -7.950  0.0000E+00  0.0000E+00  0.8000E+01
  -7.940  0.0000E+00  0.0000E+00  0.8000E+01
  -7.930  0.0000E+00  0.0000E+00  0.8000E+01
  -7.920  0.0000E+00  0.0000E+00  0.8000E+01
  -7.910  0.0000E+00  0.0000E+00  0.8000E+01
  -7.900  0.0000E+00  0.0000E+00  0.8000E+01
  -7.890  0.0000E+00  0.0000E+00  0.8000E+01
  -7.880  0.0000E+00  0.0000E+00  0.8000E+01
  -7.870  0.0000E+00  0.0000E+00  0.8000E+01
  -7.860  0.0000E+00  0.0000E+00  0.8000E+01
  -7.850  0.0000E+00  0.0000E+00  0.8000E+01
  -7.840  0.0000E+00  0.0000E+00  0.8000E+01
  -7.830  0.0000E+00  0.0000E+00  0.8000E+01
  -7.820  0.0000E+00  0.0000E+00  0.8000E+01
  -7.810  0.0000E+00  0.0000E+00  0.8000E+01
  -7.800  0.0000E+00  0.0000E+00  0.8000E+01
  -7.790  0.0000E+00  0.0000E+00  0.8000E+01
  -7.780  0.0000E+00  0.0000E+00  0.8000E+01
  -7.770  0.0000E+00  0.0000E+00  0.8000E+01
  -7.760  0.0000E+00  0.0000E+00  0.8000E+01
  -7.750  0.0000E+00  0.0000E+00  0.8000E+01
  -7.740  0.0000E+00  0.0000E+00  0.8000E+01
  -7.730  0.0000E+00  0.0000E+00  0.8000E+01
  -7.720  0.0000E+00  0.0000E+00  0.8000E+01
  -7.710  0.0000E+00  0.0000E+00  0.8000E+01
  -7.700  0.0000E+00  0.0000E+00  0.8000E+01
  -7.690  0.0000E+00  0.0000E+00  0.8000E+01
  -7.680  0.0000E+00  0.0000E+00  0.8000E+01
  -7.670  0.0000E+00  0.0000E+00  0.8000E+01
  -7.660  0.0000E+00  0.0000E+00  0.8000E+01
  -7.650  0.0000E+00  0.0000E+00  0.8000E+01
  -7.640  0.0000E+00  0.0000E+00  0.8000E+01
  -7.630  0.0000E+00  0.0000E+00  0.8000E+01
  -7.620  0.0000E+00  0.0000E+00  0.8000E+01
  -7.610  0.0000E+00  0.0000E+00  0.8000E+01
  -7.600  0.0000E+00  0.0000E+00  0.8000E+01
  -7.590  0.0000E+00  0.0000E+00  0.8000E+01
  -7.580  0.0000E+00  0.0000E+00  0.8000E+01
  -7.570  0.0000E+00  0.0000E+00  0.8000E+01
  -7.560  0.0000E+00  0.0000E+00  0.8000E+01
  -7.550  0.0000E+00  0.0000E+00  0.8000E+01
  -7.540  0.0000E+00  0.0000E+00  0.8000E+01
  -7.530  0.0000E+00  0.0000E+00  0.8000E+01
  -7.520  0.0000E+00  0.0000E+00  0.8000E+01
  -7.510  0.0000E+00  0.0000E+00  0.8000E+01
  -7.500  0.0000E+00  0.0000E+00  0.8000E+01
  -7.490  0.0000E+00  0.0000E+00  0.8000E+01
  -7.480  0.0000E+00  0.0000E+00  0.8000E+01
  -7.470  0.0000E+00  0.0000E+00  0.8000E+01
  -7.460  0.0000E+00  0.0000E+00  0.8000E+01
  -7.450  0.0000E+00  0.0000E+00  0.8000E+01
  -7.440  0.1514E-01  0.0000E+00  0.8000E+01
  -7.430  0.1537E+00  0.6873E-02  0.8001E+01
  -7.420  0.6030E+00  0.8601E-01  0.8004E+01
  -7.410  0.1366E+01  0.4446E+00  0.8016E+01
  -7.400  0.2093E+01  0.1114E+01  0.8042E+01
  -7.390  0.2526E+01  0.1911E+01  0.8080E+01
  -7.380  0.2708E+01  0.2441E+01  0.8129E+01
  -7.370  0.2707E+01  0.2706E+01  0.8182E+01
  -7.360  0.2726E+01  0.2778E+01  0.8236E+01
  -7.350  0.2796E+01  0.2824E+01  0.8292E+01
  -7.340  0.2894E+01  0.2927E+01  0.8349E+01
  -7.330  0.3119E+01  0.3033E+01  0.8409E+01
  -7.320  0.3497E+01  0.3264E+01  0.8473E+01
  -7.310  0.3874E+01  0.3680E+01  0.8545E+01
  -7.300  0.4301E+01  0.4116E+01  0.8624E+01
  -7.290  0.4874E+01  0.4609E+01  0.8714E+01
  -7.280  0.5390E+01  0.5236E+01  0.8814E+01
  -7.270  0.5687E+01  0.5619E+01  0.8924E+01
  -7.260  0.5756E+01  0.5604E+01  0.9038E+01
  -7.250  0.5908E+01  0.5353E+01  0.9151E+01
  -7.240  0.6359E+01  0.5198E+01  0.9265E+01
  -7.230  0.7181E+01  0.5605E+01  0.9386E+01
  -7.220  0.8093E+01  0.6402E+01  0.9522E+01
  -7.210  0.8166E+01  0.7496E+01  0.9673E+01
  -7.200  0.8224E+01  0.8319E+01  0.9834E+01
  -7.190  0.8266E+01  0.8487E+01  0.1000E+02
  -7.180  0.8214E+01  0.8544E+01  0.1017E+02
  -7.170  0.8094E+01  0.8504E+01  0.1034E+02
  -7.160  0.7908E+01  0.8378E+01  0.1050E+02
  -7.150  0.7715E+01  0.8178E+01  0.1066E+02
  -7.140  0.7552E+01  0.7961E+01  0.1082E+02
  -7.130  0.7529E+01  0.7747E+01  0.1097E+02
  -7.120  0.7817E+01  0.7647E+01  0.1112E+02
  -7.110  0.8343E+01  0.7769E+01  0.1128E+02
  -7.100  0.8771E+01  0.7948E+01  0.1145E+02
  -7.090  0.9347E+01  0.8109E+01  0.1162E+02
  -7.080  0.1127E+02  0.8645E+01  0.1180E+02
  -7.070  0.1222E+02  0.1073E+02  0.1202E+02
  -7.060  0.1202E+02  0.1211E+02  0.1226E+02
  -7.050  0.1132E+02  0.1197E+02  0.1249E+02
  -7.040  0.1053E+02  0.1118E+02  0.1272E+02
  -7.030  0.1064E+02  0.1094E+02  0.1293E+02
  -7.020  0.1083E+02  0.1107E+02  0.1315E+02
  -7.010  0.1113E+02  0.1124E+02  0.1337E+02
  -7.000  0.1158E+02  0.1158E+02  0.1360E+02
  -6.990  0.1174E+02  0.1203E+02  0.1384E+02
  -6.980  0.1186E+02  0.1198E+02  0.1407E+02
  -6.970  0.1112E+02  0.1183E+02  0.1431E+02
  -6.960  0.1112E+02  0.1006E+02  0.1453E+02
  -6.950  0.1132E+02  0.1017E+02  0.1474E+02
  -6.940  0.1175E+02  0.1013E+02  0.1496E+02
  -6.930  0.1233E+02  0.1150E+02  0.1519E+02
  -6.920  0.1271E+02  0.1244E+02  0.1543E+02
  -6.910  0.1288E+02  0.1290E+02  0.1569E+02
  -6.900  0.1281E+02  0.1288E+02  0.1595E+02
  -6.890  0.1333E+02  0.1258E+02  0.1620E+02
  -6.880  0.1550E+02  0.1323E+02  0.1647E+02
  -6.870  0.1911E+02  0.1498E+02  0.1679E+02
  -6.860  0.2189E+02  0.1792E+02  0.1716E+02
  -6.850  0.2302E+02  0.2069E+02  0.1758E+02
  -6.840  0.2629E+02  0.2312E+02  0.1804E+02
  -6.830  0.2305E+02  0.2721E+02  0.1854E+02
  -6.820  0.2165E+02  0.2467E+02  0.1902E+02
  -6.810  0.2089E+02  0.2293E+02  0.1948E+02
  -6.800  0.1997E+02  0.2131E+02  0.1990E+02
  -6.790  0.1912E+02  0.1968E+02  0.2030E+02
  -6.780  0.1917E+02  0.1846E+02  0.2068E+02
  -6.770  0.2109E+02  0.1688E+02  0.2106E+02
  -6.760  0.2110E+02  0.1775E+02  0.2144E+02
  -6.750  0.1888E+02  0.2039E+02  0.2183E+02
  -6.740  0.1675E+02  0.2096E+02  0.2222E+02
  -6.730  0.1506E+02  0.1832E+02  0.2257E+02
  -6.720  0.1392E+02  0.1617E+02  0.2289E+02
  -6.710  0.1339E+02  0.1464E+02  0.2318E+02
  -6.700  0.1346E+02  0.1374E+02  0.2345E+02
  -6.690  0.2387E+02  0.1349E+02  0.2375E+02
  -6.680  0.2254E+02  0.1908E+02  0.2413E+02
  -6.670  0.3019E+02  0.2094E+02  0.2458E+02
  -6.660  0.2159E+02  0.3064E+02  0.2512E+02
  -6.650  0.3104E+02  0.2323E+02  0.2563E+02
  -6.640  0.4065E+02  0.3267E+02  0.2627E+02
  -6.630  0.3696E+02  0.3391E+02  0.2700E+02
  -6.620  0.3253E+02  0.3880E+02  0.2771E+02
  -6.610  0.2870E+02  0.3480E+02  0.2839E+02
  -6.600  0.3350E+02  0.3122E+02  0.2901E+02
  -6.590  0.4015E+02  0.2992E+02  0.2969E+02
  -6.580  0.4194E+02  0.3848E+02  0.3044E+02
  -6.570  0.4351E+02  0.4728E+02  0.3130E+02
  -6.560  0.4612E+02  0.5303E+02  0.3226E+02
  -6.550  0.4569E+02  0.4375E+02  0.3322E+02
  -6.540  0.4347E+02  0.3678E+02  0.3405E+02
  -6.530  0.4394E+02  0.3937E+02  0.3486E+02
  -6.520  0.4246E+02  0.4407E+02  0.3572E+02
  -6.510  0.4880E+02  0.4035E+02  0.3659E+02
  -6.500  0.4912E+02  0.4366E+02  0.3750E+02
  -6.490  0.4779E+02  0.4789E+02  0.3844E+02
  -6.480  0.4743E+02  0.4986E+02  0.3941E+02
  -6.470  0.4832E+02  0.4801E+02  0.4038E+02
  -6.460  0.5222E+02  0.4605E+02  0.4134E+02
  -6.450  0.6389E+02  0.5108E+02  0.4238E+02
  -6.440  0.8747E+02  0.5897E+02  0.4367E+02
  -6.430  0.6541E+02  0.7886E+02  0.4513E+02
  -6.420  0.6047E+02  0.7461E+02  0.4654E+02
  -6.410  0.5387E+02  0.6699E+02  0.4782E+02
  -6.400  0.4754E+02  0.6158E+02  0.4896E+02
  -6.390  0.7138E+02  0.4463E+02  0.5012E+02
  -6.380  0.8259E+02  0.5967E+02  0.5144E+02
  -6.370  0.5791E+02  0.6535E+02  0.5289E+02
  -6.360  0.5187E+02  0.5697E+02  0.5404E+02
  -6.350  0.4610E+02  0.4846E+02  0.5505E+02
  -6.340  0.4440E+02  0.4971E+02  0.5598E+02
  -6.330  0.4748E+02  0.4139E+02  0.5686E+02
  -6.320  0.5088E+02  0.4905E+02  0.5780E+02
  -6.310  0.5192E+02  0.6180E+02  0.5886E+02
  -6.300  0.6496E+02  0.6214E+02  0.6004E+02
  -6.290  0.1014E+03  0.7445E+02  0.6155E+02
  -6.280  0.1111E+03  0.9939E+02  0.6356E+02
  -6.270  0.8479E+02  0.8537E+02  0.6542E+02
  -6.260  0.7762E+02  0.7554E+02  0.6702E+02
  -6.250  0.6703E+02  0.7245E+02  0.6850E+02
  -6.240  0.6393E+02  0.7102E+02  0.6986E+02
  -6.230  0.2875E+00  0.5450E+02  0.7090E+02
  -6.220  0.0000E+00  0.3924E+02  0.7137E+02
  -6.210  0.0000E+00  0.3213E+02  0.7171E+02
  -6.200  0.0000E+00  0.1025E+02  0.7198E+02
  -6.190  0.0000E+00  0.0000E+00  0.7200E+02
  -6.180  0.0000E+00  0.0000E+00  0.7200E+02
  -6.170  0.0000E+00  0.0000E+00  0.7200E+02
  -6.160  0.0000E+00  0.0000E+00  0.7200E+02
  -6.150  0.0000E+00  0.0000E+00  0.7200E+02
  -6.140  0.0000E+00  0.0000E+00  0.7200E+02
  -6.130  0.0000E+00  0.0000E+00  0.7200E+02
  -6.120  0.0000E+00  0.0000E+00  0.7200E+02
  -6.110  0.0000E+00  0.0000E+00  0.7200E+02
  -6.100  0.0000E+00  0.0000E+00  0.7200E+02
  -6.090  0.0000E+00  0.0000E+00  0.7200E+02
  -6.080  0.0000E+00  0.0000E+00  0.7200E+02
  -6.070  0.0000E+00  0.0000E+00  0.7200E+02
  -6.060  0.0000E+00  0.0000E+00  0.7200E+02
  -6.050  0.0000E+00  0.0000E+00  0.7200E+02
  -6.040  0.0000E+00  0.0000E+00  0.7200E+02
  -6.030  0.0000E+00  0.0000E+00  0.7200E+02
  -6.020  0.0000E+00  0.0000E+00  0.7200E+02
  -6.010  0.0000E+00  0.0000E+00  0.7200E+02
  -6.000  0.0000E+00  0.0000E+00  0.7200E+02
  -5.990  0.0000E+00  0.0000E+00  0.7200E+02
  -5.980  0.0000E+00  0.0000E+00  0.7200E+02
  -5.970  0.0000E+00  0.0000E+00  0.7200E+02
  -5.960  0.0000E+00  0.0000E+00  0.7200E+02
  -5.950  0.0000E+00  0.0000E+00  0.7200E+02
  -5.940  0.0000E+00  0.0000E+00  0.7200E+02
  -5.930  0.0000E+00  0.0000E+00  0.7200E+02
  -5.920  0.0000E+00  0.0000E+00  0.7200E+02
  -5.910  0.0000E+00  0.0000E+00  0.7200E+02
  -5.900  0.0000E+00  0.0000E+00  0.7200E+02
  -5.890  0.0000E+00  0.0000E+00  0.7200E+02
  -5.880  0.0000E+00  0.0000E+00  0.7200E+02
  -5.870  0.0000E+00  0.0000E+00  0.7200E+02
  -5.860  0.0000E+00  0.0000E+00  0.7200E+02
  -5.850  0.0000E+00  0.0000E+00  0.7200E+02
  -5.840  0.0000E+00  0.0000E+00  0.7200E+02
  -5.830  0.0000E+00  0.0000E+00  0.7200E+02
  -5.820  0.0000E+00  0.0000E+00  0.7200E+02
  -5.810  0.0000E+00  0.0000E+00  0.7200E+02
  -5.800  0.0000E+00  0.0000E+00  0.7200E+02
  -5.790  0.0000E+00  0.0000E+00  0.7200E+02
  -5.780  0.0000E+00  0.0000E+00  0.7200E+02
  -5.770  0.0000E+00  0.0000E+00  0.7200E+02
  -5.760  0.0000E+00  0.0000E+00  0.7200E+02
  -5.750  0.0000E+00  0.0000E+00  0.7200E+02
  -5.740  0.0000E+00  0.0000E+00  0.7200E+02
  -5.730  0.0000E+00  0.0000E+00  0.7200E+02
  -5.720  0.0000E+00  0.0000E+00  0.7200E+02
  -5.710  0.0000E+00  0.0000E+00  0.7200E+02
  -5.700  0.0000E+00  0.0000E+00  0.7200E+02
  -5.690  0.0000E+00  0.0000E+00  0.7200E+02
  -5.680  0.0000E+00  0.0000E+00  0.7200E+02
  -5.670  0.0000E+00  0.0000E+00  0.7200E+02
  -5.660  0.0000E+00  0.0000E+00  0.7200E+02
  -5.650  0.0000E+00  0.0000E+00  0.7200E+02
  -5.640  0.0000E+00  0.0000E+00  0.7200E+02
  -5.630  0.0000E+00  0.0000E+00  0.7200E+02
  -5.620  0.0000E+00  0.0000E+00  0.7200E+02
  -5.610  0.0000E+00  0.0000E+00  0.7200E+02
  -5.600  0.0000E+00  0.0000E+00  0.7200E+02
  -5.590  0.0000E+00  0.0000E+00  0.7200E+02
  -5.580  0.0000E+00  0.0000E+00  0.7200E+02
  -5.570  0.0000E+00  0.0000E+00  0.7200E+02
  -5.560  0.0000E+00  0.0000E+00  0.7200E+02
  -5.550  0.0000E+00  0.0000E+00  0.7200E+02
  -5.540  0.0000E+00  0.0000E+00  0.7200E+02
  -5.530  0.0000E+00  0.0000E+00  0.7200E+02
  -5.520  0.0000E+00  0.0000E+00  0.7200E+02
  -5.510  0.0000E+00  0.0000E+00  0.7200E+02
  -5.500  0.0000E+00  0.0000E+00  0.7200E+02
  -5.490  0.0000E+00  0.0000E+00  0.7200E+02
  -5.480  0.0000E+00  0.0000E+00  0.7200E+02
  -5.470  0.0000E+00  0.0000E+00  0.7200E+02
  -5.460  0.0000E+00  0.0000E+00  0.7200E+02
  -5.450  0.0000E+00  0.0000E+00  0.7200E+02
  -5.440  0.0000E+00  0.0000E+00  0.7200E+02
  -5.430  0.0000E+00  0.0000E+00  0.7200E+02
  -5.420  0.0000E+00  0.0000E+00  0.7200E+02
  -5.410  0.0000E+00  0.0000E+00  0.7200E+02
  -5.400  0.0000E+00  0.0000E+00  0.7200E+02
  -5.390  0.0000E+00  0.0000E+00  0.7200E+02
  -5.380  0.0000E+00  0.0000E+00  0.7200E+02
  -5.370  0.0000E+00  0.0000E+00  0.7200E+02
  -5.360  0.0000E+00  0.0000E+00  0.7200E+02
  -5.350  0.0000E+00  0.0000E+00  0.7200E+02
  -5.340  0.0000E+00  0.0000E+00  0.7200E+02
  -5.330  0.0000E+00  0.0000E+00  0.7200E+02
  -5.320  0.0000E+00  0.0000E+00  0.7200E+02
  -5.310  0.0000E+00  0.0000E+00  0.7200E+02
  -5.300  0.0000E+00  0.0000E+00  0.7200E+02
  -5.290  0.0000E+00  0.0000E+00  0.7200E+02
  -5.280  0.0000E+00  0.0000E+00  0.7200E+02
  -5.270  0.0000E+00  0.0000E+00  0.7200E+02
  -5.260  0.0000E+00  0.0000E+00  0.7200E+02
  -5.250  0.0000E+00  0.0000E+00  0.7200E+02
  -5.240  0.0000E+00  0.0000E+00  0.7200E+02
  -5.230  0.0000E+00  0.0000E+00  0.7200E+02
  -5.220  0.0000E+00  0.0000E+00  0.7200E+02
  -5.210  0.0000E+00  0.0000E+00  0.7200E+02
  -5.200  0.0000E+00  0.0000E+00  0.7200E+02
  -5.190  0.0000E+00  0.0000E+00  0.7200E+02
  -5.180  0.0000E+00  0.0000E+00  0.7200E+02
  -5.170  0.0000E+00  0.0000E+00  0.7200E+02
  -5.160  0.0000E+00  0.0000E+00  0.7200E+02
  -5.150  0.0000E+00  0.0000E+00  0.7200E+02
  -5.140  0.0000E+00  0.0000E+00  0.7200E+02
  -5.130  0.0000E+00  0.0000E+00  0.7200E+02
  -5.120  0.0000E+00  0.0000E+00  0.7200E+02
  -5.110  0.0000E+00  0.0000E+00  0.7200E+02
  -5.100  0.0000E+00  0.0000E+00  0.7200E+02
  -5.090  0.0000E+00  0.0000E+00  0.7200E+02
  -5.080  0.0000E+00  0.0000E+00  0.7200E+02
  -5.070  0.0000E+00  0.0000E+00  0.7200E+02
  -5.060  0.0000E+00  0.0000E+00  0.7200E+02
  -5.050  0.0000E+00  0.0000E+00  0.7200E+02
  -5.040  0.0000E+00  0.0000E+00  0.7200E+02
  -5.030  0.0000E+00  0.0000E+00  0.7200E+02
  -5.020  0.0000E+00  0.0000E+00  0.7200E+02
  -5.010  0.0000E+00  0.0000E+00  0.7200E+02
  -5.000  0.0000E+00  0.0000E+00  0.7200E+02
  -4.990  0.0000E+00  0.0000E+00  0.7200E+02
  -4.980  0.0000E+00  0.0000E+00  0.7200E+02
  -4.970  0.0000E+00  0.0000E+00  0.7200E+02
  -4.960  0.0000E+00  0.0000E+00  0.7200E+02
  -4.950  0.0000E+00  0.0000E+00  0.7200E+02
  -4.940  0.0000E+00  0.0000E+00  0.7200E+02
  -4.930  0.0000E+00  0.0000E+00  0.7200E+02
  -4.920  0.0000E+00  0.0000E+00  0.7200E+02
  -4.910  0.0000E+00  0.0000E+00  0.7200E+02
  -4.900  0.0000E+00  0.0000E+00  0.7200E+02
  -4.890  0.0000E+00  0.0000E+00  0.7200E+02
  -4.880  0.0000E+00  0.0000E+00  0.7200E+02
  -4.870  0.0000E+00  0.0000E+00  0.7200E+02
  -4.860  0.0000E+00  0.0000E+00  0.7200E+02
  -4.850  0.0000E+00  0.0000E+00  0.7200E+02
  -4.840  0.0000E+00  0.0000E+00  0.7200E+02
  -4.830  0.0000E+00  0.0000E+00  0.7200E+02
  -4.820  0.0000E+00  0.0000E+00  0.7200E+02
  -4.810  0.0000E+00  0.0000E+00  0.7200E+02
  -4.800  0.0000E+00  0.0000E+00  0.7200E+02
  -4.790  0.0000E+00  0.0000E+00  0.7200E+02
  -4.780  0.0000E+00  0.0000E+00  0.7200E+02
  -4.770  0.0000E+00  0.0000E+00  0.7200E+02
  -4.760  0.0000E+00  0.0000E+00  0.7200E+02
  -4.750  0.0000E+00  0.0000E+00  0.7200E+02
  -4.740  0.0000E+00  0.0000E+00  0.7200E+02
  -4.730  0.0000E+00  0.0000E+00  0.7200E+02
  -4.720  0.0000E+00  0.0000E+00  0.7200E+02
  -4.710  0.0000E+00  0.0000E+00  0.7200E+02
  -4.700  0.0000E+00  0.0000E+00  0.7200E+02
  -4.690  0.0000E+00  0.0000E+00  0.7200E+02
  -4.680  0.0000E+00  0.0000E+00  0.7200E+02
  -4.670  0.0000E+00  0.0000E+00  0.7200E+02
  -4.660  0.0000E+00  0.0000E+00  0.7200E+02
  -4.650  0.0000E+00  0.0000E+00  0.7200E+02
  -4.640  0.0000E+00  0.0000E+00  0.7200E+02
  -4.630  0.0000E+00  0.0000E+00  0.7200E+02
  -4.620  0.0000E+00  0.0000E+00  0.7200E+02
  -4.610  0.0000E+00  0.0000E+00  0.7200E+02
  -4.600  0.0000E+00  0.0000E+00  0.7200E+02
  -4.590  0.0000E+00  0.0000E+00  0.7200E+02
  -4.580  0.0000E+00  0.0000E+00  0.7200E+02
  -4.570  0.0000E+00  0.0000E+00  0.7200E+02
  -4.560  0.0000E+00  0.0000E+00  0.7200E+02
  -4.550  0.0000E+00  0.0000E+00  0.7200E+02
  -4.540  0.0000E+00  0.0000E+00  0.7200E+02
  -4.530  0.0000E+00  0.0000E+00  0.7200E+02
  -4.520  0.0000E+00  0.0000E+00  0.7200E+02
  -4.510  0.0000E+00  0.0000E+00  0.7200E+02
  -4.500  0.0000E+00  0.0000E+00  0.7200E+02
  -4.490  0.0000E+00  0.0000E+00  0.7200E+02
  -4.480  0.0000E+00  0.0000E+00  0.7200E+02
  -4.470  0.0000E+00  0.0000E+00  0.7200E+02
  -4.460  0.0000E+00  0.0000E+00  0.7200E+02
  -4.450  0.0000E+00  0.0000E+00  0.7200E+02
  -4.440  0.0000E+00  0.0000E+00  0.7200E+02
  -4.430  0.0000E+00  0.0000E+00  0.7200E+02
  -4.420  0.0000E+00  0.0000E+00  0.7200E+02
  -4.410  0.0000E+00  0.0000E+00  0.7200E+02
  -4.400  0.0000E+00  0.0000E+00  0.7200E+02
  -4.390  0.0000E+00  0.0000E+00  0.7200E+02
  -4.380  0.0000E+00  0.0000E+00  0.7200E+02
  -4.370  0.0000E+00  0.0000E+00  0.7200E+02
  -4.360  0.0000E+00  0.0000E+00  0.7200E+02
  -4.350  0.0000E+00  0.0000E+00  0.7200E+02
  -4.340  0.0000E+00  0.0000E+00  0.7200E+02
  -4.330  0.0000E+00  0.0000E+00  0.7200E+02
  -4.320  0.0000E+00  0.0000E+00  0.7200E+02
  -4.310  0.0000E+00  0.0000E+00  0.7200E+02
  -4.300  0.0000E+00  0.0000E+00  0.7200E+02
  -4.290  0.0000E+00  0.0000E+00  0.7200E+02
  -4.280  0.0000E+00  0.0000E+00  0.7200E+02
  -4.270  0.0000E+00  0.0000E+00  0.7200E+02
  -4.260  0.0000E+00  0.0000E+00  0.7200E+02
  -4.250  0.0000E+00  0.0000E+00  0.7200E+02
  -4.240  0.0000E+00  0.0000E+00  0.7200E+02
  -4.230  0.0000E+00  0.0000E+00  0.7200E+02
  -4.220  0.0000E+00  0.0000E+00  0.7200E+02
  -4.210  0.0000E+00  0.0000E+00  0.7200E+02
  -4.200  0.0000E+00  0.0000E+00  0.7200E+02
  -4.190  0.0000E+00  0.0000E+00  0.7200E+02
  -4.180  0.0000E+00  0.0000E+00  0.7200E+02
  -4.170  0.0000E+00  0.0000E+00  0.7200E+02
  -4.160  0.0000E+00  0.0000E+00  0.7200E+02
  -4.150  0.0000E+00  0.0000E+00  0.7200E+02
  -4.140  0.0000E+00  0.0000E+00  0.7200E+02
  -4.130  0.0000E+00  0.0000E+00  0.7200E+02
  -4.120  0.0000E+00  0.0000E+00  0.7200E+02
  -4.110  0.0000E+00  0.0000E+00  0.7200E+02
  -4.100  0.0000E+00  0.0000E+00  0.7200E+02
  -4.090  0.0000E+00  0.0000E+00  0.7200E+02
  -4.080  0.0000E+00  0.0000E+00  0.7200E+02
  -4.070  0.0000E+00  0.0000E+00  0.7200E+02
  -4.060  0.0000E+00  0.0000E+00  0.7200E+02
  -4.050  0.0000E+00  0.0000E+00  0.7200E+02
  -4.040  0.0000E+00  0.0000E+00  0.7200E+02
  -4.030  0.0000E+00  0.0000E+00  0.7200E+02
  -4.020  0.0000E+00  0.0000E+00  0.7200E+02
  -4.010  0.0000E+00  0.0000E+00  0.7200E+02
  -4.000  0.0000E+00  0.0000E+00  0.7200E+02
  -3.990  0.0000E+00  0.0000E+00  0.7200E+02
  -3.980  0.0000E+00  0.0000E+00  0.7200E+02
  -3.970  0.0000E+00  0.0000E+00  0.7200E+02
  -3.960  0.0000E+00  0.0000E+00  0.7200E+02
  -3.950  0.0000E+00  0.0000E+00  0.7200E+02
  -3.940  0.0000E+00  0.0000E+00  0.7200E+02
  -3.930  0.0000E+00  0.0000E+00  0.7200E+02
  -3.920  0.0000E+00  0.0000E+00  0.7200E+02
  -3.910  0.0000E+00  0.0000E+00  0.7200E+02
  -3.900  0.0000E+00  0.0000E+00  0.7200E+02
  -3.890  0.0000E+00  0.0000E+00  0.7200E+02
  -3.880  0.0000E+00  0.0000E+00  0.7200E+02
  -3.870  0.0000E+00  0.0000E+00  0.7200E+02
  -3.860  0.0000E+00  0.0000E+00  0.7200E+02
  -3.850  0.0000E+00  0.0000E+00  0.7200E+02
  -3.840  0.0000E+00  0.0000E+00  0.7200E+02
  -3.830  0.0000E+00  0.0000E+00  0.7200E+02
  -3.820  0.0000E+00  0.0000E+00  0.7200E+02
  -3.810  0.0000E+00  0.0000E+00  0.7200E+02
  -3.800  0.0000E+00  0.0000E+00  0.7200E+02
  -3.790  0.0000E+00  0.0000E+00  0.7200E+02
  -3.780  0.0000E+00  0.0000E+00  0.7200E+02
  -3.770  0.0000E+00  0.0000E+00  0.7200E+02
  -3.760  0.0000E+00  0.0000E+00  0.7200E+02
  -3.750  0.0000E+00  0.0000E+00  0.7200E+02
  -3.740  0.0000E+00  0.0000E+00  0.7200E+02
  -3.730  0.0000E+00  0.0000E+00  0.7200E+02
  -3.720  0.0000E+00  0.0000E+00  0.7200E+02
  -3.710  0.0000E+00  0.0000E+00  0.7200E+02
  -3.700  0.0000E+00  0.0000E+00  0.7200E+02
  -3.690  0.0000E+00  0.0000E+00  0.7200E+02
  -3.680  0.0000E+00  0.0000E+00  0.7200E+02
  -3.670  0.0000E+00  0.0000E+00  0.7200E+02
  -3.660  0.0000E+00  0.0000E+00  0.7200E+02
  -3.650  0.0000E+00  0.0000E+00  0.7200E+02
  -3.640  0.0000E+00  0.0000E+00  0.7200E+02
  -3.630  0.0000E+00  0.0000E+00  0.7200E+02
  -3.620  0.0000E+00  0.0000E+00  0.7200E+02
  -3.610  0.0000E+00  0.0000E+00  0.7200E+02
  -3.600  0.0000E+00  0.0000E+00  0.7200E+02
  -3.590  0.0000E+00  0.0000E+00  0.7200E+02
  -3.580  0.0000E+00  0.0000E+00  0.7200E+02
  -3.570  0.0000E+00  0.0000E+00  0.7200E+02
  -3.560  0.0000E+00  0.0000E+00  0.7200E+02
  -3.550  0.0000E+00  0.0000E+00  0.7200E+02
  -3.540  0.0000E+00  0.0000E+00  0.7200E+02
  -3.530  0.0000E+00  0.0000E+00  0.7200E+02
  -3.520  0.0000E+00  0.0000E+00  0.7200E+02
  -3.510  0.0000E+00  0.0000E+00  0.7200E+02
  -3.500  0.0000E+00  0.0000E+00  0.7200E+02
  -3.490  0.0000E+00  0.0000E+00  0.7200E+02
  -3.480  0.0000E+00  0.0000E+00  0.7200E+02
  -3.470  0.0000E+00  0.0000E+00  0.7200E+02
  -3.460  0.0000E+00  0.0000E+00  0.7200E+02
  -3.450  0.0000E+00  0.0000E+00  0.7200E+02
  -3.440  0.0000E+00  0.0000E+00  0.7200E+02
  -3.430  0.0000E+00  0.0000E+00  0.7200E+02
  -3.420  0.0000E+00  0.0000E+00  0.7200E+02
  -3.410  0.0000E+00  0.0000E+00  0.7200E+02
  -3.400  0.0000E+00  0.0000E+00  0.7200E+02
  -3.390  0.0000E+00  0.0000E+00  0.7200E+02
  -3.380  0.0000E+00  0.0000E+00  0.7200E+02
  -3.370  0.0000E+00  0.0000E+00  0.7200E+02
  -3.360  0.0000E+00  0.0000E+00  0.7200E+02
  -3.350  0.0000E+00  0.0000E+00  0.7200E+02
  -3.340  0.0000E+00  0.0000E+00  0.7200E+02
  -3.330  0.0000E+00  0.0000E+00  0.7200E+02
  -3.320  0.0000E+00  0.0000E+00  0.7200E+02
  -3.310  0.0000E+00  0.0000E+00  0.7200E+02
  -3.300  0.0000E+00  0.0000E+00  0.7200E+02
  -3.290  0.0000E+00  0.0000E+00  0.7200E+02
  -3.280  0.0000E+00  0.0000E+00  0.7200E+02
  -3.270  0.0000E+00  0.0000E+00  0.7200E+02
  -3.260  0.0000E+00  0.0000E+00  0.7200E+02
  -3.250  0.0000E+00  0.0000E+00  0.7200E+02
  -3.240  0.0000E+00  0.0000E+00  0.7200E+02
  -3.230  0.0000E+00  0.0000E+00  0.7200E+02
  -3.220  0.0000E+00  0.0000E+00  0.7200E+02
  -3.210  0.0000E+00  0.0000E+00  0.7200E+02
  -3.200  0.0000E+00  0.0000E+00  0.7200E+02
  -3.190  0.0000E+00  0.0000E+00  0.7200E+02
  -3.180  0.0000E+00  0.0000E+00  0.7200E+02
  -3.170  0.0000E+00  0.0000E+00  0.7200E+02
  -3.160  0.0000E+00  0.0000E+00  0.7200E+02
  -3.150  0.0000E+00  0.0000E+00  0.7200E+02
  -3.140  0.0000E+00  0.0000E+00  0.7200E+02
  -3.130  0.0000E+00  0.0000E+00  0.7200E+02
  -3.120  0.0000E+00  0.0000E+00  0.7200E+02
  -3.110  0.0000E+00  0.0000E+00  0.7200E+02
  -3.100  0.0000E+00  0.0000E+00  0.7200E+02
  -3.090  0.0000E+00  0.0000E+00  0.7200E+02
  -3.080  0.0000E+00  0.0000E+00  0.7200E+02
  -3.070  0.0000E+00  0.0000E+00  0.7200E+02
  -3.060  0.0000E+00  0.0000E+00  0.7200E+02
  -3.050  0.0000E+00  0.0000E+00  0.7200E+02
  -3.040  0.0000E+00  0.0000E+00  0.7200E+02
  -3.030  0.0000E+00  0.0000E+00  0.7200E+02
  -3.020  0.0000E+00  0.0000E+00  0.7200E+02
  -3.010  0.0000E+00  0.0000E+00  0.7200E+02
  -3.000  0.0000E+00  0.0000E+00  0.7200E+02
  -2.990  0.0000E+00  0.0000E+00  0.7200E+02
  -2.980  0.0000E+00  0.0000E+00  0.7200E+02
  -2.970  0.0000E+00  0.0000E+00  0.7200E+02
  -2.960  0.0000E+00  0.0000E+00  0.7200E+02
  -2.950  0.0000E+00  0.0000E+00  0.7200E+02
  -2.940  0.0000E+00  0.0000E+00  0.7200E+02
  -2.930  0.0000E+00  0.0000E+00  0.7200E+02
  -2.920  0.0000E+00  0.0000E+00  0.7200E+02
  -2.910  0.0000E+00  0.0000E+00  0.7200E+02
  -2.900  0.0000E+00  0.0000E+00  0.7200E+02
  -2.890  0.0000E+00  0.0000E+00  0.7200E+02
  -2.880  0.0000E+00  0.0000E+00  0.7200E+02
  -2.870  0.0000E+00  0.0000E+00  0.7200E+02
  -2.860  0.0000E+00  0.0000E+00  0.7200E+02
  -2.850  0.0000E+00  0.0000E+00  0.7200E+02
  -2.840  0.0000E+00  0.0000E+00  0.7200E+02
  -2.830  0.0000E+00  0.0000E+00  0.7200E+02
  -2.820  0.0000E+00  0.0000E+00  0.7200E+02
  -2.810  0.0000E+00  0.0000E+00  0.7200E+02
  -2.800  0.0000E+00  0.0000E+00  0.7200E+02
  -2.790  0.0000E+00  0.0000E+00  0.7200E+02
  -2.780  0.0000E+00  0.0000E+00  0.7200E+02
  -2.770  0.0000E+00  0.0000E+00  0.7200E+02
  -2.760  0.0000E+00  0.0000E+00  0.7200E+02
  -2.750  0.0000E+00  0.0000E+00  0.7200E+02
  -2.740  0.0000E+00  0.0000E+00  0.7200E+02
  -2.730  0.0000E+00  0.0000E+00  0.7200E+02
  -2.720  0.0000E+00  0.0000E+00  0.7200E+02
  -2.710  0.0000E+00  0.0000E+00  0.7200E+02
  -2.700  0.0000E+00  0.0000E+00  0.7200E+02
  -2.690  0.0000E+00  0.0000E+00  0.7200E+02
  -2.680  0.0000E+00  0.0000E+00  0.7200E+02
  -2.670  0.0000E+00  0.0000E+00  0.7200E+02
  -2.660  0.0000E+00  0.0000E+00  0.7200E+02
  -2.650  0.0000E+00  0.0000E+00  0.7200E+02
  -2.640  0.0000E+00  0.0000E+00  0.7200E+02
  -2.630  0.0000E+00  0.0000E+00  0.7200E+02
  -2.620  0.0000E+00  0.0000E+00  0.7200E+02
  -2.610  0.0000E+00  0.0000E+00  0.7200E+02
  -2.600  0.0000E+00  0.0000E+00  0.7200E+02
  -2.590  0.0000E+00  0.0000E+00  0.7200E+02
  -2.580  0.0000E+00  0.0000E+00  0.7200E+02
  -2.570  0.0000E+00  0.0000E+00  0.7200E+02
  -2.560  0.0000E+00  0.0000E+00  0.7200E+02
  -2.550  0.0000E+00  0.0000E+00  0.7200E+02
  -2.540  0.0000E+00  0.0000E+00  0.7200E+02
  -2.530  0.0000E+00  0.0000E+00  0.7200E+02
  -2.520  0.0000E+00  0.0000E+00  0.7200E+02
  -2.510  0.0000E+00  0.0000E+00  0.7200E+02
  -2.500  0.0000E+00  0.0000E+00  0.7200E+02
  -2.490  0.0000E+00  0.0000E+00  0.7200E+02
  -2.480  0.0000E+00  0.0000E+00  0.7200E+02
  -2.470  0.0000E+00  0.0000E+00  0.7200E+02
  -2.460  0.0000E+00  0.0000E+00  0.7200E+02
  -2.450  0.0000E+00  0.0000E+00  0.7200E+02
  -2.440  0.0000E+00  0.0000E+00  0.7200E+02
  -2.430  0.0000E+00  0.0000E+00  0.7200E+02
  -2.420  0.0000E+00  0.0000E+00  0.7200E+02
  -2.410  0.0000E+00  0.0000E+00  0.7200E+02
  -2.400  0.0000E+00  0.0000E+00  0.7200E+02
  -2.390  0.0000E+00  0.0000E+00  0.7200E+02
  -2.380  0.0000E+00  0.0000E+00  0.7200E+02
  -2.370  0.0000E+00  0.0000E+00  0.7200E+02
  -2.360  0.0000E+00  0.0000E+00  0.7200E+02
  -2.350  0.0000E+00  0.0000E+00  0.7200E+02
  -2.340  0.0000E+00  0.0000E+00  0.7200E+02
  -2.330  0.0000E+00  0.0000E+00  0.7200E+02
  -2.320  0.0000E+00  0.0000E+00  0.7200E+02
  -2.310  0.0000E+00  0.0000E+00  0.7200E+02
  -2.300  0.0000E+00  0.0000E+00  0.7200E+02
  -2.290  0.0000E+00  0.0000E+00  0.7200E+02
  -2.280  0.0000E+00  0.0000E+00  0.7200E+02
  -2.270  0.0000E+00  0.0000E+00  0.7200E+02
  -2.260  0.0000E+00  0.0000E+00  0.7200E+02
  -2.250  0.0000E+00  0.0000E+00  0.7200E+02
  -2.240  0.0000E+00  0.0000E+00  0.7200E+02
  -2.230  0.0000E+00  0.0000E+00  0.7200E+02
  -2.220  0.0000E+00  0.0000E+00  0.7200E+02
  -2.210  0.0000E+00  0.0000E+00  0.7200E+02
  -2.200  0.0000E+00  0.0000E+00  0.7200E+02
  -2.190  0.0000E+00  0.0000E+00  0.7200E+02
  -2.180  0.0000E+00  0.0000E+00  0.7200E+02
  -2.170  0.0000E+00  0.0000E+00  0.7200E+02
  -2.160  0.0000E+00  0.0000E+00  0.7200E+02
  -2.150  0.0000E+00  0.0000E+00  0.7200E+02
  -2.140  0.0000E+00  0.0000E+00  0.7200E+02
  -2.130  0.0000E+00  0.0000E+00  0.7200E+02
  -2.120  0.0000E+00  0.0000E+00  0.7200E+02
  -2.110  0.0000E+00  0.0000E+00  0.7200E+02
  -2.100  0.0000E+00  0.0000E+00  0.7200E+02
  -2.090  0.0000E+00  0.0000E+00  0.7200E+02
  -2.080  0.0000E+00  0.0000E+00  0.7200E+02
  -2.070  0.0000E+00  0.0000E+00  0.7200E+02
  -2.060  0.0000E+00  0.0000E+00  0.7200E+02
  -2.050  0.0000E+00  0.0000E+00  0.7200E+02
  -2.040  0.0000E+00  0.0000E+00  0.7200E+02
  -2.030  0.0000E+00  0.0000E+00  0.7200E+02
  -2.020  0.0000E+00  0.0000E+00  0.7200E+02
  -2.010  0.0000E+00  0.0000E+00  0.7200E+02
  -2.000  0.0000E+00  0.0000E+00  0.7200E+02
  -1.990  0.0000E+00  0.0000E+00  0.7200E+02
  -1.980  0.0000E+00  0.0000E+00  0.7200E+02
  -1.970  0.0000E+00  0.0000E+00  0.7200E+02
  -1.960  0.0000E+00  0.0000E+00  0.7200E+02
  -1.950  0.0000E+00  0.0000E+00  0.7200E+02
  -1.940  0.0000E+00  0.0000E+00  0.7200E+02
  -1.930  0.0000E+00  0.0000E+00  0.7200E+02
  -1.920  0.0000E+00  0.0000E+00  0.7200E+02
  -1.910  0.0000E+00  0.0000E+00  0.7200E+02
  -1.900  0.0000E+00  0.0000E+00  0.7200E+02
  -1.890  0.0000E+00  0.0000E+00  0.7200E+02
  -1.880  0.0000E+00  0.0000E+00  0.7200E+02
  -1.870  0.0000E+00  0.0000E+00  0.7200E+02
  -1.860  0.0000E+00  0.0000E+00  0.7200E+02
  -1.850  0.0000E+00  0.0000E+00  0.7200E+02
  -1.840  0.0000E+00  0.0000E+00  0.7200E+02
  -1.830  0.0000E+00  0.0000E+00  0.7200E+02
  -1.820  0.0000E+00  0.0000E+00  0.7200E+02
  -1.810  0.0000E+00  0.0000E+00  0.7200E+02
  -1.800  0.0000E+00  0.0000E+00  0.7200E+02
  -1.790  0.0000E+00  0.0000E+00  0.7200E+02
  -1.780  0.0000E+00  0.0000E+00  0.7200E+02
  -1.770  0.0000E+00  0.0000E+00  0.7200E+02
  -1.760  0.0000E+00  0.0000E+00  0.7200E+02
  -1.750  0.0000E+00  0.0000E+00  0.7200E+02
  -1.740  0.0000E+00  0.0000E+00  0.7200E+02
  -1.730  0.0000E+00  0.0000E+00  0.7200E+02
  -1.720  0.0000E+00  0.0000E+00  0.7200E+02
  -1.710  0.0000E+00  0.0000E+00  0.7200E+02
  -1.700  0.0000E+00  0.0000E+00  0.7200E+02
  -1.690  0.0000E+00  0.0000E+00  0.7200E+02
  -1.680  0.0000E+00  0.0000E+00  0.7200E+02
  -1.670  0.0000E+00  0.0000E+00  0.7200E+02
  -1.660  0.0000E+00  0.0000E+00  0.7200E+02
  -1.650  0.0000E+00  0.0000E+00  0.7200E+02
  -1.640  0.0000E+00  0.0000E+00  0.7200E+02
  -1.630  0.0000E+00  0.0000E+00  0.7200E+02
  -1.620  0.0000E+00  0.0000E+00  0.7200E+02
  -1.610  0.0000E+00  0.0000E+00  0.7200E+02
  -1.600  0.0000E+00  0.0000E+00  0.7200E+02
  -1.590  0.0000E+00  0.0000E+00  0.7200E+02
  -1.580  0.0000E+00  0.0000E+00  0.7200E+02
  -1.570  0.0000E+00  0.0000E+00  0.7200E+02
  -1.560  0.0000E+00  0.0000E+00  0.7200E+02
  -1.550  0.0000E+00  0.0000E+00  0.7200E+02
  -1.540  0.0000E+00  0.0000E+00  0.7200E+02
  -1.530  0.0000E+00  0.0000E+00  0.7200E+02
  -1.520  0.0000E+00  0.0000E+00  0.7200E+02
  -1.510  0.0000E+00  0.0000E+00  0.7200E+02
  -1.500  0.0000E+00  0.0000E+00  0.7200E+02
  -1.490  0.0000E+00  0.0000E+00  0.7200E+02
  -1.480  0.0000E+00  0.0000E+00  0.7200E+02
  -1.470  0.0000E+00  0.0000E+00  0.7200E+02
  -1.460  0.0000E+00  0.0000E+00  0.7200E+02
  -1.450  0.0000E+00  0.0000E+00  0.7200E+02
  -1.440  0.0000E+00  0.0000E+00  0.7200E+02
  -1.430  0.0000E+00  0.0000E+00  0.7200E+02
  -1.420  0.0000E+00  0.0000E+00  0.7200E+02
  -1.410  0.0000E+00  0.0000E+00  0.7200E+02
  -1.400  0.0000E+00  0.0000E+00  0.7200E+02
  -1.390  0.0000E+00  0.0000E+00  0.7200E+02
  -1.380  0.0000E+00  0.0000E+00  0.7200E+02
  -1.370  0.0000E+00  0.0000E+00  0.7200E+02
  -1.360  0.0000E+00  0.0000E+00  0.7200E+02
  -1.350  0.0000E+00  0.0000E+00  0.7200E+02
  -1.340  0.0000E+00  0.0000E+00  0.7200E+02
  -1.330  0.0000E+00  0.0000E+00  0.7200E+02
  -1.320  0.0000E+00  0.0000E+00  0.7200E+02
  -1.310  0.0000E+00  0.0000E+00  0.7200E+02
  -1.300  0.0000E+00  0.0000E+00  0.7200E+02
  -1.290  0.0000E+00  0.0000E+00  0.7200E+02
  -1.280  0.0000E+00  0.0000E+00  0.7200E+02
  -1.270  0.0000E+00  0.0000E+00  0.7200E+02
  -1.260  0.0000E+00  0.0000E+00  0.7200E+02
  -1.250  0.0000E+00  0.0000E+00  0.7200E+02
  -1.240  0.0000E+00  0.0000E+00  0.7200E+02
  -1.230  0.0000E+00  0.0000E+00  0.7200E+02
  -1.220  0.0000E+00  0.0000E+00  0.7200E+02
  -1.210  0.0000E+00  0.0000E+00  0.7200E+02
  -1.200  0.0000E+00  0.0000E+00  0.7200E+02
  -1.190  0.0000E+00  0.0000E+00  0.7200E+02
  -1.180  0.0000E+00  0.0000E+00  0.7200E+02
  -1.170  0.0000E+00  0.0000E+00  0.7200E+02
  -1.160  0.0000E+00  0.0000E+00  0.7200E+02
  -1.150  0.0000E+00  0.0000E+00  0.7200E+02
  -1.140  0.0000E+00  0.0000E+00  0.7200E+02
  -1.130  0.0000E+00  0.0000E+00  0.7200E+02
  -1.120  0.0000E+00  0.0000E+00  0.7200E+02
  -1.110  0.0000E+00  0.0000E+00  0.7200E+02
  -1.100  0.0000E+00  0.0000E+00  0.7200E+02
  -1.090  0.0000E+00  0.0000E+00  0.7200E+02
  -1.080  0.0000E+00  0.0000E+00  0.7200E+02
  -1.070  0.0000E+00  0.0000E+00  0.7200E+02
  -1.060  0.0000E+00  0.0000E+00  0.7200E+02
  -1.050  0.0000E+00  0.0000E+00  0.7200E+02
  -1.040  0.0000E+00  0.0000E+00  0.7200E+02
  -1.030  0.0000E+00  0.0000E+00  0.7200E+02
  -1.020  0.0000E+00  0.0000E+00  0.7200E+02
  -1.010  0.0000E+00  0.0000E+00  0.7200E+02
  -1.000  0.0000E+00  0.0000E+00  0.7200E+02
  -0.990  0.0000E+00  0.0000E+00  0.7200E+02
  -0.980  0.0000E+00  0.0000E+00  0.7200E+02
  -0.970  0.0000E+00  0.0000E+00  0.7200E+02
  -0.960  0.0000E+00  0.0000E+00  0.7200E+02
  -0.950  0.0000E+00  0.0000E+00  0.7200E+02
  -0.940  0.0000E+00  0.0000E+00  0.7200E+02
  -0.930  0.0000E+00  0.0000E+00  0.7200E+02
  -0.920  0.0000E+00  0.0000E+00  0.7200E+02
  -0.910  0.0000E+00  0.0000E+00  0.7200E+02
  -0.900  0.0000E+00  0.0000E+00  0.7200E+02
  -0.890  0.0000E+00  0.0000E+00  0.7200E+02
  -0.880  0.0000E+00  0.0000E+00  0.7200E+02
  -0.870  0.0000E+00  0.0000E+00  0.7200E+02
  -0.860  0.0000E+00  0.0000E+00  0.7200E+02
  -0.850  0.0000E+00  0.0000E+00  0.7200E+02
  -0.840  0.0000E+00  0.0000E+00  0.7200E+02
  -0.830  0.0000E+00  0.0000E+00  0.7200E+02
  -0.820  0.0000E+00  0.0000E+00  0.7200E+02
  -0.810  0.0000E+00  0.0000E+00  0.7200E+02
  -0.800  0.0000E+00  0.0000E+00  0.7200E+02
  -0.790  0.0000E+00  0.0000E+00  0.7200E+02
  -0.780  0.0000E+00  0.0000E+00  0.7200E+02
  -0.770  0.0000E+00  0.0000E+00  0.7200E+02
  -0.760  0.0000E+00  0.0000E+00  0.7200E+02
  -0.750  0.0000E+00  0.0000E+00  0.7200E+02
  -0.740  0.0000E+00  0.0000E+00  0.7200E+02
  -0.730  0.0000E+00  0.0000E+00  0.7200E+02
  -0.720  0.0000E+00  0.0000E+00  0.7200E+02
  -0.710  0.0000E+00  0.0000E+00  0.7200E+02
  -0.700  0.0000E+00  0.0000E+00  0.7200E+02
  -0.690  0.0000E+00  0.0000E+00  0.7200E+02
  -0.680  0.6773E+01  0.2527E+01  0.7201E+02
  -0.670  0.3277E+02  0.2526E+02  0.7230E+02
  -0.660  0.8242E+02  0.7710E+02  0.7338E+02
  -0.650  0.1185E+03  0.1062E+03  0.7531E+02
  -0.640  0.1302E+03  0.1239E+03  0.7775E+02
  -0.630  0.1615E+03  0.1395E+03  0.8047E+02
  -0.620  0.1758E+03  0.1768E+03  0.8389E+02
  -0.610  0.1974E+03  0.1930E+03  0.8757E+02
  -0.600  0.1927E+03  0.1992E+03  0.9161E+02
  -0.590  0.1453E+03  0.1616E+03  0.9530E+02
  -0.580  0.2325E+03  0.1683E+03  0.9832E+02
  -0.570  0.2133E+03  0.1964E+03  0.1029E+03
  -0.560  0.2915E+03  0.2839E+03  0.1077E+03
  -0.550  0.3418E+03  0.3471E+03  0.1143E+03
  -0.540  0.4026E+03  0.3846E+03  0.1216E+03
  -0.530  0.6084E+03  0.6008E+03  0.1310E+03
  -0.520  0.6545E+03  0.7136E+03  0.1448E+03
  -0.510  0.4232E+03  0.4277E+03  0.1554E+03
  -0.500  0.2649E+03  0.2820E+03  0.1623E+03
  -0.490  0.2389E+03  0.2320E+03  0.1676E+03
  -0.480  0.2033E+03  0.2062E+03  0.1719E+03
  -0.470  0.2065E+03  0.1958E+03  0.1761E+03
  -0.460  0.2286E+03  0.2069E+03  0.1804E+03
  -0.450  0.1635E+03  0.1465E+03  0.1843E+03
  -0.440  0.2828E+03  0.2296E+03  0.1884E+03
  -0.430  0.1734E+03  0.2074E+03  0.1930E+03
  -0.420  0.1418E+03  0.1282E+03  0.1962E+03
  -0.410  0.2482E+03  0.2118E+03  0.1998E+03
  -0.400  0.1725E+03  0.1956E+03  0.2040E+03
  -0.390  0.9818E+02  0.1214E+03  0.2069E+03
  -0.380  0.1491E+03  0.1631E+03  0.2096E+03
  -0.370  0.1580E+03  0.1354E+03  0.2125E+03
  -0.360  0.1747E+03  0.1843E+03  0.2161E+03
  -0.350  0.1252E+03  0.1334E+03  0.2192E+03
  -0.340  0.1444E+03  0.1329E+03  0.2218E+03
  -0.330  0.1384E+03  0.1454E+03  0.2247E+03
  -0.320  0.1098E+03  0.1294E+03  0.2273E+03
  -0.310  0.7800E+02  0.8411E+02  0.2293E+03
  -0.300  0.8236E+02  0.7455E+02  0.2308E+03
  -0.290  0.1054E+03  0.8337E+02  0.2325E+03
  -0.280  0.1235E+03  0.1241E+03  0.2349E+03
  -0.270  0.1275E+03  0.1237E+03  0.2374E+03
  -0.260  0.1155E+03  0.1141E+03  0.2399E+03
  -0.250  0.1096E+03  0.1253E+03  0.2422E+03
  -0.240  0.1190E+03  0.1120E+03  0.2445E+03
  -0.230  0.1419E+03  0.1373E+03  0.2471E+03
  -0.220  0.1439E+03  0.1414E+03  0.2498E+03
  -0.210  0.1816E+03  0.1734E+03  0.2532E+03
  -0.200  0.1266E+03  0.1384E+03  0.2564E+03
  -0.190  0.1535E+03  0.1230E+03  0.2586E+03
  -0.180  0.3989E+03  0.4041E+03  0.2642E+03
  -0.170  0.3722E+03  0.3880E+03  0.2726E+03
  -0.160  0.4634E+03  0.4321E+03  0.2804E+03
  -0.150  0.6852E+03  0.7160E+03  0.2925E+03
  -0.140  0.5910E+03  0.6086E+03  0.3059E+03
  -0.130  0.5691E+03  0.5826E+03  0.3175E+03
  -0.120  0.5242E+03  0.5798E+03  0.3280E+03
  -0.110  0.2621E+03  0.2815E+03  0.3388E+03
  -0.100  0.2302E+03  0.2402E+03  0.3435E+03
  -0.090  0.1062E+03  0.1080E+03  0.3472E+03
  -0.080  0.7552E+02  0.7992E+02  0.3490E+03
  -0.070  0.6326E+02  0.6595E+02  0.3504E+03
  -0.060  0.7981E+02  0.7246E+02  0.3517E+03
  -0.050  0.7176E+02  0.7914E+02  0.3533E+03
  -0.040  0.7626E+02  0.6915E+02  0.3548E+03
  -0.030  0.7265E+02  0.7272E+02  0.3562E+03
  -0.020  0.5769E+02  0.6635E+02  0.3576E+03
  -0.010  0.4213E+02  0.5027E+02  0.3587E+03
   0.000  0.4708E+02  0.4226E+02  0.3595E+03
   0.010  0.7575E+02  0.6621E+02  0.3607E+03
   0.020  0.7803E+02  0.8517E+02  0.3624E+03
   0.030  0.5540E+02  0.5661E+02  0.3637E+03
   0.040  0.3921E+02  0.3206E+02  0.3646E+03
   0.050  0.7614E+02  0.7469E+02  0.3658E+03
   0.060  0.6676E+02  0.8909E+02  0.3673E+03
   0.070  0.8622E+02  0.8209E+02  0.3688E+03
   0.080  0.6258E+02  0.8451E+02  0.3706E+03
   0.090  0.5834E+02  0.5740E+02  0.3718E+03
   0.100  0.4624E+02  0.5263E+02  0.3729E+03
   0.110  0.4328E+02  0.4074E+02  0.3738E+03
   0.120  0.5796E+02  0.5533E+02  0.3748E+03
   0.130  0.7177E+02  0.6827E+02  0.3761E+03
   0.140  0.9082E+02  0.9662E+02  0.3778E+03
   0.150  0.6819E+02  0.6820E+02  0.3794E+03
   0.160  0.3664E+02  0.4248E+02  0.3804E+03
   0.170  0.2185E+02  0.2545E+02  0.3811E+03
   0.180  0.1399E+02  0.1557E+02  0.3814E+03
   0.190  0.1528E+02  0.1240E+02  0.3817E+03
   0.200  0.5094E+01  0.5846E+01  0.3819E+03
   0.210  0.1968E+01  0.2412E+01  0.3820E+03
   0.220  0.3132E+00  0.4835E+00  0.3820E+03
   0.230  0.2279E-03  0.2721E-02  0.3820E+03
   0.240  0.0000E+00  0.0000E+00  0.3820E+03
   0.250  0.0000E+00  0.0000E+00  0.3820E+03
   0.260  0.0000E+00  0.0000E+00  0.3820E+03
   0.270  0.0000E+00  0.0000E+00  0.3820E+03
   0.280  0.0000E+00  0.0000E+00  0.3820E+03
   0.290  0.0000E+00  0.0000E+00  0.3820E+03
   0.300  0.0000E+00  0.0000E+00  0.3820E+03
   0.310  0.0000E+00  0.0000E+00  0.3820E+03
   0.320  0.0000E+00  0.0000E+00  0.3820E+03
   0.330  0.0000E+00  0.0000E+00  0.3820E+03
   0.340  0.0000E+00  0.0000E+00  0.3820E+03
   0.350  0.0000E+00  0.0000E+00  0.3820E+03
   0.360  0.0000E+00  0.0000E+00  0.3820E+03
   0.370  0.3133E-03  0.0000E+00  0.3820E+03
   0.380  0.4656E-02  0.3189E-03  0.3820E+03
   0.390  0.1915E-01  0.4507E-02  0.3820E+03
   0.400  0.4533E-01  0.1844E-01  0.3820E+03
   0.410  0.8323E-01  0.4377E-01  0.3820E+03
   0.420  0.1334E+00  0.8051E-01  0.3820E+03
   0.430  0.1966E+00  0.1287E+00  0.3820E+03
   0.440  0.2727E+00  0.1891E+00  0.3820E+03
   0.450  0.3617E+00  0.2623E+00  0.3820E+03
   0.460  0.4637E+00  0.3481E+00  0.3820E+03
   0.470  0.5787E+00  0.4467E+00  0.3820E+03
   0.480  0.7066E+00  0.5580E+00  0.3820E+03
   0.490  0.8477E+00  0.6820E+00  0.3821E+03
   0.500  0.1065E+01  0.8188E+00  0.3821E+03
   0.510  0.1543E+01  0.1021E+01  0.3821E+03
   0.520  0.2126E+01  0.1471E+01  0.3821E+03
   0.530  0.2988E+01  0.1999E+01  0.3822E+03
   0.540  0.3778E+01  0.2741E+01  0.3822E+03
   0.550  0.4246E+01  0.3611E+01  0.3823E+03
   0.560  0.4403E+01  0.4163E+01  0.3824E+03
   0.570  0.4250E+01  0.4391E+01  0.3825E+03
   0.580  0.3819E+01  0.4300E+01  0.3826E+03
   0.590  0.3581E+01  0.3904E+01  0.3826E+03
   0.600  0.3772E+01  0.3567E+01  0.3827E+03
   0.610  0.4019E+01  0.3705E+01  0.3828E+03
   0.620  0.4264E+01  0.3950E+01  0.3829E+03
   0.630  0.4528E+01  0.4192E+01  0.3829E+03
   0.640  0.4807E+01  0.4449E+01  0.3830E+03
   0.650  0.5101E+01  0.4722E+01  0.3831E+03
   0.660  0.5411E+01  0.5009E+01  0.3832E+03
   0.670  0.5738E+01  0.5314E+01  0.3833E+03
   0.680  0.6078E+01  0.5635E+01  0.3835E+03
   0.690  0.6407E+01  0.5970E+01  0.3836E+03
   0.700  0.6739E+01  0.6303E+01  0.3837E+03
   0.710  0.7344E+01  0.6618E+01  0.3838E+03
   0.720  0.8457E+01  0.7157E+01  0.3840E+03
   0.730  0.9973E+01  0.8286E+01  0.3841E+03
   0.740  0.1118E+02  0.9873E+01  0.3843E+03
   0.750  0.1197E+02  0.1092E+02  0.3846E+03
   0.760  0.1254E+02  0.1174E+02  0.3848E+03
   0.770  0.1246E+02  0.1257E+02  0.3850E+03
   0.780  0.1272E+02  0.1243E+02  0.3853E+03
   0.790  0.1321E+02  0.1261E+02  0.3856E+03
   0.800  0.1280E+02  0.1308E+02  0.3858E+03
   0.810  0.1238E+02  0.1215E+02  0.3861E+03
   0.820  0.1262E+02  0.1199E+02  0.3863E+03
   0.830  0.1285E+02  0.1223E+02  0.3866E+03
   0.840  0.1303E+02  0.1249E+02  0.3868E+03
   0.850  0.1317E+02  0.1272E+02  0.3871E+03
   0.860  0.1329E+02  0.1291E+02  0.3873E+03
   0.870  0.1340E+02  0.1306E+02  0.3876E+03
   0.880  0.1348E+02  0.1319E+02  0.3879E+03
   0.890  0.1354E+02  0.1331E+02  0.3881E+03
   0.900  0.1359E+02  0.1342E+02  0.3884E+03
   0.910  0.1361E+02  0.1351E+02  0.3887E+03
   0.920  0.1408E+02  0.1360E+02  0.3889E+03
   0.930  0.1548E+02  0.1441E+02  0.3892E+03
   0.940  0.1686E+02  0.1583E+02  0.3895E+03
   0.950  0.1846E+02  0.1700E+02  0.3899E+03
   0.960  0.1960E+02  0.1833E+02  0.3902E+03
   0.970  0.2028E+02  0.1927E+02  0.3906E+03
   0.980  0.2224E+02  0.1992E+02  0.3910E+03
   0.990  0.2167E+02  0.2054E+02  0.3915E+03
   1.000  0.2553E+02  0.2006E+02  0.3919E+03
   1.010  0.3062E+02  0.2155E+02  0.3924E+03
   1.020  0.3529E+02  0.2730E+02  0.3930E+03
   1.030  0.3600E+02  0.3227E+02  0.3936E+03
   1.040  0.4255E+02  0.3807E+02  0.3944E+03
   1.050  0.3860E+02  0.4605E+02  0.3952E+03
   1.060  0.4108E+02  0.4236E+02  0.3960E+03
   1.070  0.5907E+02  0.4554E+02  0.3970E+03
   1.080  0.6275E+02  0.6819E+02  0.3983E+03
   1.090  0.6797E+02  0.6103E+02  0.3995E+03
   1.100  0.6354E+02  0.7747E+02  0.4009E+03
   1.110  0.4272E+02  0.4052E+02  0.4021E+03
   1.120  0.4055E+02  0.3342E+02  0.4029E+03
   1.130  0.3373E+02  0.2828E+02  0.4036E+03
   1.140  0.2757E+02  0.2746E+02  0.4041E+03
   1.150  0.2509E+02  0.2908E+02  0.4047E+03
   1.160  0.2297E+02  0.2870E+02  0.4052E+03
   1.170  0.1330E+02  0.2665E+02  0.4057E+03
   1.180  0.1364E+02  0.2351E+02  0.4061E+03
   1.190  0.2081E+02  0.1867E+02  0.4064E+03
   1.200  0.2780E+02  0.2113E+02  0.4069E+03
   1.210  0.3163E+02  0.2494E+02  0.4074E+03
   1.220  0.3243E+02  0.2732E+02  0.4080E+03
   1.230  0.3057E+02  0.2721E+02  0.4086E+03
   1.240  0.3003E+02  0.2607E+02  0.4092E+03
   1.250  0.3105E+02  0.2550E+02  0.4097E+03
   1.260  0.3153E+02  0.2594E+02  0.4103E+03
   1.270  0.3079E+02  0.2726E+02  0.4109E+03
   1.280  0.2914E+02  0.2810E+02  0.4114E+03
   1.290  0.2664E+02  0.2820E+02  0.4120E+03
   1.300  0.2395E+02  0.2730E+02  0.4125E+03
   1.310  0.2220E+02  0.2628E+02  0.4130E+03
   1.320  0.2075E+02  0.2472E+02  0.4135E+03
   1.330  0.1923E+02  0.2262E+02  0.4139E+03
   1.340  0.1774E+02  0.2051E+02  0.4143E+03
   1.350  0.1843E+02  0.1913E+02  0.4147E+03
   1.360  0.2259E+02  0.1766E+02  0.4151E+03
   1.370  0.2308E+02  0.1657E+02  0.4155E+03
   1.380  0.2097E+02  0.1637E+02  0.4159E+03
   1.390  0.1853E+02  0.1676E+02  0.4163E+03
   1.400  0.1751E+02  0.1769E+02  0.4166E+03
   1.410  0.1494E+02  0.1905E+02  0.4170E+03
   1.420  0.1222E+02  0.2078E+02  0.4173E+03
   1.430  0.1204E+02  0.1951E+02  0.4176E+03
   1.440  0.1213E+02  0.1919E+02  0.4179E+03
   1.450  0.1242E+02  0.1785E+02  0.4182E+03
   1.460  0.1290E+02  0.1356E+02  0.4185E+03
   1.470  0.1390E+02  0.1093E+02  0.4188E+03
   1.480  0.1502E+02  0.1150E+02  0.4190E+03
   1.490  0.1587E+02  0.1228E+02  0.4193E+03
   1.500  0.1641E+02  0.1320E+02  0.4196E+03
   1.510  0.1664E+02  0.1402E+02  0.4199E+03
   1.520  0.1656E+02  0.1429E+02  0.4202E+03
   1.530  0.1618E+02  0.1448E+02  0.4205E+03
   1.540  0.1552E+02  0.1455E+02  0.4208E+03
   1.550  0.1460E+02  0.1448E+02  0.4211E+03
   1.560  0.1334E+02  0.1427E+02  0.4214E+03
   1.570  0.1193E+02  0.1392E+02  0.4217E+03
   1.580  0.1148E+02  0.1343E+02  0.4219E+03
   1.590  0.1139E+02  0.1279E+02  0.4222E+03
   1.600  0.1136E+02  0.1202E+02  0.4224E+03
   1.610  0.1126E+02  0.1124E+02  0.4226E+03
   1.620  0.1106E+02  0.1068E+02  0.4228E+03
   1.630  0.1101E+02  0.1022E+02  0.4231E+03
   1.640  0.1114E+02  0.9806E+01  0.4233E+03
   1.650  0.1091E+02  0.9494E+01  0.4235E+03
   1.660  0.1074E+02  0.9588E+01  0.4237E+03
   1.670  0.1108E+02  0.9781E+01  0.4239E+03
   1.680  0.1020E+02  0.1015E+02  0.4241E+03
   1.690  0.9156E+01  0.1161E+02  0.4243E+03
   1.700  0.8478E+01  0.1211E+02  0.4245E+03
   1.710  0.8607E+01  0.1161E+02  0.4247E+03
   1.720  0.8853E+01  0.1045E+02  0.4249E+03
   1.730  0.9023E+01  0.9605E+01  0.4251E+03
   1.740  0.9284E+01  0.9132E+01  0.4253E+03
   1.750  0.1070E+02  0.1020E+02  0.4255E+03
   1.760  0.8428E+01  0.1197E+02  0.4257E+03
   1.770  0.5250E+01  0.1240E+02  0.4259E+03
   1.780  0.5371E+01  0.9360E+01  0.4261E+03
   1.790  0.5636E+01  0.1190E+02  0.4262E+03
   1.800  0.6034E+01  0.6644E+01  0.4264E+03
   1.810  0.6420E+01  0.6271E+01  0.4265E+03
   1.820  0.6877E+01  0.6111E+01  0.4266E+03
   1.830  0.7423E+01  0.6196E+01  0.4267E+03
   1.840  0.8182E+01  0.6491E+01  0.4269E+03
   1.850  0.8918E+01  0.6858E+01  0.4270E+03
   1.860  0.9575E+01  0.7209E+01  0.4272E+03
   1.870  0.1015E+02  0.7527E+01  0.4274E+03
   1.880  0.1065E+02  0.7810E+01  0.4276E+03
   1.890  0.1116E+02  0.8057E+01  0.4277E+03
   1.900  0.1188E+02  0.8269E+01  0.4279E+03
   1.910  0.1238E+02  0.8445E+01  0.4281E+03
   1.920  0.1261E+02  0.8585E+01  0.4284E+03
   1.930  0.1257E+02  0.8690E+01  0.4286E+03
   1.940  0.1227E+02  0.8759E+01  0.4288E+03
   1.950  0.1178E+02  0.8793E+01  0.4290E+03
   1.960  0.1123E+02  0.8785E+01  0.4292E+03
   1.970  0.1067E+02  0.8871E+01  0.4294E+03
   1.980  0.1023E+02  0.9230E+01  0.4296E+03
   1.990  0.9851E+01  0.9398E+01  0.4298E+03
   2.000  0.9513E+01  0.9388E+01  0.4300E+03
   2.010  0.9173E+01  0.9316E+01  0.4302E+03
   2.020  0.8920E+01  0.9076E+01  0.4303E+03
   2.030  0.8750E+01  0.8666E+01  0.4305E+03
   2.040  0.8625E+01  0.8193E+01  0.4307E+03
   2.050  0.8502E+01  0.7824E+01  0.4309E+03
   2.060  0.8506E+01  0.7528E+01  0.4310E+03
   2.070  0.8615E+01  0.7321E+01  0.4312E+03
   2.080  0.8779E+01  0.7154E+01  0.4313E+03
   2.090  0.8832E+01  0.7058E+01  0.4315E+03
   2.100  0.8686E+01  0.7092E+01  0.4317E+03
   2.110  0.8339E+01  0.7208E+01  0.4318E+03
   2.120  0.7795E+01  0.7331E+01  0.4320E+03
   2.130  0.7091E+01  0.7442E+01  0.4321E+03
   2.140  0.6314E+01  0.7556E+01  0.4323E+03
   2.150  0.5831E+01  0.7673E+01  0.4324E+03
   2.160  0.5954E+01  0.7794E+01  0.4325E+03
   2.170  0.5957E+01  0.7907E+01  0.4327E+03
   2.180  0.5567E+01  0.8017E+01  0.4328E+03
   2.190  0.5534E+01  0.8142E+01  0.4329E+03
   2.200  0.7059E+01  0.8209E+01  0.4331E+03
   2.210  0.7452E+01  0.8192E+01  0.4332E+03
   2.220  0.7118E+01  0.8087E+01  0.4334E+03
   2.230  0.7428E+01  0.7799E+01  0.4335E+03
   2.240  0.7898E+01  0.6946E+01  0.4337E+03
   2.250  0.8387E+01  0.6404E+01  0.4338E+03
   2.260  0.8719E+01  0.6343E+01  0.4340E+03
   2.270  0.8967E+01  0.6372E+01  0.4341E+03
   2.280  0.9078E+01  0.6247E+01  0.4343E+03
   2.290  0.9016E+01  0.6149E+01  0.4344E+03
   2.300  0.8772E+01  0.6129E+01  0.4346E+03
   2.310  0.8341E+01  0.6163E+01  0.4347E+03
   2.320  0.7805E+01  0.6168E+01  0.4349E+03
   2.330  0.7500E+01  0.6137E+01  0.4350E+03
   2.340  0.7456E+01  0.6077E+01  0.4352E+03
   2.350  0.7513E+01  0.5987E+01  0.4353E+03
   2.360  0.7523E+01  0.5914E+01  0.4354E+03
   2.370  0.7514E+01  0.5863E+01  0.4356E+03
   2.380  0.7444E+01  0.5825E+01  0.4357E+03
   2.390  0.7309E+01  0.5820E+01  0.4358E+03
   2.400  0.7118E+01  0.5881E+01  0.4360E+03
   2.410  0.6874E+01  0.5987E+01  0.4361E+03
   2.420  0.6578E+01  0.6077E+01  0.4362E+03
   2.430  0.6242E+01  0.6152E+01  0.4363E+03
   2.440  0.6553E+01  0.6213E+01  0.4365E+03
   2.450  0.6778E+01  0.6259E+01  0.4366E+03
   2.460  0.7072E+01  0.6290E+01  0.4367E+03
   2.470  0.7113E+01  0.6303E+01  0.4369E+03
   2.480  0.8624E+01  0.6303E+01  0.4370E+03
   2.490  0.6927E+01  0.7070E+01  0.4371E+03
   2.500  0.5848E+01  0.7545E+01  0.4373E+03
   2.510  0.6274E+01  0.7878E+01  0.4374E+03
   2.520  0.8189E+01  0.8242E+01  0.4376E+03
   2.530  0.1034E+02  0.8712E+01  0.4377E+03
   2.540  0.1239E+02  0.9154E+01  0.4379E+03
   2.550  0.1523E+02  0.9621E+01  0.4382E+03
   2.560  0.1795E+02  0.1014E+02  0.4384E+03
   2.570  0.1957E+02  0.1065E+02  0.4387E+03
   2.580  0.2006E+02  0.1111E+02  0.4390E+03
   2.590  0.1919E+02  0.1153E+02  0.4394E+03
   2.600  0.1775E+02  0.1184E+02  0.4397E+03
   2.610  0.1768E+02  0.1219E+02  0.4400E+03
   2.620  0.2105E+02  0.1252E+02  0.4403E+03
   2.630  0.2209E+02  0.1282E+02  0.4406E+03
   2.640  0.2532E+02  0.1309E+02  0.4410E+03
   2.650  0.2405E+02  0.1346E+02  0.4414E+03
   2.660  0.2361E+02  0.1393E+02  0.4417E+03
   2.670  0.2440E+02  0.1474E+02  0.4421E+03
   2.680  0.2463E+02  0.1559E+02  0.4425E+03
   2.690  0.2362E+02  0.1650E+02  0.4429E+03
   2.700  0.2194E+02  0.1797E+02  0.4433E+03
   2.710  0.2090E+02  0.1964E+02  0.4437E+03
   2.720  0.2121E+02  0.2164E+02  0.4441E+03
   2.730  0.2234E+02  0.2558E+02  0.4446E+03
   2.740  0.2585E+02  0.2928E+02  0.4451E+03
   2.750  0.3032E+02  0.3138E+02  0.4457E+03
   2.760  0.3529E+02  0.3198E+02  0.4463E+03
   2.770  0.2890E+02  0.3595E+02  0.4470E+03
   2.780  0.2677E+02  0.4636E+02  0.4477E+03
   2.790  0.2363E+02  0.4355E+02  0.4484E+03
   2.800  0.2235E+02  0.2727E+02  0.4490E+03
   2.810  0.2460E+02  0.1842E+02  0.4495E+03
   2.820  0.2736E+02  0.1618E+02  0.4499E+03
   2.830  0.2668E+02  0.1544E+02  0.4503E+03
   2.840  0.2419E+02  0.1519E+02  0.4507E+03
   2.850  0.2043E+02  0.1573E+02  0.4511E+03
   2.860  0.1761E+02  0.2086E+02  0.4515E+03
   2.870  0.1749E+02  0.2621E+02  0.4519E+03
   2.880  0.2361E+02  0.3045E+02  0.4524E+03
   2.890  0.2979E+02  0.3283E+02  0.4530E+03
   2.900  0.1743E+02  0.2191E+02  0.4535E+03
   2.910  0.2358E+02  0.1548E+02  0.4539E+03
   2.920  0.2833E+02  0.1387E+02  0.4543E+03
   2.930  0.2765E+02  0.1425E+02  0.4547E+03
   2.940  0.2376E+02  0.1498E+02  0.4551E+03
   2.950  0.2236E+02  0.1574E+02  0.4555E+03
   2.960  0.2270E+02  0.1641E+02  0.4559E+03
   2.970  0.1746E+02  0.1627E+02  0.4563E+03
   2.980  0.1571E+02  0.1716E+02  0.4566E+03
   2.990  0.1728E+02  0.1767E+02  0.4569E+03
   3.000  0.1797E+02  0.1938E+02  0.4573E+03
   3.010  0.1736E+02  0.2138E+02  0.4577E+03
   3.020  0.1693E+02  0.2341E+02  0.4581E+03
   3.030  0.1588E+02  0.2479E+02  0.4585E+03
   3.040  0.1548E+02  0.2563E+02  0.4589E+03
   3.050  0.1562E+02  0.2605E+02  0.4593E+03
   3.060  0.1578E+02  0.2612E+02  0.4597E+03
   3.070  0.1595E+02  0.2642E+02  0.4601E+03
   3.080  0.1611E+02  0.2700E+02  0.4606E+03
   3.090  0.1678E+02  0.2748E+02  0.4610E+03
   3.100  0.1853E+02  0.2800E+02  0.4614E+03
   3.110  0.2033E+02  0.2855E+02  0.4619E+03
   3.120  0.2231E+02  0.2841E+02  0.4624E+03
   3.130  0.2380E+02  0.2805E+02  0.4629E+03
   3.140  0.2227E+02  0.2864E+02  0.4635E+03
   3.150  0.2398E+02  0.3127E+02  0.4640E+03
   3.160  0.2486E+02  0.2945E+02  0.4645E+03
   3.170  0.2488E+02  0.2340E+02  0.4650E+03
   3.180  0.2641E+02  0.1638E+02  0.4655E+03
   3.190  0.2808E+02  0.1435E+02  0.4659E+03
   3.200  0.2945E+02  0.1447E+02  0.4664E+03
   3.210  0.2981E+02  0.1465E+02  0.4668E+03
   3.220  0.3210E+02  0.1478E+02  0.4673E+03
   3.230  0.3312E+02  0.1485E+02  0.4677E+03
   3.240  0.3209E+02  0.1488E+02  0.4682E+03
   3.250  0.2993E+02  0.1497E+02  0.4687E+03
   3.260  0.2843E+02  0.1536E+02  0.4691E+03
   3.270  0.2661E+02  0.1705E+02  0.4695E+03
   3.280  0.2488E+02  0.1786E+02  0.4700E+03
   3.290  0.2598E+02  0.1949E+02  0.4704E+03
   3.300  0.2867E+02  0.2227E+02  0.4709E+03
   3.310  0.3057E+02  0.2717E+02  0.4714E+03
   3.320  0.2960E+02  0.2960E+02  0.4720E+03
   3.330  0.2566E+02  0.3004E+02  0.4726E+03
   3.340  0.2107E+02  0.3172E+02  0.4732E+03
   3.350  0.2118E+02  0.3282E+02  0.4737E+03
   3.360  0.2287E+02  0.3405E+02  0.4742E+03
   3.370  0.2465E+02  0.3432E+02  0.4748E+03
   3.380  0.2652E+02  0.3227E+02  0.4754E+03
   3.390  0.2817E+02  0.3107E+02  0.4760E+03
   3.400  0.2951E+02  0.2991E+02  0.4766E+03
   3.410  0.3086E+02  0.2956E+02  0.4772E+03
   3.420  0.3075E+02  0.2929E+02  0.4778E+03
   3.430  0.3029E+02  0.3121E+02  0.4784E+03
   3.440  0.2987E+02  0.3152E+02  0.4790E+03
   3.450  0.2896E+02  0.3065E+02  0.4796E+03
   3.460  0.2852E+02  0.3164E+02  0.4802E+03
   3.470  0.2838E+02  0.3282E+02  0.4808E+03
   3.480  0.2839E+02  0.3378E+02  0.4814E+03
   3.490  0.2862E+02  0.3443E+02  0.4821E+03
   3.500  0.2872E+02  0.3372E+02  0.4827E+03
   3.510  0.2883E+02  0.3349E+02  0.4833E+03
   3.520  0.2788E+02  0.3346E+02  0.4839E+03
   3.530  0.2742E+02  0.3336E+02  0.4846E+03
   3.540  0.2783E+02  0.3331E+02  0.4852E+03
   3.550  0.2896E+02  0.3337E+02  0.4858E+03
   3.560  0.2980E+02  0.3302E+02  0.4864E+03
   3.570  0.3066E+02  0.3206E+02  0.4870E+03
   3.580  0.3133E+02  0.3241E+02  0.4877E+03
   3.590  0.3272E+02  0.3187E+02  0.4883E+03
   3.600  0.3439E+02  0.3178E+02  0.4890E+03
   3.610  0.3462E+02  0.3052E+02  0.4896E+03
   3.620  0.3328E+02  0.2941E+02  0.4903E+03
   3.630  0.3224E+02  0.3057E+02  0.4909E+03
   3.640  0.3164E+02  0.2964E+02  0.4915E+03
   3.650  0.3152E+02  0.2849E+02  0.4921E+03
   3.660  0.3178E+02  0.2942E+02  0.4927E+03
   3.670  0.3234E+02  0.2988E+02  0.4933E+03
   3.680  0.3280E+02  0.3055E+02  0.4940E+03
   3.690  0.3052E+02  0.3145E+02  0.4946E+03
   3.700  0.3028E+02  0.2858E+02  0.4952E+03
   3.710  0.2825E+02  0.3238E+02  0.4958E+03
   3.720  0.2568E+02  0.2923E+02  0.4964E+03
   3.730  0.2716E+02  0.2871E+02  0.4969E+03
   3.740  0.2995E+02  0.2639E+02  0.4975E+03
   3.750  0.2958E+02  0.2590E+02  0.4980E+03
   3.760  0.2605E+02  0.2437E+02  0.4986E+03
   3.770  0.2458E+02  0.2484E+02  0.4991E+03
   3.780  0.2590E+02  0.2262E+02  0.4996E+03
   3.790  0.2610E+02  0.2216E+02  0.5000E+03
   3.800  0.2523E+02  0.2441E+02  0.5005E+03
   3.810  0.2453E+02  0.2585E+02  0.5010E+03
   3.820  0.2377E+02  0.2800E+02  0.5015E+03
   3.830  0.2370E+02  0.3280E+02  0.5021E+03
   3.840  0.2372E+02  0.3957E+02  0.5027E+03
   3.850  0.2796E+02  0.4532E+02  0.5034E+03
   3.860  0.4258E+02  0.4896E+02  0.5042E+03
   3.870  0.4537E+02  0.4443E+02  0.5051E+03
   3.880  0.4707E+02  0.3758E+02  0.5060E+03
   3.890  0.4757E+02  0.3357E+02  0.5068E+03
   3.900  0.4208E+02  0.3253E+02  0.5076E+03
   3.910  0.3364E+02  0.3172E+02  0.5083E+03
   3.920  0.2782E+02  0.3136E+02  0.5089E+03
   3.930  0.2533E+02  0.3261E+02  0.5095E+03
   3.940  0.2655E+02  0.3562E+02  0.5101E+03
   3.950  0.2925E+02  0.3622E+02  0.5108E+03
   3.960  0.3041E+02  0.2795E+02  0.5114E+03
   3.970  0.2964E+02  0.2628E+02  0.5120E+03
   3.980  0.2922E+02  0.2462E+02  0.5125E+03
   3.990  0.3047E+02  0.2305E+02  0.5130E+03
   4.000  0.3256E+02  0.2303E+02  0.5136E+03
   4.010  0.2981E+02  0.2311E+02  0.5141E+03
   4.020  0.3123E+02  0.2305E+02  0.5146E+03
   4.030  0.3117E+02  0.2350E+02  0.5152E+03
   4.040  0.3360E+02  0.2437E+02  0.5158E+03
   4.050  0.2796E+02  0.2338E+02  0.5163E+03
   4.060  0.2436E+02  0.2398E+02  0.5168E+03
   4.070  0.2382E+02  0.2504E+02  0.5173E+03
   4.080  0.2469E+02  0.2520E+02  0.5178E+03
   4.090  0.2356E+02  0.2609E+02  0.5183E+03
   4.100  0.2480E+02  0.2712E+02  0.5188E+03
   4.110  0.2753E+02  0.2997E+02  0.5193E+03
   4.120  0.2980E+02  0.3102E+02  0.5199E+03
   4.130  0.2990E+02  0.3219E+02  0.5205E+03
   4.140  0.3172E+02  0.3216E+02  0.5212E+03
   4.150  0.3460E+02  0.3277E+02  0.5218E+03
   4.160  0.3378E+02  0.3333E+02  0.5225E+03
   4.170  0.3207E+02  0.3365E+02  0.5232E+03
   4.180  0.3071E+02  0.3351E+02  0.5238E+03
   4.190  0.3003E+02  0.3452E+02  0.5245E+03
   4.200  0.2877E+02  0.3356E+02  0.5251E+03
   4.210  0.2783E+02  0.3196E+02  0.5257E+03
   4.220  0.2682E+02  0.3084E+02  0.5263E+03
   4.230  0.2669E+02  0.2963E+02  0.5269E+03
   4.240  0.2791E+02  0.2879E+02  0.5274E+03
   4.250  0.2826E+02  0.2859E+02  0.5280E+03
   4.260  0.2989E+02  0.2866E+02  0.5286E+03
   4.270  0.3208E+02  0.2894E+02  0.5292E+03
   4.280  0.3140E+02  0.2895E+02  0.5298E+03
   4.290  0.3128E+02  0.2933E+02  0.5304E+03
   4.300  0.3157E+02  0.3141E+02  0.5310E+03
   4.310  0.3346E+02  0.3360E+02  0.5316E+03
   4.320  0.2991E+02  0.3611E+02  0.5323E+03
   4.330  0.2733E+02  0.3678E+02  0.5330E+03
   4.340  0.2563E+02  0.3693E+02  0.5336E+03
   4.350  0.2492E+02  0.3727E+02  0.5342E+03
   4.360  0.2716E+02  0.3630E+02  0.5349E+03
   4.370  0.2911E+02  0.3500E+02  0.5355E+03
   4.380  0.3447E+02  0.3329E+02  0.5362E+03
   4.390  0.3739E+02  0.3064E+02  0.5368E+03
   4.400  0.3811E+02  0.2783E+02  0.5375E+03
   4.410  0.3112E+02  0.2576E+02  0.5381E+03
   4.420  0.2861E+02  0.2497E+02  0.5387E+03
   4.430  0.2554E+02  0.2522E+02  0.5392E+03
   4.440  0.2230E+02  0.2498E+02  0.5397E+03
   4.450  0.2198E+02  0.2485E+02  0.5401E+03
   4.460  0.2681E+02  0.2509E+02  0.5406E+03
   4.470  0.3608E+02  0.2631E+02  0.5412E+03
   4.480  0.4227E+02  0.2697E+02  0.5419E+03
   4.490  0.3371E+02  0.2668E+02  0.5425E+03
   4.500  0.2626E+02  0.2561E+02  0.5431E+03
   4.510  0.3126E+02  0.2406E+02  0.5436E+03
   4.520  0.4211E+02  0.2332E+02  0.5442E+03
   4.530  0.3646E+02  0.2330E+02  0.5448E+03
   4.540  0.3256E+02  0.2260E+02  0.5454E+03
   4.550  0.2354E+02  0.2233E+02  0.5459E+03
   4.560  0.2091E+02  0.2407E+02  0.5464E+03
   4.570  0.1979E+02  0.2617E+02  0.5468E+03
   4.580  0.1918E+02  0.2667E+02  0.5473E+03
   4.590  0.1944E+02  0.2746E+02  0.5478E+03
   4.600  0.1978E+02  0.2853E+02  0.5482E+03
   4.610  0.2055E+02  0.2868E+02  0.5487E+03
   4.620  0.2124E+02  0.2776E+02  0.5492E+03
   4.630  0.2189E+02  0.2979E+02  0.5497E+03
   4.640  0.2263E+02  0.2781E+02  0.5502E+03
   4.650  0.2361E+02  0.2781E+02  0.5508E+03
   4.660  0.2752E+02  0.2857E+02  0.5513E+03
   4.670  0.2955E+02  0.2849E+02  0.5519E+03
   4.680  0.3573E+02  0.2986E+02  0.5525E+03
   4.690  0.3439E+02  0.3237E+02  0.5531E+03
   4.700  0.3270E+02  0.3579E+02  0.5538E+03
   4.710  0.3062E+02  0.3793E+02  0.5545E+03
   4.720  0.2910E+02  0.3667E+02  0.5552E+03
   4.730  0.2483E+02  0.3069E+02  0.5558E+03
   4.740  0.2090E+02  0.3025E+02  0.5564E+03
   4.750  0.2486E+02  0.3367E+02  0.5569E+03
   4.760  0.2973E+02  0.3185E+02  0.5575E+03
   4.770  0.3661E+02  0.3378E+02  0.5582E+03
   4.780  0.3045E+02  0.3872E+02  0.5589E+03
   4.790  0.2464E+02  0.2816E+02  0.5595E+03
   4.800  0.2308E+02  0.2304E+02  0.5600E+03
   4.810  0.2129E+02  0.2084E+02  0.5604E+03
   4.820  0.1905E+02  0.1929E+02  0.5608E+03
   4.830  0.1784E+02  0.1805E+02  0.5612E+03
   4.840  0.1702E+02  0.1762E+02  0.5616E+03
   4.850  0.1659E+02  0.1685E+02  0.5619E+03
   4.860  0.1650E+02  0.1625E+02  0.5622E+03
   4.870  0.1661E+02  0.1580E+02  0.5626E+03
   4.880  0.1693E+02  0.1545E+02  0.5629E+03
   4.890  0.1945E+02  0.1515E+02  0.5632E+03
   4.900  0.2336E+02  0.1486E+02  0.5636E+03
   4.910  0.1957E+02  0.1457E+02  0.5639E+03
   4.920  0.1952E+02  0.1426E+02  0.5643E+03
   4.930  0.1947E+02  0.1400E+02  0.5646E+03
   4.940  0.2009E+02  0.1378E+02  0.5650E+03
   4.950  0.1932E+02  0.1416E+02  0.5653E+03
   4.960  0.2246E+02  0.1482E+02  0.5656E+03
   4.970  0.2733E+02  0.1503E+02  0.5661E+03
   4.980  0.2539E+02  0.1555E+02  0.5665E+03
   4.990  0.2353E+02  0.1576E+02  0.5669E+03
   5.000  0.2093E+02  0.1519E+02  0.5673E+03
   5.010  0.1718E+02  0.1420E+02  0.5676E+03
   5.020  0.1376E+02  0.1395E+02  0.5679E+03
   5.030  0.1376E+02  0.1342E+02  0.5682E+03
   5.040  0.1707E+02  0.1335E+02  0.5685E+03
   5.050  0.1878E+02  0.1410E+02  0.5688E+03
   5.060  0.1827E+02  0.1527E+02  0.5691E+03
   5.070  0.1592E+02  0.1837E+02  0.5694E+03
   5.080  0.1437E+02  0.1859E+02  0.5698E+03
   5.090  0.1525E+02  0.1540E+02  0.5701E+03
   5.100  0.1263E+02  0.1264E+02  0.5704E+03
   5.110  0.1005E+02  0.1113E+02  0.5706E+03
   5.120  0.9850E+01  0.1022E+02  0.5708E+03
   5.130  0.9070E+01  0.9700E+01  0.5710E+03
   5.140  0.8418E+01  0.9158E+01  0.5712E+03
   5.150  0.7809E+01  0.8587E+01  0.5714E+03
   5.160  0.7554E+01  0.7992E+01  0.5715E+03
   5.170  0.7624E+01  0.7358E+01  0.5717E+03
   5.180  0.8209E+01  0.6776E+01  0.5718E+03
   5.190  0.1106E+02  0.6644E+01  0.5720E+03
   5.200  0.1217E+02  0.6666E+01  0.5722E+03
   5.210  0.1293E+02  0.6586E+01  0.5724E+03
   5.220  0.1446E+02  0.6898E+01  0.5726E+03
   5.230  0.1622E+02  0.7555E+01  0.5728E+03
   5.240  0.1745E+02  0.8853E+01  0.5730E+03
   5.250  0.1821E+02  0.1146E+02  0.5733E+03
   5.260  0.1728E+02  0.1286E+02  0.5736E+03
   5.270  0.1473E+02  0.1273E+02  0.5739E+03
   5.280  0.1187E+02  0.1246E+02  0.5742E+03
   5.290  0.7486E+01  0.1262E+02  0.5744E+03
   5.300  0.6322E+01  0.1259E+02  0.5746E+03
   5.310  0.5337E+01  0.1256E+02  0.5748E+03
   5.320  0.4356E+01  0.1156E+02  0.5749E+03
   5.330  0.3523E+01  0.1055E+02  0.5751E+03
   5.340  0.2833E+01  0.9626E+01  0.5752E+03
   5.350  0.2176E+01  0.8649E+01  0.5753E+03
   5.360  0.1569E+01  0.7671E+01  0.5754E+03
   5.370  0.1069E+01  0.6756E+01  0.5755E+03
   5.380  0.8308E+00  0.5921E+01  0.5756E+03
   5.390  0.9006E+00  0.5244E+01  0.5757E+03
   5.400  0.1204E+01  0.4487E+01  0.5757E+03
   5.410  0.2154E+01  0.3924E+01  0.5758E+03
   5.420  0.4185E+01  0.3722E+01  0.5758E+03
   5.430  0.5898E+01  0.3886E+01  0.5759E+03
   5.440  0.6862E+01  0.3868E+01  0.5760E+03
   5.450  0.7632E+01  0.3619E+01  0.5762E+03
   5.460  0.8287E+01  0.3158E+01  0.5763E+03
   5.470  0.8831E+01  0.2481E+01  0.5764E+03
   5.480  0.9205E+01  0.1576E+01  0.5765E+03
   5.490  0.8355E+01  0.6227E+00  0.5766E+03
   5.500  0.7274E+01  0.2871E+00  0.5767E+03
   5.510  0.6044E+01  0.1207E+00  0.5767E+03
   5.520  0.4683E+01  0.2719E-01  0.5768E+03
   5.530  0.4537E+01  0.1784E-02  0.5768E+03
   5.540  0.4258E+01  0.5248E-03  0.5769E+03
   5.550  0.4563E+01  0.5713E-04  0.5769E+03
   5.560  0.5988E+01  0.0000E+00  0.5770E+03
   5.570  0.7979E+01  0.0000E+00  0.5770E+03
   5.580  0.1019E+02  0.0000E+00  0.5771E+03
   5.590  0.1247E+02  0.0000E+00  0.5773E+03
   5.600  0.1534E+02  0.0000E+00  0.5774E+03
   5.610  0.1833E+02  0.0000E+00  0.5776E+03
   5.620  0.2204E+02  0.0000E+00  0.5778E+03
   5.630  0.2335E+02  0.0000E+00  0.5780E+03
   5.640  0.2160E+02  0.0000E+00  0.5782E+03
   5.650  0.1558E+02  0.0000E+00  0.5784E+03
   5.660  0.1174E+02  0.0000E+00  0.5785E+03
   5.670  0.8251E+01  0.0000E+00  0.5786E+03
   5.680  0.6525E+01  0.0000E+00  0.5787E+03
   5.690  0.6133E+01  0.0000E+00  0.5788E+03
   5.700  0.5808E+01  0.0000E+00  0.5788E+03
   5.710  0.5119E+01  0.0000E+00  0.5789E+03
   5.720  0.4109E+01  0.0000E+00  0.5789E+03
   5.730  0.2777E+01  0.0000E+00  0.5790E+03
   5.740  0.1084E+01  0.0000E+00  0.5790E+03
   5.750  0.4408E+00  0.0000E+00  0.5790E+03
   5.760  0.1674E+00  0.0000E+00  0.5790E+03
   5.770  0.2628E-01  0.0000E+00  0.5790E+03
   5.780  0.3509E-02  0.0000E+00  0.5790E+03
   5.790  0.1286E-02  0.0000E+00  0.5790E+03
   5.800  0.1959E-03  0.0000E+00  0.5790E+03
   5.810  0.0000E+00  0.0000E+00  0.5790E+03
   5.820  0.0000E+00  0.0000E+00  0.5790E+03
   5.830  0.0000E+00  0.0000E+00  0.5790E+03
   5.840  0.0000E+00  0.0000E+00  0.5790E+03
   5.850  0.0000E+00  0.0000E+00  0.5790E+03
   5.860  0.0000E+00  0.0000E+00  0.5790E+03
   5.870  0.0000E+00  0.0000E+00  0.5790E+03
   5.880  0.0000E+00  0.0000E+00  0.5790E+03
   5.890  0.0000E+00  0.0000E+00  0.5790E+03
   5.900  0.0000E+00  0.0000E+00  0.5790E+03
   5.910  0.0000E+00  0.0000E+00  0.5790E+03
   5.920  0.0000E+00  0.0000E+00  0.5790E+03
   5.930  0.0000E+00  0.0000E+00  0.5790E+03
   5.940  0.0000E+00  0.0000E+00  0.5790E+03
   5.950  0.0000E+00  0.0000E+00  0.5790E+03
   5.960  0.0000E+00  0.0000E+00  0.5790E+03
   5.970  0.0000E+00  0.0000E+00  0.5790E+03
   5.980  0.0000E+00  0.0000E+00  0.5790E+03
   5.990  0.0000E+00  0.0000E+00  0.5790E+03
   6.000  0.0000E+00  0.0000E+00  0.5790E+03
   6.010  0.0000E+00  0.0000E+00  0.5790E+03
   6.020  0.0000E+00  0.0000E+00  0.5790E+03
   6.030  0.0000E+00  0.0000E+00  0.5790E+03
   6.040  0.0000E+00  0.0000E+00  0.5790E+03
   6.050  0.0000E+00  0.0000E+00  0.5790E+03
   6.060  0.0000E+00  0.0000E+00  0.5790E+03
   6.070  0.0000E+00  0.0000E+00  0.5790E+03
   6.080  0.0000E+00  0.0000E+00  0.5790E+03
   6.090  0.0000E+00  0.0000E+00  0.5790E+03
   6.100  0.0000E+00  0.0000E+00  0.5790E+03
   6.110  0.0000E+00  0.0000E+00  0.5790E+03
   6.120  0.0000E+00  0.0000E+00  0.5790E+03
   6.130  0.0000E+00  0.0000E+00  0.5790E+03
   6.140  0.0000E+00  0.0000E+00  0.5790E+03
   6.150  0.0000E+00  0.0000E+00  0.5790E+03
   6.160  0.0000E+00  0.0000E+00  0.5790E+03
   6.170  0.0000E+00  0.0000E+00  0.5790E+03
   6.180  0.0000E+00  0.0000E+00  0.5790E+03
   6.190  0.0000E+00  0.0000E+00  0.5790E+03
   6.200  0.0000E+00  0.0000E+00  0.5790E+03
   6.210  0.0000E+00  0.0000E+00  0.5790E+03
   6.220  0.0000E+00  0.0000E+00  0.5790E+03
   6.230  0.0000E+00  0.0000E+00  0.5790E+03
   6.240  0.0000E+00  0.0000E+00  0.5790E+03
   6.250  0.0000E+00  0.0000E+00  0.5790E+03
   6.260  0.0000E+00  0.0000E+00  0.5790E+03
   6.270  0.0000E+00  0.0000E+00  0.5790E+03
   6.280  0.0000E+00  0.0000E+00  0.5790E+03
   6.290  0.0000E+00  0.0000E+00  0.5790E+03
   6.300  0.0000E+00  0.0000E+00  0.5790E+03
   6.310  0.0000E+00  0.0000E+00  0.5790E+03
   6.320  0.0000E+00  0.0000E+00  0.5790E+03
   6.330  0.0000E+00  0.0000E+00  0.5790E+03
   6.340  0.0000E+00  0.0000E+00  0.5790E+03
   6.350  0.0000E+00  0.0000E+00  0.5790E+03
   6.360  0.0000E+00  0.0000E+00  0.5790E+03
   6.370  0.0000E+00  0.0000E+00  0.5790E+03
   6.380  0.0000E+00  0.0000E+00  0.5790E+03
   6.390  0.0000E+00  0.0000E+00  0.5790E+03
   6.400  0.0000E+00  0.0000E+00  0.5790E+03
   6.410  0.0000E+00  0.0000E+00  0.5790E+03
   6.420  0.0000E+00  0.0000E+00  0.5790E+03
   6.430  0.0000E+00  0.0000E+00  0.5790E+03
   6.440  0.0000E+00  0.0000E+00  0.5790E+03
   6.450  0.0000E+00  0.0000E+00  0.5790E+03
   6.460  0.0000E+00  0.0000E+00  0.5790E+03
   6.470  0.0000E+00  0.0000E+00  0.5790E+03
   6.480  0.0000E+00  0.0000E+00  0.5790E+03
   6.490  0.0000E+00  0.0000E+00  0.5790E+03
   6.500  0.0000E+00  0.0000E+00  0.5790E+03
   6.510  0.0000E+00  0.0000E+00  0.5790E+03
   6.520  0.0000E+00  0.0000E+00  0.5790E+03
   6.530  0.0000E+00  0.0000E+00  0.5790E+03
   6.540  0.0000E+00  0.0000E+00  0.5790E+03
   6.550  0.0000E+00  0.0000E+00  0.5790E+03
   6.560  0.0000E+00  0.0000E+00  0.5790E+03
   6.570  0.0000E+00  0.0000E+00  0.5790E+03
   6.580  0.0000E+00  0.0000E+00  0.5790E+03
   6.590  0.0000E+00  0.0000E+00  0.5790E+03
   6.600  0.0000E+00  0.0000E+00  0.5790E+03
   6.610  0.0000E+00  0.0000E+00  0.5790E+03
   6.620  0.0000E+00  0.0000E+00  0.5790E+03
   6.630  0.0000E+00  0.0000E+00  0.5790E+03
   6.640  0.0000E+00  0.0000E+00  0.5790E+03
   6.650  0.0000E+00  0.0000E+00  0.5790E+03
   6.660  0.0000E+00  0.0000E+00  0.5790E+03
   6.670  0.0000E+00  0.0000E+00  0.5790E+03
   6.680  0.0000E+00  0.0000E+00  0.5790E+03
   6.690  0.0000E+00  0.0000E+00  0.5790E+03
   6.700  0.0000E+00  0.0000E+00  0.5790E+03
   6.710  0.0000E+00  0.0000E+00  0.5790E+03
   6.720  0.0000E+00  0.0000E+00  0.5790E+03
   6.730  0.0000E+00  0.0000E+00  0.5790E+03
   6.740  0.0000E+00  0.0000E+00  0.5790E+03
   6.750  0.0000E+00  0.0000E+00  0.5790E+03
   6.760  0.0000E+00  0.4761E+02  0.5792E+03
   6.770  0.0000E+00  0.8709E+02  0.5801E+03
   6.780  0.0000E+00  0.4077E+02  0.5808E+03
   6.790  0.0000E+00  0.2708E+01  0.5810E+03
   6.800  0.0000E+00  0.0000E+00  0.5810E+03
   6.810  0.0000E+00  0.0000E+00  0.5810E+03
   6.820  0.0000E+00  0.0000E+00  0.5810E+03
   6.830  0.0000E+00  0.0000E+00  0.5810E+03
   6.840  0.0000E+00  0.0000E+00  0.5810E+03
   6.850  0.0000E+00  0.0000E+00  0.5810E+03
   6.860  0.0000E+00  0.0000E+00  0.5810E+03
   6.870  0.0000E+00  0.0000E+00  0.5810E+03
   6.880  0.0000E+00  0.0000E+00  0.5810E+03
   6.890  0.0000E+00  0.0000E+00  0.5810E+03
   6.900  0.0000E+00  0.0000E+00  0.5810E+03
   6.910  0.0000E+00  0.0000E+00  0.5810E+03
   6.920  0.0000E+00  0.0000E+00  0.5810E+03
   6.930  0.0000E+00  0.0000E+00  0.5810E+03
   6.940  0.0000E+00  0.0000E+00  0.5810E+03
   6.950  0.0000E+00  0.0000E+00  0.5810E+03
   6.960  0.0000E+00  0.0000E+00  0.5810E+03
   6.970  0.0000E+00  0.0000E+00  0.5810E+03
   6.980  0.0000E+00  0.0000E+00  0.5810E+03
   6.990  0.0000E+00  0.0000E+00  0.5810E+03
   7.000  0.0000E+00  0.0000E+00  0.5810E+03
   7.010  0.0000E+00  0.0000E+00  0.5810E+03
   7.020  0.0000E+00  0.0000E+00  0.5810E+03
   7.030  0.0000E+00  0.0000E+00  0.5810E+03
   7.040  0.0000E+00  0.0000E+00  0.5810E+03
   7.050  0.0000E+00  0.0000E+00  0.5810E+03
   7.060  0.0000E+00  0.0000E+00  0.5810E+03
   7.070  0.0000E+00  0.0000E+00  0.5810E+03
   7.080  0.0000E+00  0.0000E+00  0.5810E+03
   7.090  0.0000E+00  0.0000E+00  0.5810E+03
   7.100  0.0000E+00  0.0000E+00  0.5810E+03
   7.110  0.0000E+00  0.0000E+00  0.5810E+03
   7.120  0.0000E+00  0.0000E+00  0.5810E+03
   7.130  0.0000E+00  0.0000E+00  0.5810E+03
   7.140  0.0000E+00  0.0000E+00  0.5810E+03
   7.150  0.0000E+00  0.0000E+00  0.5810E+03
   7.160  0.0000E+00  0.0000E+00  0.5810E+03
   7.170  0.0000E+00  0.0000E+00  0.5810E+03
   7.180  0.0000E+00  0.0000E+00  0.5810E+03
   7.190  0.0000E+00  0.0000E+00  0.5810E+03
   7.200  0.0000E+00  0.0000E+00  0.5810E+03
   7.210  0.0000E+00  0.0000E+00  0.5810E+03
   7.220  0.0000E+00  0.0000E+00  0.5810E+03
   7.230  0.0000E+00  0.0000E+00  0.5810E+03
   7.240  0.0000E+00  0.0000E+00  0.5810E+03
   7.250  0.0000E+00  0.0000E+00  0.5810E+03
   7.260  0.0000E+00  0.0000E+00  0.5810E+03
   7.270  0.0000E+00  0.0000E+00  0.5810E+03
   7.280  0.0000E+00  0.0000E+00  0.5810E+03
   7.290  0.0000E+00  0.0000E+00  0.5810E+03
   7.300  0.0000E+00  0.0000E+00  0.5810E+03
   7.310  0.0000E+00  0.0000E+00  0.5810E+03
   7.320  0.0000E+00  0.0000E+00  0.5810E+03
   7.330  0.0000E+00  0.0000E+00  0.5810E+03
   7.340  0.0000E+00  0.0000E+00  0.5810E+03
   7.350  0.0000E+00  0.0000E+00  0.5810E+03
   7.360  0.0000E+00  0.0000E+00  0.5810E+03
   7.370  0.0000E+00  0.0000E+00  0.5810E+03
   7.380  0.0000E+00  0.0000E+00  0.5810E+03
   7.390  0.0000E+00  0.0000E+00  0.5810E+03
   7.400  0.0000E+00  0.0000E+00  0.5810E+03
   7.410  0.0000E+00  0.0000E+00  0.5810E+03
   7.420  0.0000E+00  0.0000E+00  0.5810E+03
   7.430  0.0000E+00  0.0000E+00  0.5810E+03
   7.440  0.0000E+00  0.0000E+00  0.5810E+03
   7.450  0.0000E+00  0.0000E+00  0.5810E+03
   7.460  0.0000E+00  0.0000E+00  0.5810E+03
   7.470  0.0000E+00  0.0000E+00  0.5810E+03
   7.480  0.1550E-04  0.0000E+00  0.5810E+03
   7.490  0.9232E-04  0.0000E+00  0.5810E+03
   7.500  0.2335E-03  0.0000E+00  0.5810E+03
   7.510  0.4773E-03  0.0000E+00  0.5810E+03
   7.520  0.9596E-03  0.0000E+00  0.5810E+03
   7.530  0.1692E-02  0.0000E+00  0.5810E+03
   7.540  0.2675E-02  0.0000E+00  0.5810E+03
   7.550  0.3909E-02  0.0000E+00  0.5810E+03
   7.560  0.5392E-02  0.0000E+00  0.5810E+03
   7.570  0.7126E-02  0.0000E+00  0.5810E+03
   7.580  0.9111E-02  0.0000E+00  0.5810E+03
   7.590  0.1135E-01  0.0000E+00  0.5810E+03
   7.600  0.1383E-01  0.0000E+00  0.5810E+03
   7.610  0.1657E-01  0.0000E+00  0.5810E+03
   7.620  0.1955E-01  0.1636E-01  0.5810E+03
   7.630  0.2279E-01  0.5105E+00  0.5810E+03
   7.640  0.2627E-01  0.2410E+01  0.5810E+03
   7.650  0.3001E-01  0.9860E+01  0.5811E+03
   7.660  0.3400E-01  0.1728E+02  0.5813E+03
   7.670  0.3824E-01  0.1652E+02  0.5814E+03
   7.680  0.4272E-01  0.1716E+02  0.5816E+03
   7.690  0.4746E-01  0.1262E+02  0.5818E+03
   7.700  0.5245E-01  0.7862E+01  0.5819E+03
   7.710  0.5769E-01  0.3262E+02  0.5821E+03
   7.720  0.6318E-01  0.4033E+02  0.5825E+03
   7.730  0.6892E-01  0.7062E+02  0.5830E+03
   7.740  0.7491E-01  0.5715E+02  0.5838E+03
   7.750  0.8115E-01  0.4053E+01  0.5840E+03
   7.760  0.8764E-01  0.1461E+00  0.5840E+03
   7.770  0.9438E-01  0.3730E-01  0.5840E+03
   7.780  0.1014E+00  0.4347E-01  0.5840E+03
   7.790  0.1086E+00  0.5012E-01  0.5840E+03
   7.800  0.1161E+00  0.5725E-01  0.5840E+03
   7.810  0.1238E+00  0.6486E-01  0.5840E+03
   7.820  0.1318E+00  0.7294E-01  0.5840E+03
   7.830  0.1401E+00  0.8150E-01  0.5840E+03
   7.840  0.1486E+00  0.9054E-01  0.5840E+03
   7.850  0.1573E+00  0.1001E+00  0.5840E+03
   7.860  0.1663E+00  0.1100E+00  0.5840E+03
   7.870  0.1756E+00  0.1205E+00  0.5840E+03
   7.880  0.1847E+00  0.1315E+00  0.5840E+03
   7.890  0.1933E+00  0.1429E+00  0.5840E+03
   7.900  0.2028E+00  0.1548E+00  0.5840E+03
   7.910  0.2136E+00  0.1672E+00  0.5840E+03
   7.920  0.2257E+00  0.1800E+00  0.5840E+03
   7.930  0.2402E+00  0.1933E+00  0.5841E+03
   7.940  0.2541E+00  0.2069E+00  0.5841E+03
   7.950  0.2671E+00  0.2195E+00  0.5841E+03
   7.960  0.2795E+00  0.2321E+00  0.5841E+03
   7.970  0.2913E+00  0.2452E+00  0.5841E+03
   7.980  0.3026E+00  0.2590E+00  0.5841E+03
   7.990  0.3135E+00  0.2747E+00  0.5841E+03
   8.000  0.3241E+00  0.2896E+00  0.5841E+03
   8.010  0.3344E+00  0.3034E+00  0.5841E+03
   8.020  0.3444E+00  0.3165E+00  0.5841E+03
   8.030  0.3542E+00  0.3289E+00  0.5841E+03
   8.040  0.3639E+00  0.3408E+00  0.5841E+03
   8.050  0.3733E+00  0.3522E+00  0.5841E+03
   8.060  0.3826E+00  0.3631E+00  0.5841E+03
   8.070  0.3916E+00  0.3738E+00  0.5841E+03
   8.080  0.4005E+00  0.3842E+00  0.5841E+03
   8.090  0.4091E+00  0.3943E+00  0.5842E+03
   8.100  0.4176E+00  0.4042E+00  0.5842E+03
   8.110  0.4258E+00  0.4138E+00  0.5842E+03
   8.120  0.4339E+00  0.4232E+00  0.5842E+03
   8.130  0.4418E+00  0.4322E+00  0.5842E+03
   8.140  0.4495E+00  0.4411E+00  0.5842E+03
   8.150  0.4569E+00  0.4496E+00  0.5842E+03
   8.160  0.4642E+00  0.4579E+00  0.5842E+03
   8.170  0.4700E+00  0.4660E+00  0.5842E+03
   8.180  0.4733E+00  0.4738E+00  0.5842E+03
   8.190  0.4745E+00  0.4813E+00  0.5842E+03
   8.200  0.4736E+00  0.4885E+00  0.5843E+03
   8.210  0.4744E+00  0.4942E+00  0.5843E+03
   8.220  0.4761E+00  0.4971E+00  0.5843E+03
   8.230  0.4790E+00  0.4976E+00  0.5843E+03
   8.240  0.4823E+00  0.4958E+00  0.5843E+03
   8.250  0.4855E+00  0.4953E+00  0.5843E+03
   8.260  0.4883E+00  0.4960E+00  0.5843E+03
   8.270  0.4913E+00  0.4980E+00  0.5843E+03
   8.280  0.4947E+00  0.5006E+00  0.5843E+03
   8.290  0.4986E+00  0.5031E+00  0.5843E+03
   8.300  0.5030E+00  0.5054E+00  0.5844E+03
   8.310  0.5083E+00  0.5079E+00  0.5844E+03
   8.320  0.5145E+00  0.5109E+00  0.5844E+03
   8.330  0.5216E+00  0.5146E+00  0.5844E+03
   8.340  0.5296E+00  0.5191E+00  0.5844E+03
   8.350  0.5388E+00  0.5246E+00  0.5844E+03
   8.360  0.5497E+00  0.5312E+00  0.5844E+03
   8.370  0.5622E+00  0.5388E+00  0.5844E+03
   8.380  0.5753E+00  0.5476E+00  0.5844E+03
   8.390  0.5888E+00  0.5583E+00  0.5844E+03
   8.400  0.6023E+00  0.5707E+00  0.5845E+03
   8.410  0.6161E+00  0.5842E+00  0.5845E+03
   8.420  0.6301E+00  0.5980E+00  0.5845E+03
   8.430  0.6440E+00  0.6120E+00  0.5845E+03
   8.440  0.6580E+00  0.6263E+00  0.5845E+03
   8.450  0.6721E+00  0.6408E+00  0.5845E+03
   8.460  0.6865E+00  0.6553E+00  0.5845E+03
   8.470  0.7011E+00  0.6698E+00  0.5845E+03
   8.480  0.7160E+00  0.6846E+00  0.5846E+03
   8.490  0.7313E+00  0.6996E+00  0.5846E+03
   8.500  0.7470E+00  0.7148E+00  0.5846E+03
   8.510  0.7630E+00  0.7305E+00  0.5846E+03
   8.520  0.7794E+00  0.7464E+00  0.5846E+03
   8.530  0.7964E+00  0.7628E+00  0.5846E+03
   8.540  0.8139E+00  0.7795E+00  0.5846E+03
   8.550  0.8318E+00  0.7967E+00  0.5847E+03
   8.560  0.8504E+00  0.8145E+00  0.5847E+03
   8.570  0.8694E+00  0.8329E+00  0.5847E+03
   8.580  0.8890E+00  0.8517E+00  0.5847E+03
   8.590  0.9090E+00  0.8712E+00  0.5847E+03
   8.600  0.9296E+00  0.8911E+00  0.5848E+03
   8.610  0.9508E+00  0.9117E+00  0.5848E+03
   8.620  0.9724E+00  0.9327E+00  0.5848E+03
   8.630  0.9946E+00  0.9544E+00  0.5848E+03
   8.640  0.1017E+01  0.9765E+00  0.5848E+03
   8.650  0.1040E+01  0.9992E+00  0.5848E+03
   8.660  0.1064E+01  0.1022E+01  0.5849E+03
   8.670  0.1088E+01  0.1046E+01  0.5849E+03
   8.680  0.1113E+01  0.1071E+01  0.5849E+03
   8.690  0.1139E+01  0.1096E+01  0.5849E+03
   8.700  0.1164E+01  0.1121E+01  0.5850E+03
   8.710  0.1191E+01  0.1147E+01  0.5850E+03
   8.720  0.1218E+01  0.1173E+01  0.5850E+03
   8.730  0.1245E+01  0.1201E+01  0.5850E+03
   8.740  0.1273E+01  0.1228E+01  0.5851E+03
   8.750  0.1301E+01  0.1256E+01  0.5851E+03
   8.760  0.1327E+01  0.1285E+01  0.5851E+03
   8.770  0.1350E+01  0.1314E+01  0.5851E+03
   8.780  0.1389E+01  0.1344E+01  0.5852E+03
   8.790  0.1446E+01  0.1375E+01  0.5852E+03
   8.800  0.1523E+01  0.1421E+01  0.5852E+03
   8.810  0.1620E+01  0.1485E+01  0.5852E+03
   8.820  0.1733E+01  0.1570E+01  0.5853E+03
   8.830  0.1864E+01  0.1677E+01  0.5853E+03
   8.840  0.2014E+01  0.1808E+01  0.5853E+03
   8.850  0.2178E+01  0.1956E+01  0.5854E+03
   8.860  0.2369E+01  0.2118E+01  0.5854E+03
   8.870  0.2694E+01  0.2294E+01  0.5855E+03
   8.880  0.3351E+01  0.2480E+01  0.5855E+03
   8.890  0.5949E+01  0.2734E+01  0.5856E+03
   8.900  0.5916E+01  0.3363E+01  0.5857E+03
   8.910  0.5794E+01  0.6311E+01  0.5858E+03
   8.920  0.5856E+01  0.6170E+01  0.5859E+03
   8.930  0.6276E+01  0.5984E+01  0.5860E+03
   8.940  0.6602E+01  0.6104E+01  0.5862E+03
   8.950  0.6819E+01  0.6643E+01  0.5863E+03
   8.960  0.7034E+01  0.7028E+01  0.5864E+03
   8.970  0.7182E+01  0.7311E+01  0.5866E+03
   8.980  0.7239E+01  0.7472E+01  0.5867E+03
   8.990  0.7281E+01  0.7550E+01  0.5869E+03
   9.000  0.7307E+01  0.7584E+01  0.5870E+03
   9.010  0.7324E+01  0.7597E+01  0.5872E+03
   9.020  0.7414E+01  0.7580E+01  0.5873E+03
   9.030  0.7516E+01  0.7559E+01  0.5875E+03
   9.040  0.7431E+01  0.7596E+01  0.5876E+03
   9.050  0.7249E+01  0.7500E+01  0.5878E+03
   9.060  0.7024E+01  0.7250E+01  0.5879E+03
   9.070  0.6808E+01  0.6930E+01  0.5880E+03
   9.080  0.7524E+01  0.6664E+01  0.5882E+03
   9.090  0.7210E+01  0.6904E+01  0.5883E+03
   9.100  0.5496E+01  0.6607E+01  0.5885E+03
   9.110  0.5492E+01  0.5560E+01  0.5886E+03
   9.120  0.5763E+01  0.4910E+01  0.5887E+03
   9.130  0.6055E+01  0.5205E+01  0.5888E+03
   9.140  0.6336E+01  0.5560E+01  0.5889E+03
   9.150  0.6568E+01  0.5889E+01  0.5890E+03
   9.160  0.6797E+01  0.6107E+01  0.5892E+03
   9.170  0.7020E+01  0.6311E+01  0.5893E+03
   9.180  0.7310E+01  0.6502E+01  0.5894E+03
   9.190  0.7585E+01  0.6745E+01  0.5896E+03
   9.200  0.7870E+01  0.7006E+01  0.5897E+03
   9.210  0.8179E+01  0.7267E+01  0.5899E+03
   9.220  0.8505E+01  0.7550E+01  0.5900E+03
   9.230  0.8833E+01  0.7855E+01  0.5902E+03
   9.240  0.9137E+01  0.8178E+01  0.5904E+03
   9.250  0.9458E+01  0.8509E+01  0.5905E+03
   9.260  0.9807E+01  0.8834E+01  0.5907E+03
   9.270  0.1015E+02  0.9160E+01  0.5909E+03
   9.280  0.1050E+02  0.9489E+01  0.5911E+03
   9.290  0.1086E+02  0.9805E+01  0.5913E+03
   9.300  0.1124E+02  0.1012E+02  0.5915E+03
   9.310  0.1163E+02  0.1048E+02  0.5917E+03
   9.320  0.1205E+02  0.1087E+02  0.5920E+03
   9.330  0.1248E+02  0.1127E+02  0.5922E+03
   9.340  0.1287E+02  0.1166E+02  0.5924E+03
   9.350  0.1327E+02  0.1207E+02  0.5927E+03
   9.360  0.1382E+02  0.1249E+02  0.5929E+03
   9.370  0.1445E+02  0.1292E+02  0.5932E+03
   9.380  0.1508E+02  0.1335E+02  0.5935E+03
   9.390  0.1570E+02  0.1378E+02  0.5938E+03
   9.400  0.1615E+02  0.1451E+02  0.5941E+03
   9.410  0.1644E+02  0.1554E+02  0.5944E+03
   9.420  0.1648E+02  0.1644E+02  0.5947E+03
   9.430  0.1631E+02  0.1711E+02  0.5950E+03
   9.440  0.1617E+02  0.1752E+02  0.5954E+03
   9.450  0.1620E+02  0.1778E+02  0.5957E+03
   9.460  0.1640E+02  0.1772E+02  0.5961E+03
   9.470  0.1673E+02  0.1780E+02  0.5964E+03
   9.480  0.1704E+02  0.1824E+02  0.5968E+03
   9.490  0.1647E+02  0.1895E+02  0.5971E+03
   9.500  0.1549E+02  0.1805E+02  0.5975E+03
   9.510  0.1842E+02  0.1766E+02  0.5978E+03
   9.520  0.1588E+02  0.1916E+02  0.5982E+03
   9.530  0.1769E+02  0.1623E+02  0.5985E+03
   9.540  0.1863E+02  0.1503E+02  0.5988E+03
   9.550  0.1850E+02  0.1625E+02  0.5992E+03
   9.560  0.1727E+02  0.1659E+02  0.5995E+03
   9.570  0.1687E+02  0.1596E+02  0.5999E+03
   9.580  0.1669E+02  0.1524E+02  0.6002E+03
   9.590  0.1565E+02  0.1588E+02  0.6005E+03
   9.600  0.1488E+02  0.1610E+02  0.6008E+03
   9.610  0.1517E+02  0.1657E+02  0.6011E+03
   9.620  0.1508E+02  0.1650E+02  0.6014E+03
   9.630  0.1510E+02  0.1622E+02  0.6018E+03
   9.640  0.1548E+02  0.1595E+02  0.6021E+03
   9.650  0.1587E+02  0.1570E+02  0.6024E+03
   9.660  0.1623E+02  0.1556E+02  0.6027E+03
   9.670  0.1627E+02  0.1559E+02  0.6030E+03
   9.680  0.1526E+02  0.1569E+02  0.6033E+03
   9.690  0.1387E+02  0.1576E+02  0.6036E+03
   9.700  0.1307E+02  0.1598E+02  0.6039E+03
   9.710  0.1352E+02  0.1487E+02  0.6042E+03
   9.720  0.1467E+02  0.1287E+02  0.6045E+03
   9.730  0.1563E+02  0.1351E+02  0.6048E+03
   9.740  0.1641E+02  0.1434E+02  0.6051E+03
   9.750  0.1711E+02  0.1539E+02  0.6054E+03
   9.760  0.1783E+02  0.1640E+02  0.6057E+03
   9.770  0.1868E+02  0.1725E+02  0.6061E+03
   9.780  0.1933E+02  0.1789E+02  0.6064E+03
   9.790  0.1943E+02  0.1871E+02  0.6068E+03
   9.800  0.1912E+02  0.1889E+02  0.6072E+03
   9.810  0.1848E+02  0.1889E+02  0.6076E+03
   9.820  0.1795E+02  0.1882E+02  0.6079E+03
   9.830  0.1768E+02  0.1864E+02  0.6083E+03
   9.840  0.1749E+02  0.1823E+02  0.6087E+03
   9.850  0.1752E+02  0.1777E+02  0.6090E+03
   9.860  0.1798E+02  0.1752E+02  0.6094E+03
   9.870  0.1940E+02  0.1768E+02  0.6097E+03
   9.880  0.2777E+02  0.1840E+02  0.6102E+03
   9.890  0.4250E+02  0.2293E+02  0.6107E+03
   9.900  0.4993E+02  0.3244E+02  0.6114E+03
   9.910  0.5400E+02  0.4012E+02  0.6123E+03
   9.920  0.5311E+02  0.4867E+02  0.6133E+03
   9.930  0.4754E+02  0.5329E+02  0.6143E+03
   9.940  0.4089E+02  0.4686E+02  0.6153E+03
   9.950  0.3091E+02  0.4065E+02  0.6161E+03
   9.960  0.3079E+02  0.3860E+02  0.6169E+03
   9.970  0.3091E+02  0.3143E+02  0.6175E+03
   9.980  0.3062E+02  0.2977E+02  0.6181E+03
   9.990  0.2997E+02  0.2883E+02  0.6187E+03
  10.000  0.2930E+02  0.2994E+02  0.6193E+03
  10.010  0.2966E+02  0.3120E+02  0.6199E+03
  10.020  0.3032E+02  0.2980E+02  0.6205E+03
  10.030  0.3106E+02  0.2813E+02  0.6211E+03
  10.040  0.3171E+02  0.2897E+02  0.6217E+03
  10.050  0.3216E+02  0.2989E+02  0.6223E+03
  10.060  0.3256E+02  0.3101E+02  0.6230E+03
  10.070  0.3270E+02  0.3258E+02  0.6236E+03
  10.080  0.3256E+02  0.3363E+02  0.6243E+03
  10.090  0.3249E+02  0.3380E+02  0.6249E+03
  10.100  0.3239E+02  0.3310E+02  0.6256E+03
  10.110  0.3233E+02  0.3197E+02  0.6263E+03
  10.120  0.3313E+02  0.3133E+02  0.6269E+03
  10.130  0.3619E+02  0.3216E+02  0.6276E+03
  10.140  0.3352E+02  0.3148E+02  0.6282E+03
  10.150  0.2890E+02  0.3038E+02  0.6289E+03
  10.160  0.2785E+02  0.2945E+02  0.6294E+03
  10.170  0.2758E+02  0.2775E+02  0.6300E+03
  10.180  0.2726E+02  0.2792E+02  0.6306E+03
  10.190  0.2651E+02  0.2806E+02  0.6311E+03
  10.200  0.2552E+02  0.2804E+02  0.6316E+03
  10.210  0.2412E+02  0.2716E+02  0.6322E+03
  10.220  0.2246E+02  0.2604E+02  0.6327E+03
  10.230  0.2029E+02  0.2463E+02  0.6331E+03
  10.240  0.2016E+02  0.2242E+02  0.6336E+03
  10.250  0.2000E+02  0.2060E+02  0.6340E+03
  10.260  0.1981E+02  0.2064E+02  0.6344E+03
  10.270  0.1971E+02  0.2074E+02  0.6348E+03
  10.280  0.1957E+02  0.2106E+02  0.6352E+03
  10.290  0.1938E+02  0.2134E+02  0.6356E+03
  10.300  0.1925E+02  0.2125E+02  0.6360E+03
  10.310  0.1919E+02  0.2132E+02  0.6364E+03
  10.320  0.1925E+02  0.2325E+02  0.6368E+03
  10.330  0.1969E+02  0.2294E+02  0.6373E+03
  10.340  0.2306E+02  0.2149E+02  0.6377E+03
  10.350  0.3379E+02  0.2529E+02  0.6382E+03
  10.360  0.2976E+02  0.2929E+02  0.6388E+03
  10.370  0.3091E+02  0.2733E+02  0.6394E+03
  10.380  0.3323E+02  0.3155E+02  0.6400E+03
  10.390  0.2925E+02  0.3445E+02  0.6406E+03
  10.400  0.2840E+02  0.3047E+02  0.6413E+03
  10.410  0.2573E+02  0.2517E+02  0.6418E+03
  10.420  0.2315E+02  0.2149E+02  0.6423E+03
  10.430  0.1990E+02  0.2061E+02  0.6427E+03
  10.440  0.1797E+02  0.2040E+02  0.6431E+03
  10.450  0.1684E+02  0.1917E+02  0.6435E+03
  10.460  0.1628E+02  0.1805E+02  0.6438E+03
  10.470  0.1637E+02  0.1730E+02  0.6442E+03
  10.480  0.1690E+02  0.1705E+02  0.6445E+03
  10.490  0.1745E+02  0.1761E+02  0.6449E+03
  10.500  0.1765E+02  0.1865E+02  0.6452E+03
  10.510  0.1771E+02  0.2480E+02  0.6456E+03
  10.520  0.1736E+02  0.1818E+02  0.6460E+03
  10.530  0.1687E+02  0.1797E+02  0.6463E+03
  10.540  0.1626E+02  0.1765E+02  0.6467E+03
  10.550  0.1556E+02  0.1751E+02  0.6470E+03
  10.560  0.1490E+02  0.1719E+02  0.6473E+03
  10.570  0.1434E+02  0.1666E+02  0.6476E+03
  10.580  0.1396E+02  0.1542E+02  0.6479E+03
  10.590  0.1377E+02  0.1450E+02  0.6482E+03
  10.600  0.1379E+02  0.1361E+02  0.6485E+03
  10.610  0.1395E+02  0.1302E+02  0.6488E+03
  10.620  0.1418E+02  0.1303E+02  0.6491E+03
  10.630  0.1443E+02  0.1312E+02  0.6493E+03
  10.640  0.1470E+02  0.1322E+02  0.6496E+03
  10.650  0.1499E+02  0.1336E+02  0.6499E+03
  10.660  0.1544E+02  0.1351E+02  0.6502E+03
  10.670  0.1680E+02  0.1356E+02  0.6505E+03
  10.680  0.1868E+02  0.1391E+02  0.6508E+03
  10.690  0.2045E+02  0.1446E+02  0.6511E+03
  10.700  0.1984E+02  0.1526E+02  0.6515E+03
  10.710  0.1874E+02  0.1751E+02  0.6518E+03
  10.720  0.1745E+02  0.1891E+02  0.6522E+03
  10.730  0.1633E+02  0.1826E+02  0.6525E+03
  10.740  0.1579E+02  0.1581E+02  0.6529E+03
  10.750  0.1644E+02  0.1347E+02  0.6532E+03
  10.760  0.1706E+02  0.1262E+02  0.6535E+03
  10.770  0.1771E+02  0.1301E+02  0.6538E+03
  10.780  0.1965E+02  0.1643E+02  0.6541E+03
  10.790  0.1894E+02  0.1807E+02  0.6545E+03
  10.800  0.1819E+02  0.1860E+02  0.6548E+03
  10.810  0.1738E+02  0.1820E+02  0.6552E+03
  10.820  0.1582E+02  0.1793E+02  0.6556E+03
  10.830  0.1397E+02  0.1971E+02  0.6559E+03
  10.840  0.1170E+02  0.1854E+02  0.6562E+03
  10.850  0.9108E+01  0.1778E+02  0.6565E+03
  10.860  0.7206E+01  0.1605E+02  0.6567E+03
  10.870  0.7057E+01  0.1390E+02  0.6570E+03
  10.880  0.6882E+01  0.1174E+02  0.6572E+03
  10.890  0.1113E+02  0.9640E+01  0.6574E+03
  10.900  0.1268E+02  0.7893E+01  0.6576E+03
  10.910  0.1292E+02  0.9671E+01  0.6578E+03
  10.920  0.1393E+02  0.1108E+02  0.6580E+03
  10.930  0.1343E+02  0.1058E+02  0.6583E+03
  10.940  0.1223E+02  0.1058E+02  0.6585E+03
  10.950  0.1197E+02  0.1095E+02  0.6587E+03
  10.960  0.1170E+02  0.1169E+02  0.6590E+03
  10.970  0.1140E+02  0.1310E+02  0.6592E+03
  10.980  0.1264E+02  0.1382E+02  0.6595E+03
  10.990  0.8882E+01  0.1262E+02  0.6597E+03
  11.000  0.9372E+01  0.1246E+02  0.6599E+03
  11.010  0.1072E+02  0.1232E+02  0.6601E+03
  11.020  0.1215E+02  0.2031E+02  0.6604E+03
  11.030  0.1366E+02  0.1054E+02  0.6607E+03
  11.040  0.1592E+02  0.1186E+02  0.6609E+03
  11.050  0.1822E+02  0.1368E+02  0.6612E+03
  11.060  0.2034E+02  0.1562E+02  0.6616E+03
  11.070  0.2834E+02  0.1755E+02  0.6620E+03
  11.080  0.2421E+02  0.1845E+02  0.6624E+03
  11.090  0.2062E+02  0.2031E+02  0.6628E+03
  11.100  0.1884E+02  0.1991E+02  0.6632E+03
  11.110  0.1746E+02  0.1836E+02  0.6636E+03
  11.120  0.1533E+02  0.1772E+02  0.6640E+03
  11.130  0.1350E+02  0.1679E+02  0.6643E+03
  11.140  0.1175E+02  0.1419E+02  0.6646E+03
  11.150  0.1012E+02  0.1328E+02  0.6648E+03
  11.160  0.8713E+01  0.1229E+02  0.6650E+03
  11.170  0.7929E+01  0.1148E+02  0.6652E+03
  11.180  0.7718E+01  0.1083E+02  0.6654E+03
  11.190  0.7577E+01  0.1012E+02  0.6656E+03
  11.200  0.7244E+01  0.9080E+01  0.6658E+03
  11.210  0.6803E+01  0.8099E+01  0.6659E+03
  11.220  0.6708E+01  0.7618E+01  0.6661E+03
  11.230  0.6684E+01  0.7377E+01  0.6662E+03
  11.240  0.6846E+01  0.7234E+01  0.6663E+03
  11.250  0.6839E+01  0.7193E+01  0.6665E+03
  11.260  0.6799E+01  0.7016E+01  0.6666E+03
  11.270  0.6778E+01  0.6854E+01  0.6668E+03
  11.280  0.6779E+01  0.6732E+01  0.6669E+03
  11.290  0.6806E+01  0.6932E+01  0.6670E+03
  11.300  0.6903E+01  0.7044E+01  0.6672E+03
  11.310  0.8034E+01  0.7300E+01  0.6673E+03
  11.320  0.9471E+01  0.7518E+01  0.6675E+03
  11.330  0.1135E+02  0.7702E+01  0.6677E+03
  11.340  0.1206E+02  0.8308E+01  0.6679E+03
  11.350  0.1232E+02  0.9084E+01  0.6681E+03
  11.360  0.1261E+02  0.9993E+01  0.6683E+03
  11.370  0.1308E+02  0.1115E+02  0.6685E+03
  11.380  0.1392E+02  0.1264E+02  0.6688E+03
  11.390  0.1506E+02  0.1432E+02  0.6691E+03
  11.400  0.1680E+02  0.1585E+02  0.6694E+03
  11.410  0.1853E+02  0.1744E+02  0.6697E+03
  11.420  0.2034E+02  0.1923E+02  0.6701E+03
  11.430  0.2235E+02  0.2117E+02  0.6705E+03
  11.440  0.2428E+02  0.2330E+02  0.6710E+03
  11.450  0.2641E+02  0.2528E+02  0.6714E+03
  11.460  0.2765E+02  0.2686E+02  0.6720E+03
  11.470  0.2917E+02  0.2805E+02  0.6725E+03
  11.480  0.3022E+02  0.2981E+02  0.6731E+03
  11.490  0.3170E+02  0.3049E+02  0.6737E+03
  11.500  0.3214E+02  0.3098E+02  0.6744E+03
  11.510  0.3010E+02  0.3115E+02  0.6750E+03
  11.520  0.2771E+02  0.2995E+02  0.6756E+03
  11.530  0.2667E+02  0.2835E+02  0.6761E+03
  11.540  0.2568E+02  0.2758E+02  0.6767E+03
  11.550  0.2488E+02  0.2590E+02  0.6772E+03
  11.560  0.2313E+02  0.2420E+02  0.6777E+03
  11.570  0.2200E+02  0.2259E+02  0.6782E+03
  11.580  0.2147E+02  0.2564E+02  0.6786E+03
  11.590  0.2267E+02  0.1996E+02  0.6790E+03
  11.600  0.2333E+02  0.2028E+02  0.6795E+03
  11.610  0.2371E+02  0.2041E+02  0.6799E+03
  11.620  0.2508E+02  0.2073E+02  0.6804E+03
  11.630  0.2475E+02  0.2135E+02  0.6808E+03
  11.640  0.2388E+02  0.2307E+02  0.6813E+03
  11.650  0.2391E+02  0.2268E+02  0.6818E+03
  11.660  0.2418E+02  0.2238E+02  0.6822E+03
  11.670  0.2543E+02  0.2363E+02  0.6827E+03
  11.680  0.2690E+02  0.2615E+02  0.6832E+03
  11.690  0.2842E+02  0.2539E+02  0.6838E+03
  11.700  0.3098E+02  0.2752E+02  0.6843E+03
  11.710  0.2934E+02  0.2906E+02  0.6849E+03
  11.720  0.2744E+02  0.2695E+02  0.6855E+03
  11.730  0.2651E+02  0.2432E+02  0.6860E+03
  11.740  0.2556E+02  0.2241E+02  0.6865E+03
  11.750  0.2407E+02  0.2172E+02  0.6870E+03
  11.760  0.2245E+02  0.2195E+02  0.6874E+03
  11.770  0.2169E+02  0.2766E+02  0.6879E+03
  11.780  0.2193E+02  0.2902E+02  0.6884E+03
  11.790  0.2169E+02  0.2361E+02  0.6889E+03
  11.800  0.2189E+02  0.2387E+02  0.6893E+03
  11.810  0.2137E+02  0.2340E+02  0.6898E+03
  11.820  0.2051E+02  0.2327E+02  0.6902E+03
  11.830  0.1945E+02  0.2256E+02  0.6907E+03
  11.840  0.1821E+02  0.2145E+02  0.6911E+03
  11.850  0.1691E+02  0.2033E+02  0.6915E+03
  11.860  0.1581E+02  0.1922E+02  0.6918E+03
  11.870  0.1488E+02  0.1809E+02  0.6922E+03
  11.880  0.1395E+02  0.1678E+02  0.6925E+03
  11.890  0.1296E+02  0.1576E+02  0.6928E+03
  11.900  0.1219E+02  0.1488E+02  0.6931E+03
  11.910  0.1138E+02  0.1385E+02  0.6933E+03
  11.920  0.1036E+02  0.1281E+02  0.6936E+03
  11.930  0.9366E+01  0.1187E+02  0.6938E+03
  11.940  0.8401E+01  0.1102E+02  0.6940E+03
  11.950  0.7688E+01  0.1021E+02  0.6942E+03
  11.960  0.7110E+01  0.9423E+01  0.6943E+03
  11.970  0.6622E+01  0.8581E+01  0.6945E+03
  11.980  0.6828E+01  0.7923E+01  0.6947E+03
  11.990  0.6557E+01  0.7752E+01  0.6948E+03
  12.000  0.6150E+01  0.7287E+01  0.6949E+03
  12.010  0.5723E+01  0.6799E+01  0.6951E+03
  12.020  0.5271E+01  0.6304E+01  0.6952E+03
  12.030  0.4790E+01  0.5831E+01  0.6953E+03
  12.040  0.4280E+01  0.5361E+01  0.6954E+03
  12.050  0.3739E+01  0.4890E+01  0.6955E+03
  12.060  0.3163E+01  0.4416E+01  0.6956E+03
  12.070  0.2607E+01  0.3922E+01  0.6956E+03
  12.080  0.2297E+01  0.3391E+01  0.6957E+03
  12.090  0.2019E+01  0.2879E+01  0.6958E+03
  12.100  0.1762E+01  0.2409E+01  0.6958E+03
  12.110  0.1516E+01  0.2074E+01  0.6958E+03
  12.120  0.1290E+01  0.1758E+01  0.6959E+03
  12.130  0.1083E+01  0.1491E+01  0.6959E+03
  12.140  0.8952E+00  0.1247E+01  0.6959E+03
  12.150  0.7263E+00  0.1025E+01  0.6959E+03
  12.160  0.5755E+00  0.8255E+00  0.6960E+03
  12.170  0.4426E+00  0.6477E+00  0.6960E+03
  12.180  0.3273E+00  0.4918E+00  0.6960E+03
  12.190  0.2297E+00  0.3579E+00  0.6960E+03
  12.200  0.1497E+00  0.2459E+00  0.6960E+03
  12.210  0.8740E-01  0.1559E+00  0.6960E+03
  12.220  0.4272E-01  0.8785E-01  0.6960E+03
  12.230  0.1570E-01  0.4176E-01  0.6960E+03
  12.240  0.4291E-02  0.1705E-01  0.6960E+03
  12.250  0.6211E-03  0.6695E-02  0.6960E+03
  12.260  0.3119E-04  0.2953E-02  0.6960E+03
  12.270  0.0000E+00  0.1370E-02  0.6960E+03
  12.280  0.0000E+00  0.4908E-03  0.6960E+03
  12.290  0.0000E+00  0.1015E-03  0.6960E+03
  12.300  0.0000E+00  0.0000E+00  0.6960E+03
  12.310  0.0000E+00  0.0000E+00  0.6960E+03
  12.320  0.0000E+00  0.0000E+00  0.6960E+03
  12.330  0.0000E+00  0.0000E+00  0.6960E+03
  12.340  0.0000E+00  0.0000E+00  0.6960E+03
  12.350  0.0000E+00  0.0000E+00  0.6960E+03
  12.360  0.0000E+00  0.0000E+00  0.6960E+03
  12.370  0.0000E+00  0.0000E+00  0.6960E+03
  12.380  0.0000E+00  0.0000E+00  0.6960E+03
  12.390  0.0000E+00  0.0000E+00  0.6960E+03
  12.400  0.0000E+00  0.0000E+00  0.6960E+03
  12.410  0.0000E+00  0.0000E+00  0.6960E+03
  12.420  0.0000E+00  0.0000E+00  0.6960E+03
  12.430  0.0000E+00  0.0000E+00  0.6960E+03
  12.440  0.0000E+00  0.0000E+00  0.6960E+03
  12.450  0.0000E+00  0.0000E+00  0.6960E+03
  12.460  0.0000E+00  0.0000E+00  0.6960E+03
  12.470  0.0000E+00  0.0000E+00  0.6960E+03
  12.480  0.0000E+00  0.0000E+00  0.6960E+03
  12.490  0.0000E+00  0.0000E+00  0.6960E+03
  12.500  0.0000E+00  0.0000E+00  0.6960E+03
  12.510  0.0000E+00  0.0000E+00  0.6960E+03
  12.520  0.0000E+00  0.0000E+00  0.6960E+03
  12.530  0.0000E+00  0.0000E+00  0.6960E+03
  12.540  0.0000E+00  0.0000E+00  0.6960E+03
  12.550  0.0000E+00  0.0000E+00  0.6960E+03
  12.560  0.0000E+00  0.0000E+00  0.6960E+03
  12.570  0.0000E+00  0.0000E+00  0.6960E+03
  12.580  0.0000E+00  0.0000E+00  0.6960E+03
  12.590  0.0000E+00  0.0000E+00  0.6960E+03
  12.600  0.0000E+00  0.0000E+00  0.6960E+03
  12.610  0.0000E+00  0.0000E+00  0.6960E+03
  12.620  0.0000E+00  0.0000E+00  0.6960E+03
  12.630  0.0000E+00  0.0000E+00  0.6960E+03
  12.640  0.0000E+00  0.0000E+00  0.6960E+03
  12.650  0.0000E+00  0.0000E+00  0.6960E+03
  12.660  0.0000E+00  0.0000E+00  0.6960E+03
  12.670  0.0000E+00  0.0000E+00  0.6960E+03
  12.680  0.0000E+00  0.0000E+00  0.6960E+03
  12.690  0.0000E+00  0.0000E+00  0.6960E+03
  12.700  0.0000E+00  0.0000E+00  0.6960E+03
  12.710  0.0000E+00  0.0000E+00  0.6960E+03
  12.720  0.0000E+00  0.0000E+00  0.6960E+03
  12.730  0.0000E+00  0.0000E+00  0.6960E+03
  12.740  0.0000E+00  0.0000E+00  0.6960E+03
  12.750  0.0000E+00  0.0000E+00  0.6960E+03
  12.760  0.0000E+00  0.0000E+00  0.6960E+03
  12.770  0.0000E+00  0.0000E+00  0.6960E+03
  12.780  0.0000E+00  0.0000E+00  0.6960E+03
  12.790  0.0000E+00  0.0000E+00  0.6960E+03
  12.800  0.0000E+00  0.0000E+00  0.6960E+03
  12.810  0.0000E+00  0.0000E+00  0.6960E+03
  12.820  0.0000E+00  0.0000E+00  0.6960E+03
  12.830  0.0000E+00  0.0000E+00  0.6960E+03
  12.840  0.0000E+00  0.0000E+00  0.6960E+03
  12.850  0.0000E+00  0.0000E+00  0.6960E+03
  12.860  0.0000E+00  0.0000E+00  0.6960E+03
  12.870  0.0000E+00  0.0000E+00  0.6960E+03
  12.880  0.0000E+00  0.0000E+00  0.6960E+03
  12.890  0.0000E+00  0.0000E+00  0.6960E+03
  12.900  0.0000E+00  0.0000E+00  0.6960E+03
  12.910  0.0000E+00  0.0000E+00  0.6960E+03
  12.920  0.0000E+00  0.0000E+00  0.6960E+03
  12.930  0.0000E+00  0.0000E+00  0.6960E+03
  12.940  0.0000E+00  0.0000E+00  0.6960E+03
  12.950  0.0000E+00  0.0000E+00  0.6960E+03
  12.960  0.0000E+00  0.0000E+00  0.6960E+03
  12.970  0.0000E+00  0.0000E+00  0.6960E+03
  12.980  0.0000E+00  0.0000E+00  0.6960E+03
  12.990  0.0000E+00  0.0000E+00  0.6960E+03
  13.000  0.0000E+00  0.0000E+00  0.6960E+03
  13.010  0.0000E+00  0.0000E+00  0.6960E+03
  13.020  0.0000E+00  0.0000E+00  0.6960E+03
  13.030  0.0000E+00  0.0000E+00  0.6960E+03
  13.040  0.0000E+00  0.0000E+00  0.6960E+03
  13.050  0.0000E+00  0.0000E+00  0.6960E+03
  13.060  0.0000E+00  0.0000E+00  0.6960E+03
  13.070  0.0000E+00  0.0000E+00  0.6960E+03
  13.080  0.0000E+00  0.0000E+00  0.6960E+03
  13.090  0.0000E+00  0.0000E+00  0.6960E+03
  13.100  0.0000E+00  0.0000E+00  0.6960E+03
  13.110  0.0000E+00  0.0000E+00  0.6960E+03
  13.120  0.0000E+00  0.0000E+00  0.6960E+03
  13.130  0.0000E+00  0.0000E+00  0.6960E+03
  13.140  0.0000E+00  0.0000E+00  0.6960E+03
  13.150  0.0000E+00  0.0000E+00  0.6960E+03
  13.160  0.0000E+00  0.0000E+00  0.6960E+03
  13.170  0.0000E+00  0.0000E+00  0.6960E+03
  13.180  0.0000E+00  0.0000E+00  0.6960E+03
  13.190  0.0000E+00  0.0000E+00  0.6960E+03
  13.200  0.0000E+00  0.0000E+00  0.6960E+03
  13.210  0.0000E+00  0.0000E+00  0.6960E+03
  13.220  0.0000E+00  0.0000E+00  0.6960E+03
  13.230  0.0000E+00  0.0000E+00  0.6960E+03
  13.240  0.0000E+00  0.0000E+00  0.6960E+03
  13.250  0.0000E+00  0.0000E+00  0.6960E+03
  13.260  0.0000E+00  0.0000E+00  0.6960E+03
  13.270  0.0000E+00  0.0000E+00  0.6960E+03
  13.280  0.0000E+00  0.0000E+00  0.6960E+03
  13.290  0.0000E+00  0.0000E+00  0.6960E+03
  13.300  0.0000E+00  0.0000E+00  0.6960E+03
  13.310  0.0000E+00  0.0000E+00  0.6960E+03
  13.320  0.0000E+00  0.0000E+00  0.6960E+03
  13.330  0.0000E+00  0.0000E+00  0.6960E+03
  13.340  0.0000E+00  0.0000E+00  0.6960E+03
  13.350  0.0000E+00  0.0000E+00  0.6960E+03
  13.360  0.0000E+00  0.0000E+00  0.6960E+03
  13.370  0.0000E+00  0.0000E+00  0.6960E+03
  13.380  0.0000E+00  0.0000E+00  0.6960E+03
  13.390  0.0000E+00  0.0000E+00  0.6960E+03
  13.400  0.0000E+00  0.0000E+00  0.6960E+03
  13.410  0.0000E+00  0.0000E+00  0.6960E+03
  13.420  0.0000E+00  0.0000E+00  0.6960E+03
  13.430  0.0000E+00  0.0000E+00  0.6960E+03
  13.440  0.0000E+00  0.0000E+00  0.6960E+03
  13.450  0.0000E+00  0.0000E+00  0.6960E+03
  13.460  0.0000E+00  0.0000E+00  0.6960E+03
  13.470  0.0000E+00  0.0000E+00  0.6960E+03
  13.480  0.0000E+00  0.0000E+00  0.6960E+03
  13.490  0.0000E+00  0.0000E+00  0.6960E+03
  13.500  0.0000E+00  0.0000E+00  0.6960E+03
  13.510  0.0000E+00  0.0000E+00  0.6960E+03
  13.520  0.0000E+00  0.0000E+00  0.6960E+03
  13.530  0.0000E+00  0.0000E+00  0.6960E+03
  13.540  0.0000E+00  0.0000E+00  0.6960E+03
  13.550  0.0000E+00  0.0000E+00  0.6960E+03
  13.560  0.0000E+00  0.0000E+00  0.6960E+03
  13.570  0.0000E+00  0.0000E+00  0.6960E+03
  13.580  0.0000E+00  0.0000E+00  0.6960E+03
  13.590  0.0000E+00  0.0000E+00  0.6960E+03
  13.600  0.0000E+00  0.0000E+00  0.6960E+03
  13.610  0.0000E+00  0.0000E+00  0.6960E+03
  13.620  0.0000E+00  0.0000E+00  0.6960E+03
  13.630  0.0000E+00  0.0000E+00  0.6960E+03
  13.640  0.0000E+00  0.0000E+00  0.6960E+03
  13.650  0.0000E+00  0.0000E+00  0.6960E+03
  13.660  0.0000E+00  0.0000E+00  0.6960E+03
  13.670  0.0000E+00  0.0000E+00  0.6960E+03
  13.680  0.0000E+00  0.0000E+00  0.6960E+03
  13.690  0.0000E+00  0.0000E+00  0.6960E+03
  13.700  0.0000E+00  0.0000E+00  0.6960E+03
  13.710  0.0000E+00  0.0000E+00  0.6960E+03
  13.720  0.0000E+00  0.0000E+00  0.6960E+03
  13.730  0.0000E+00  0.0000E+00  0.6960E+03
  13.740  0.0000E+00  0.0000E+00  0.6960E+03
  13.750  0.0000E+00  0.0000E+00  0.6960E+03
  13.760  0.0000E+00  0.0000E+00  0.6960E+03
  13.770  0.0000E+00  0.0000E+00  0.6960E+03
  13.780  0.0000E+00  0.0000E+00  0.6960E+03
  13.790  0.0000E+00  0.0000E+00  0.6960E+03
  13.800  0.0000E+00  0.0000E+00  0.6960E+03
  13.810  0.0000E+00  0.0000E+00  0.6960E+03
  13.820  0.0000E+00  0.0000E+00  0.6960E+03
  13.830  0.0000E+00  0.0000E+00  0.6960E+03
  13.840  0.0000E+00  0.0000E+00  0.6960E+03
  13.850  0.0000E+00  0.0000E+00  0.6960E+03
  13.860  0.0000E+00  0.0000E+00  0.6960E+03
  13.870  0.0000E+00  0.0000E+00  0.6960E+03
  13.880  0.0000E+00  0.0000E+00  0.6960E+03
  13.890  0.0000E+00  0.0000E+00  0.6960E+03
  13.900  0.0000E+00  0.0000E+00  0.6960E+03
  13.910  0.0000E+00  0.0000E+00  0.6960E+03
  13.920  0.0000E+00  0.0000E+00  0.6960E+03
  13.930  0.0000E+00  0.0000E+00  0.6960E+03
  13.940  0.0000E+00  0.0000E+00  0.6960E+03
  13.950  0.0000E+00  0.0000E+00  0.6960E+03
  13.960  0.0000E+00  0.0000E+00  0.6960E+03
  13.970  0.0000E+00  0.0000E+00  0.6960E+03
  13.980  0.0000E+00  0.0000E+00  0.6960E+03
  13.990  0.0000E+00  0.0000E+00  0.6960E+03
  14.000  0.0000E+00  0.0000E+00  0.6960E+03
  14.010  0.0000E+00  0.0000E+00  0.6960E+03
  14.020  0.0000E+00  0.0000E+00  0.6960E+03
  14.030  0.0000E+00  0.0000E+00  0.6960E+03
  14.040  0.0000E+00  0.0000E+00  0.6960E+03
  14.050  0.0000E+00  0.0000E+00  0.6960E+03
  14.060  0.0000E+00  0.0000E+00  0.6960E+03
  14.070  0.0000E+00  0.0000E+00  0.6960E+03
  14.080  0.0000E+00  0.0000E+00  0.6960E+03
  14.090  0.0000E+00  0.0000E+00  0.6960E+03
  14.100  0.0000E+00  0.0000E+00  0.6960E+03
  14.110  0.0000E+00  0.0000E+00  0.6960E+03
  14.120  0.0000E+00  0.0000E+00  0.6960E+03
  14.130  0.0000E+00  0.0000E+00  0.6960E+03
  14.140  0.0000E+00  0.0000E+00  0.6960E+03
  14.150  0.0000E+00  0.0000E+00  0.6960E+03
  14.160  0.0000E+00  0.0000E+00  0.6960E+03
  14.170  0.0000E+00  0.0000E+00  0.6960E+03
  14.180  0.0000E+00  0.0000E+00  0.6960E+03
  14.190  0.0000E+00  0.0000E+00  0.6960E+03
  14.200  0.0000E+00  0.0000E+00  0.6960E+03
  14.210  0.0000E+00  0.0000E+00  0.6960E+03
  14.220  0.0000E+00  0.0000E+00  0.6960E+03
  14.230  0.0000E+00  0.0000E+00  0.6960E+03
  14.240  0.0000E+00  0.0000E+00  0.6960E+03
  14.250  0.0000E+00  0.0000E+00  0.6960E+03
  14.260  0.0000E+00  0.0000E+00  0.6960E+03
  14.270  0.0000E+00  0.0000E+00  0.6960E+03
  14.280  0.0000E+00  0.0000E+00  0.6960E+03
  14.290  0.0000E+00  0.0000E+00  0.6960E+03
  14.300  0.0000E+00  0.0000E+00  0.6960E+03
  14.310  0.0000E+00  0.0000E+00  0.6960E+03
  14.320  0.0000E+00  0.0000E+00  0.6960E+03
  14.330  0.0000E+00  0.0000E+00  0.6960E+03
  14.340  0.0000E+00  0.0000E+00  0.6960E+03
  14.350  0.0000E+00  0.0000E+00  0.6960E+03
  14.360  0.0000E+00  0.0000E+00  0.6960E+03
  14.370  0.0000E+00  0.0000E+00  0.6960E+03
  14.380  0.0000E+00  0.0000E+00  0.6960E+03
  14.390  0.0000E+00  0.0000E+00  0.6960E+03
  14.400  0.0000E+00  0.0000E+00  0.6960E+03
  14.410  0.0000E+00  0.0000E+00  0.6960E+03
  14.420  0.0000E+00  0.0000E+00  0.6960E+03
  14.430  0.0000E+00  0.0000E+00  0.6960E+03
  14.440  0.0000E+00  0.0000E+00  0.6960E+03
  14.450  0.0000E+00  0.0000E+00  0.6960E+03
  14.460  0.0000E+00  0.0000E+00  0.6960E+03
  14.470  0.0000E+00  0.0000E+00  0.6960E+03
  14.480  0.0000E+00  0.0000E+00  0.6960E+03
  14.490  0.0000E+00  0.0000E+00  0.6960E+03
  14.500  0.0000E+00  0.0000E+00  0.6960E+03
  14.510  0.0000E+00  0.0000E+00  0.6960E+03
  14.520  0.0000E+00  0.0000E+00  0.6960E+03
  14.530  0.0000E+00  0.0000E+00  0.6960E+03
  14.540  0.0000E+00  0.0000E+00  0.6960E+03
  14.550  0.0000E+00  0.0000E+00  0.6960E+03
  14.560  0.0000E+00  0.0000E+00  0.6960E+03
  14.570  0.0000E+00  0.0000E+00  0.6960E+03
  14.580  0.0000E+00  0.0000E+00  0.6960E+03
  14.590  0.0000E+00  0.0000E+00  0.6960E+03
  14.600  0.0000E+00  0.0000E+00  0.6960E+03
  14.610  0.0000E+00  0.0000E+00  0.6960E+03
  14.620  0.0000E+00  0.0000E+00  0.6960E+03
  14.630  0.0000E+00  0.0000E+00  0.6960E+03
  14.640  0.0000E+00  0.0000E+00  0.6960E+03
  14.650  0.0000E+00  0.0000E+00  0.6960E+03
  14.660  0.0000E+00  0.0000E+00  0.6960E+03
  14.670  0.0000E+00  0.0000E+00  0.6960E+03
  14.680  0.0000E+00  0.0000E+00  0.6960E+03
  14.690  0.0000E+00  0.0000E+00  0.6960E+03
  14.700  0.0000E+00  0.0000E+00  0.6960E+03
  14.710  0.0000E+00  0.0000E+00  0.6960E+03
  14.720  0.0000E+00  0.0000E+00  0.6960E+03
  14.730  0.0000E+00  0.0000E+00  0.6960E+03
  14.740  0.0000E+00  0.0000E+00  0.6960E+03
  14.750  0.0000E+00  0.0000E+00  0.6960E+03
  14.760  0.0000E+00  0.0000E+00  0.6960E+03
  14.770  0.0000E+00  0.0000E+00  0.6960E+03
  14.780  0.0000E+00  0.0000E+00  0.6960E+03
  14.790  0.0000E+00  0.0000E+00  0.6960E+03
  14.800  0.0000E+00  0.0000E+00  0.6960E+03
  14.810  0.0000E+00  0.0000E+00  0.6960E+03
  14.820  0.0000E+00  0.0000E+00  0.6960E+03
  14.830  0.0000E+00  0.0000E+00  0.6960E+03
  14.840  0.0000E+00  0.0000E+00  0.6960E+03
  14.850  0.0000E+00  0.0000E+00  0.6960E+03
  14.860  0.0000E+00  0.0000E+00  0.6960E+03
  14.870  0.0000E+00  0.0000E+00  0.6960E+03
  14.880  0.0000E+00  0.0000E+00  0.6960E+03
  14.890  0.0000E+00  0.0000E+00  0.6960E+03
  14.900  0.0000E+00  0.0000E+00  0.6960E+03
  14.910  0.0000E+00  0.0000E+00  0.6960E+03
  14.920  0.0000E+00  0.0000E+00  0.6960E+03
  14.930  0.0000E+00  0.0000E+00  0.6960E+03
  14.940  0.0000E+00  0.0000E+00  0.6960E+03
  14.950  0.0000E+00  0.0000E+00  0.6960E+03
  14.960  0.0000E+00  0.0000E+00  0.6960E+03
  14.970  0.0000E+00  0.0000E+00  0.6960E+03
  14.980  0.0000E+00  0.0000E+00  0.6960E+03
  14.990  0.0000E+00  0.0000E+00  0.6960E+03
  15.000  0.0000E+00  0.0000E+00  0.6960E+03
