# E (eV)  ldosup(E)  ldosdw(E) pdosup(E)  pdosdw(E) 
   0.000  0.414E-01  0.414E-01  0.414E-01  0.414E-01
   0.010  0.483E-01  0.483E-01  0.483E-01  0.483E-01
   0.020  0.595E-01  0.595E-01  0.595E-01  0.595E-01
   0.030  0.544E-01  0.544E-01  0.544E-01  0.544E-01
   0.040  0.510E-01  0.510E-01  0.510E-01  0.510E-01
   0.050  0.420E-01  0.420E-01  0.420E-01  0.420E-01
   0.060  0.350E-01  0.350E-01  0.350E-01  0.350E-01
   0.070  0.374E-01  0.374E-01  0.374E-01  0.374E-01
   0.080  0.379E-01  0.379E-01  0.379E-01  0.379E-01
   0.090  0.392E-01  0.392E-01  0.392E-01  0.392E-01
   0.100  0.367E-01  0.367E-01  0.367E-01  0.367E-01
   0.110  0.308E-01  0.308E-01  0.308E-01  0.308E-01
   0.120  0.251E-01  0.251E-01  0.251E-01  0.251E-01
   0.130  0.187E-01  0.187E-01  0.187E-01  0.187E-01
   0.140  0.114E-01  0.114E-01  0.114E-01  0.114E-01
   0.150  0.611E-02  0.611E-02  0.611E-02  0.611E-02
   0.160  0.346E-02  0.346E-02  0.346E-02  0.346E-02
   0.170  0.175E-02  0.175E-02  0.175E-02  0.175E-02
   0.180  0.288E-03  0.288E-03  0.288E-03  0.288E-03
   0.190 -0.239E-05 -0.239E-05 -0.239E-05 -0.239E-05
   0.200  0.000E+00  0.000E+00  0.000E+00  0.000E+00
   0.210  0.000E+00  0.000E+00  0.000E+00  0.000E+00
   0.220  0.000E+00  0.000E+00  0.000E+00  0.000E+00
   0.230  0.000E+00  0.000E+00  0.000E+00  0.000E+00
   0.240  0.000E+00  0.000E+00  0.000E+00  0.000E+00
   0.250  0.000E+00  0.000E+00  0.000E+00  0.000E+00
   0.260  0.000E+00  0.000E+00  0.000E+00  0.000E+00
   0.270  0.000E+00  0.000E+00  0.000E+00  0.000E+00
   0.280  0.000E+00  0.000E+00  0.000E+00  0.000E+00
   0.290  0.000E+00  0.000E+00  0.000E+00  0.000E+00
   0.300  0.000E+00  0.000E+00  0.000E+00  0.000E+00
   0.310  0.000E+00  0.000E+00  0.000E+00  0.000E+00
   0.320  0.000E+00  0.000E+00  0.000E+00  0.000E+00
   0.330  0.000E+00  0.000E+00  0.000E+00  0.000E+00
   0.340  0.138E-05  0.138E-05  0.138E-05  0.138E-05
   0.350  0.118E-04  0.118E-04  0.118E-04  0.118E-04
   0.360  0.941E-04  0.940E-04  0.941E-04  0.940E-04
   0.370  0.298E-03  0.297E-03  0.298E-03  0.297E-03
   0.380  0.648E-03  0.646E-03  0.648E-03  0.646E-03
   0.390  0.121E-02  0.121E-02  0.121E-02  0.121E-02
   0.400  0.299E-02  0.290E-02  0.299E-02  0.290E-02
   0.410  0.655E-02  0.627E-02  0.655E-02  0.627E-02
   0.420  0.907E-02  0.869E-02  0.907E-02  0.869E-02
   0.430  0.102E-01  0.976E-02  0.102E-01  0.976E-02
   0.440  0.104E-01  0.998E-02  0.104E-01  0.998E-02
   0.450  0.102E-01  0.988E-02  0.102E-01  0.988E-02
   0.460  0.102E-01  0.101E-01  0.102E-01  0.101E-01
   0.470  0.109E-01  0.109E-01  0.109E-01  0.109E-01
   0.480  0.121E-01  0.122E-01  0.121E-01  0.122E-01
   0.490  0.135E-01  0.137E-01  0.135E-01  0.137E-01
   0.500  0.158E-01  0.161E-01  0.158E-01  0.161E-01
   0.510  0.192E-01  0.197E-01  0.192E-01  0.197E-01
   0.520  0.210E-01  0.216E-01  0.210E-01  0.216E-01
   0.530  0.223E-01  0.232E-01  0.223E-01  0.232E-01
   0.540  0.225E-01  0.236E-01  0.225E-01  0.236E-01
   0.550  0.227E-01  0.240E-01  0.227E-01  0.240E-01
   0.560  0.236E-01  0.252E-01  0.236E-01  0.252E-01
   0.570  0.253E-01  0.272E-01  0.253E-01  0.272E-01
   0.580  0.270E-01  0.292E-01  0.270E-01  0.292E-01
   0.590  0.287E-01  0.313E-01  0.287E-01  0.313E-01
   0.600  0.306E-01  0.335E-01  0.306E-01  0.335E-01
   0.610  0.327E-01  0.358E-01  0.327E-01  0.358E-01
   0.620  0.348E-01  0.382E-01  0.348E-01  0.382E-01
   0.630  0.370E-01  0.407E-01  0.370E-01  0.407E-01
   0.640  0.395E-01  0.435E-01  0.395E-01  0.435E-01
   0.650  0.435E-01  0.479E-01  0.435E-01  0.479E-01
   0.660  0.476E-01  0.525E-01  0.476E-01  0.525E-01
   0.670  0.540E-01  0.595E-01  0.540E-01  0.595E-01
   0.680  0.642E-01  0.703E-01  0.642E-01  0.703E-01
   0.690  0.662E-01  0.730E-01  0.662E-01  0.730E-01
   0.700  0.642E-01  0.718E-01  0.642E-01  0.718E-01
   0.710  0.622E-01  0.704E-01  0.622E-01  0.704E-01
   0.720  0.595E-01  0.672E-01  0.595E-01  0.672E-01
   0.730  0.566E-01  0.620E-01  0.566E-01  0.620E-01
   0.740  0.544E-01  0.566E-01  0.544E-01  0.566E-01
   0.750  0.520E-01  0.511E-01  0.520E-01  0.511E-01
   0.760  0.500E-01  0.464E-01  0.500E-01  0.464E-01
   0.770  0.503E-01  0.444E-01  0.503E-01  0.444E-01
   0.780  0.524E-01  0.454E-01  0.524E-01  0.454E-01
   0.790  0.559E-01  0.482E-01  0.559E-01  0.482E-01
   0.800  0.606E-01  0.525E-01  0.606E-01  0.525E-01
   0.810  0.657E-01  0.576E-01  0.657E-01  0.576E-01
   0.820  0.716E-01  0.638E-01  0.716E-01  0.638E-01
   0.830  0.798E-01  0.726E-01  0.798E-01  0.726E-01
   0.840  0.899E-01  0.834E-01  0.899E-01  0.834E-01
   0.850  0.101E+00  0.956E-01  0.101E+00  0.956E-01
   0.860  0.115E+00  0.110E+00  0.115E+00  0.110E+00
   0.870  0.131E+00  0.128E+00  0.131E+00  0.128E+00
   0.880  0.138E+00  0.136E+00  0.138E+00  0.136E+00
   0.890  0.145E+00  0.143E+00  0.145E+00  0.143E+00
   0.900  0.149E+00  0.147E+00  0.149E+00  0.147E+00
   0.910  0.154E+00  0.153E+00  0.154E+00  0.153E+00
   0.920  0.157E+00  0.156E+00  0.157E+00  0.156E+00
   0.930  0.155E+00  0.155E+00  0.155E+00  0.155E+00
   0.940  0.151E+00  0.151E+00  0.151E+00  0.151E+00
   0.950  0.147E+00  0.147E+00  0.147E+00  0.147E+00
   0.960  0.147E+00  0.147E+00  0.147E+00  0.147E+00
   0.970  0.140E+00  0.140E+00  0.140E+00  0.140E+00
   0.980  0.139E+00  0.139E+00  0.139E+00  0.139E+00
   0.990  0.152E+00  0.152E+00  0.152E+00  0.152E+00
   1.000  0.195E+00  0.195E+00  0.195E+00  0.195E+00
   1.010  0.249E+00  0.249E+00  0.249E+00  0.249E+00
   1.020  0.538E+00  0.537E+00  0.538E+00  0.537E+00
   1.030  0.469E+00  0.469E+00  0.469E+00  0.469E+00
   1.040  0.496E+00  0.496E+00  0.496E+00  0.496E+00
   1.050  0.790E+00  0.790E+00  0.790E+00  0.790E+00
   1.060  0.676E+00  0.676E+00  0.676E+00  0.676E+00
   1.070  0.573E+00  0.573E+00  0.573E+00  0.573E+00
   1.080  0.545E+00  0.544E+00  0.545E+00  0.544E+00
   1.090  0.406E+00  0.406E+00  0.406E+00  0.406E+00
   1.100  0.329E+00  0.329E+00  0.329E+00  0.329E+00
   1.110  0.249E+00  0.249E+00  0.249E+00  0.249E+00
   1.120  0.197E+00  0.197E+00  0.197E+00  0.197E+00
   1.130  0.201E+00  0.201E+00  0.201E+00  0.201E+00
   1.140  0.270E+00  0.270E+00  0.270E+00  0.270E+00
   1.150  0.289E+00  0.289E+00  0.289E+00  0.289E+00
   1.160  0.247E+00  0.247E+00  0.247E+00  0.247E+00
   1.170  0.175E+00  0.175E+00  0.175E+00  0.175E+00
   1.180  0.180E+00  0.180E+00  0.180E+00  0.180E+00
   1.190  0.191E+00  0.191E+00  0.191E+00  0.191E+00
   1.200  0.196E+00  0.196E+00  0.196E+00  0.196E+00
   1.210  0.192E+00  0.192E+00  0.192E+00  0.192E+00
   1.220  0.186E+00  0.186E+00  0.186E+00  0.186E+00
   1.230  0.181E+00  0.181E+00  0.181E+00  0.181E+00
   1.240  0.176E+00  0.176E+00  0.176E+00  0.176E+00
   1.250  0.168E+00  0.168E+00  0.168E+00  0.168E+00
   1.260  0.160E+00  0.160E+00  0.160E+00  0.160E+00
   1.270  0.151E+00  0.150E+00  0.151E+00  0.150E+00
   1.280  0.143E+00  0.142E+00  0.143E+00  0.142E+00
   1.290  0.139E+00  0.139E+00  0.139E+00  0.139E+00
   1.300  0.136E+00  0.136E+00  0.136E+00  0.136E+00
   1.310  0.138E+00  0.138E+00  0.138E+00  0.138E+00
   1.320  0.141E+00  0.140E+00  0.141E+00  0.140E+00
   1.330  0.141E+00  0.141E+00  0.141E+00  0.141E+00
   1.340  0.122E+00  0.122E+00  0.122E+00  0.122E+00
   1.350  0.119E+00  0.119E+00  0.119E+00  0.119E+00
   1.360  0.128E+00  0.128E+00  0.128E+00  0.128E+00
   1.370  0.133E+00  0.133E+00  0.133E+00  0.133E+00
   1.380  0.133E+00  0.133E+00  0.133E+00  0.133E+00
   1.390  0.128E+00  0.128E+00  0.128E+00  0.128E+00
   1.400  0.122E+00  0.123E+00  0.122E+00  0.123E+00
   1.410  0.115E+00  0.116E+00  0.115E+00  0.116E+00
   1.420  0.110E+00  0.110E+00  0.110E+00  0.110E+00
   1.430  0.105E+00  0.106E+00  0.105E+00  0.106E+00
   1.440  0.101E+00  0.102E+00  0.101E+00  0.102E+00
   1.450  0.995E-01  0.100E+00  0.995E-01  0.100E+00
   1.460  0.979E-01  0.984E-01  0.979E-01  0.984E-01
   1.470  0.967E-01  0.972E-01  0.967E-01  0.972E-01
   1.480  0.967E-01  0.971E-01  0.967E-01  0.971E-01
   1.490  0.987E-01  0.990E-01  0.987E-01  0.990E-01
   1.500  0.100E+00  0.100E+00  0.100E+00  0.100E+00
   1.510  0.101E+00  0.101E+00  0.101E+00  0.101E+00
   1.520  0.985E-01  0.986E-01  0.985E-01  0.986E-01
   1.530  0.945E-01  0.946E-01  0.945E-01  0.946E-01
   1.540  0.913E-01  0.914E-01  0.913E-01  0.914E-01
   1.550  0.885E-01  0.885E-01  0.885E-01  0.885E-01
   1.560  0.841E-01  0.841E-01  0.841E-01  0.841E-01
   1.570  0.804E-01  0.803E-01  0.804E-01  0.803E-01
   1.580  0.769E-01  0.768E-01  0.769E-01  0.768E-01
   1.590  0.737E-01  0.735E-01  0.737E-01  0.735E-01
   1.600  0.707E-01  0.706E-01  0.707E-01  0.706E-01
   1.610  0.680E-01  0.679E-01  0.680E-01  0.679E-01
   1.620  0.650E-01  0.649E-01  0.650E-01  0.649E-01
   1.630  0.629E-01  0.628E-01  0.629E-01  0.628E-01
   1.640  0.624E-01  0.623E-01  0.624E-01  0.623E-01
   1.650  0.628E-01  0.627E-01  0.628E-01  0.627E-01
   1.660  0.639E-01  0.639E-01  0.639E-01  0.639E-01
   1.670  0.654E-01  0.654E-01  0.654E-01  0.654E-01
   1.680  0.671E-01  0.671E-01  0.671E-01  0.671E-01
   1.690  0.683E-01  0.683E-01  0.683E-01  0.683E-01
   1.700  0.675E-01  0.676E-01  0.675E-01  0.676E-01
   1.710  0.658E-01  0.659E-01  0.658E-01  0.659E-01
   1.720  0.625E-01  0.627E-01  0.625E-01  0.627E-01
   1.730  0.567E-01  0.569E-01  0.567E-01  0.569E-01
   1.740  0.500E-01  0.501E-01  0.500E-01  0.501E-01
   1.750  0.447E-01  0.448E-01  0.447E-01  0.448E-01
   1.760  0.440E-01  0.441E-01  0.440E-01  0.441E-01
   1.770  0.493E-01  0.493E-01  0.493E-01  0.493E-01
   1.780  0.503E-01  0.503E-01  0.503E-01  0.503E-01
   1.790  0.487E-01  0.486E-01  0.487E-01  0.486E-01
   1.800  0.478E-01  0.477E-01  0.478E-01  0.477E-01
   1.810  0.489E-01  0.488E-01  0.489E-01  0.488E-01
   1.820  0.498E-01  0.497E-01  0.498E-01  0.497E-01
   1.830  0.506E-01  0.504E-01  0.506E-01  0.504E-01
   1.840  0.511E-01  0.509E-01  0.511E-01  0.509E-01
   1.850  0.515E-01  0.513E-01  0.515E-01  0.513E-01
   1.860  0.517E-01  0.516E-01  0.517E-01  0.516E-01
   1.870  0.519E-01  0.517E-01  0.519E-01  0.517E-01
   1.880  0.519E-01  0.517E-01  0.519E-01  0.517E-01
   1.890  0.517E-01  0.516E-01  0.517E-01  0.516E-01
   1.900  0.515E-01  0.514E-01  0.515E-01  0.514E-01
   1.910  0.511E-01  0.510E-01  0.511E-01  0.510E-01
   1.920  0.507E-01  0.506E-01  0.507E-01  0.506E-01
   1.930  0.508E-01  0.507E-01  0.508E-01  0.507E-01
   1.940  0.512E-01  0.511E-01  0.512E-01  0.511E-01
   1.950  0.514E-01  0.513E-01  0.514E-01  0.513E-01
   1.960  0.514E-01  0.514E-01  0.514E-01  0.514E-01
   1.970  0.512E-01  0.512E-01  0.512E-01  0.512E-01
   1.980  0.508E-01  0.508E-01  0.508E-01  0.508E-01
   1.990  0.502E-01  0.502E-01  0.502E-01  0.502E-01
   2.000  0.496E-01  0.497E-01  0.496E-01  0.497E-01
   2.010  0.492E-01  0.492E-01  0.492E-01  0.492E-01
   2.020  0.487E-01  0.487E-01  0.487E-01  0.487E-01
   2.030  0.482E-01  0.483E-01  0.482E-01  0.483E-01
   2.040  0.472E-01  0.473E-01  0.472E-01  0.473E-01
   2.050  0.478E-01  0.479E-01  0.478E-01  0.479E-01
   2.060  0.466E-01  0.467E-01  0.466E-01  0.467E-01
   2.070  0.447E-01  0.448E-01  0.447E-01  0.448E-01
   2.080  0.440E-01  0.442E-01  0.440E-01  0.442E-01
   2.090  0.438E-01  0.440E-01  0.438E-01  0.440E-01
   2.100  0.436E-01  0.439E-01  0.436E-01  0.439E-01
   2.110  0.432E-01  0.436E-01  0.432E-01  0.436E-01
   2.120  0.426E-01  0.430E-01  0.426E-01  0.430E-01
   2.130  0.418E-01  0.422E-01  0.418E-01  0.422E-01
   2.140  0.408E-01  0.412E-01  0.408E-01  0.412E-01
   2.150  0.395E-01  0.400E-01  0.395E-01  0.400E-01
   2.160  0.379E-01  0.384E-01  0.379E-01  0.384E-01
   2.170  0.366E-01  0.371E-01  0.366E-01  0.371E-01
   2.180  0.352E-01  0.357E-01  0.352E-01  0.357E-01
   2.190  0.339E-01  0.345E-01  0.339E-01  0.345E-01
   2.200  0.329E-01  0.335E-01  0.329E-01  0.335E-01
   2.210  0.322E-01  0.328E-01  0.322E-01  0.328E-01
   2.220  0.315E-01  0.321E-01  0.315E-01  0.321E-01
   2.230  0.308E-01  0.314E-01  0.308E-01  0.314E-01
   2.240  0.302E-01  0.308E-01  0.302E-01  0.308E-01
   2.250  0.297E-01  0.303E-01  0.297E-01  0.303E-01
   2.260  0.292E-01  0.298E-01  0.292E-01  0.298E-01
   2.270  0.288E-01  0.294E-01  0.288E-01  0.294E-01
   2.280  0.285E-01  0.291E-01  0.285E-01  0.291E-01
   2.290  0.283E-01  0.289E-01  0.283E-01  0.289E-01
   2.300  0.281E-01  0.287E-01  0.281E-01  0.287E-01
   2.310  0.280E-01  0.286E-01  0.280E-01  0.286E-01
   2.320  0.279E-01  0.284E-01  0.279E-01  0.284E-01
   2.330  0.278E-01  0.283E-01  0.278E-01  0.283E-01
   2.340  0.278E-01  0.282E-01  0.278E-01  0.282E-01
   2.350  0.282E-01  0.285E-01  0.282E-01  0.285E-01
   2.360  0.279E-01  0.281E-01  0.279E-01  0.281E-01
   2.370  0.284E-01  0.285E-01  0.284E-01  0.285E-01
   2.380  0.292E-01  0.291E-01  0.292E-01  0.291E-01
   2.390  0.305E-01  0.304E-01  0.305E-01  0.304E-01
   2.400  0.310E-01  0.307E-01  0.310E-01  0.307E-01
   2.410  0.308E-01  0.304E-01  0.308E-01  0.304E-01
   2.420  0.307E-01  0.302E-01  0.307E-01  0.302E-01
   2.430  0.308E-01  0.301E-01  0.308E-01  0.301E-01
   2.440  0.307E-01  0.299E-01  0.307E-01  0.299E-01
   2.450  0.306E-01  0.298E-01  0.306E-01  0.298E-01
   2.460  0.308E-01  0.300E-01  0.308E-01  0.300E-01
   2.470  0.313E-01  0.304E-01  0.313E-01  0.304E-01
   2.480  0.316E-01  0.308E-01  0.316E-01  0.308E-01
   2.490  0.314E-01  0.305E-01  0.314E-01  0.305E-01
   2.500  0.291E-01  0.282E-01  0.291E-01  0.282E-01
   2.510  0.287E-01  0.279E-01  0.287E-01  0.279E-01
   2.520  0.284E-01  0.276E-01  0.284E-01  0.276E-01
   2.530  0.280E-01  0.273E-01  0.280E-01  0.273E-01
   2.540  0.274E-01  0.268E-01  0.274E-01  0.268E-01
   2.550  0.266E-01  0.260E-01  0.266E-01  0.260E-01
   2.560  0.254E-01  0.249E-01  0.254E-01  0.249E-01
   2.570  0.243E-01  0.239E-01  0.243E-01  0.239E-01
   2.580  0.240E-01  0.236E-01  0.240E-01  0.236E-01
   2.590  0.242E-01  0.239E-01  0.242E-01  0.239E-01
   2.600  0.253E-01  0.251E-01  0.253E-01  0.251E-01
   2.610  0.277E-01  0.275E-01  0.277E-01  0.275E-01
   2.620  0.284E-01  0.283E-01  0.284E-01  0.283E-01
   2.630  0.292E-01  0.290E-01  0.292E-01  0.290E-01
   2.640  0.275E-01  0.273E-01  0.275E-01  0.273E-01
   2.650  0.255E-01  0.254E-01  0.255E-01  0.254E-01
   2.660  0.250E-01  0.248E-01  0.250E-01  0.248E-01
   2.670  0.256E-01  0.254E-01  0.256E-01  0.254E-01
   2.680  0.287E-01  0.286E-01  0.287E-01  0.286E-01
   2.690  0.373E-01  0.372E-01  0.373E-01  0.372E-01
   2.700  0.462E-01  0.461E-01  0.462E-01  0.461E-01
   2.710  0.593E-01  0.592E-01  0.593E-01  0.592E-01
   2.720  0.604E-01  0.603E-01  0.604E-01  0.603E-01
   2.730  0.549E-01  0.549E-01  0.549E-01  0.549E-01
   2.740  0.425E-01  0.425E-01  0.425E-01  0.425E-01
   2.750  0.361E-01  0.361E-01  0.361E-01  0.361E-01
   2.760  0.335E-01  0.334E-01  0.335E-01  0.334E-01
   2.770  0.336E-01  0.336E-01  0.336E-01  0.336E-01
   2.780  0.359E-01  0.359E-01  0.359E-01  0.359E-01
   2.790  0.385E-01  0.385E-01  0.385E-01  0.385E-01
   2.800  0.407E-01  0.407E-01  0.407E-01  0.407E-01
   2.810  0.422E-01  0.422E-01  0.422E-01  0.422E-01
   2.820  0.425E-01  0.425E-01  0.425E-01  0.425E-01
   2.830  0.413E-01  0.413E-01  0.413E-01  0.413E-01
   2.840  0.386E-01  0.386E-01  0.386E-01  0.386E-01
   2.850  0.369E-01  0.368E-01  0.369E-01  0.368E-01
   2.860  0.341E-01  0.341E-01  0.341E-01  0.341E-01
   2.870  0.333E-01  0.333E-01  0.333E-01  0.333E-01
   2.880  0.307E-01  0.306E-01  0.307E-01  0.306E-01
   2.890  0.287E-01  0.287E-01  0.287E-01  0.287E-01
   2.900  0.255E-01  0.255E-01  0.255E-01  0.255E-01
   2.910  0.262E-01  0.262E-01  0.262E-01  0.262E-01
   2.920  0.285E-01  0.285E-01  0.285E-01  0.285E-01
   2.930  0.329E-01  0.329E-01  0.329E-01  0.329E-01
   2.940  0.361E-01  0.361E-01  0.361E-01  0.361E-01
   2.950  0.380E-01  0.380E-01  0.380E-01  0.380E-01
   2.960  0.391E-01  0.391E-01  0.391E-01  0.391E-01
   2.970  0.396E-01  0.395E-01  0.396E-01  0.395E-01
   2.980  0.396E-01  0.396E-01  0.396E-01  0.396E-01
   2.990  0.392E-01  0.392E-01  0.392E-01  0.392E-01
   3.000  0.381E-01  0.381E-01  0.381E-01  0.381E-01
   3.010  0.366E-01  0.366E-01  0.366E-01  0.366E-01
   3.020  0.368E-01  0.368E-01  0.368E-01  0.368E-01
   3.030  0.391E-01  0.391E-01  0.391E-01  0.391E-01
   3.040  0.403E-01  0.404E-01  0.403E-01  0.404E-01
   3.050  0.387E-01  0.388E-01  0.387E-01  0.388E-01
   3.060  0.320E-01  0.321E-01  0.320E-01  0.321E-01
   3.070  0.315E-01  0.315E-01  0.315E-01  0.315E-01
   3.080  0.320E-01  0.320E-01  0.320E-01  0.320E-01
   3.090  0.335E-01  0.336E-01  0.335E-01  0.336E-01
   3.100  0.373E-01  0.373E-01  0.373E-01  0.373E-01
   3.110  0.426E-01  0.427E-01  0.426E-01  0.427E-01
   3.120  0.429E-01  0.429E-01  0.429E-01  0.429E-01
   3.130  0.389E-01  0.389E-01  0.389E-01  0.389E-01
   3.140  0.375E-01  0.375E-01  0.375E-01  0.375E-01
   3.150  0.367E-01  0.367E-01  0.367E-01  0.367E-01
   3.160  0.351E-01  0.351E-01  0.351E-01  0.351E-01
   3.170  0.327E-01  0.328E-01  0.327E-01  0.328E-01
   3.180  0.308E-01  0.308E-01  0.308E-01  0.308E-01
   3.190  0.298E-01  0.298E-01  0.298E-01  0.298E-01
   3.200  0.270E-01  0.271E-01  0.270E-01  0.271E-01
   3.210  0.262E-01  0.262E-01  0.262E-01  0.262E-01
   3.220  0.259E-01  0.258E-01  0.259E-01  0.258E-01
   3.230  0.247E-01  0.246E-01  0.247E-01  0.246E-01
   3.240  0.226E-01  0.226E-01  0.226E-01  0.226E-01
   3.250  0.224E-01  0.223E-01  0.224E-01  0.223E-01
   3.260  0.213E-01  0.212E-01  0.213E-01  0.212E-01
   3.270  0.218E-01  0.217E-01  0.218E-01  0.217E-01
   3.280  0.234E-01  0.234E-01  0.234E-01  0.234E-01
   3.290  0.252E-01  0.251E-01  0.252E-01  0.251E-01
   3.300  0.270E-01  0.269E-01  0.270E-01  0.269E-01
   3.310  0.295E-01  0.294E-01  0.295E-01  0.294E-01
   3.320  0.325E-01  0.324E-01  0.325E-01  0.324E-01
   3.330  0.339E-01  0.338E-01  0.339E-01  0.338E-01
   3.340  0.349E-01  0.348E-01  0.349E-01  0.348E-01
   3.350  0.363E-01  0.362E-01  0.363E-01  0.362E-01
   3.360  0.369E-01  0.369E-01  0.369E-01  0.369E-01
   3.370  0.357E-01  0.356E-01  0.357E-01  0.356E-01
   3.380  0.366E-01  0.366E-01  0.366E-01  0.366E-01
   3.390  0.400E-01  0.400E-01  0.400E-01  0.400E-01
   3.400  0.452E-01  0.452E-01  0.452E-01  0.452E-01
   3.410  0.477E-01  0.477E-01  0.477E-01  0.477E-01
   3.420  0.472E-01  0.473E-01  0.472E-01  0.473E-01
   3.430  0.436E-01  0.437E-01  0.436E-01  0.437E-01
   3.440  0.381E-01  0.382E-01  0.381E-01  0.382E-01
   3.450  0.322E-01  0.323E-01  0.322E-01  0.323E-01
   3.460  0.277E-01  0.278E-01  0.277E-01  0.278E-01
   3.470  0.287E-01  0.288E-01  0.287E-01  0.288E-01
   3.480  0.297E-01  0.298E-01  0.297E-01  0.298E-01
   3.490  0.313E-01  0.314E-01  0.313E-01  0.314E-01
   3.500  0.312E-01  0.313E-01  0.312E-01  0.313E-01
   3.510  0.305E-01  0.306E-01  0.305E-01  0.306E-01
   3.520  0.301E-01  0.302E-01  0.301E-01  0.302E-01
   3.530  0.294E-01  0.294E-01  0.294E-01  0.294E-01
   3.540  0.359E-01  0.358E-01  0.359E-01  0.358E-01
   3.550  0.385E-01  0.385E-01  0.385E-01  0.385E-01
   3.560  0.373E-01  0.372E-01  0.373E-01  0.372E-01
   3.570  0.353E-01  0.353E-01  0.353E-01  0.353E-01
   3.580  0.320E-01  0.323E-01  0.320E-01  0.323E-01
   3.590  0.300E-01  0.305E-01  0.300E-01  0.305E-01
   3.600  0.275E-01  0.278E-01  0.275E-01  0.278E-01
   3.610  0.238E-01  0.238E-01  0.238E-01  0.238E-01
   3.620  0.230E-01  0.226E-01  0.230E-01  0.226E-01
   3.630  0.271E-01  0.269E-01  0.271E-01  0.269E-01
   3.640  0.242E-01  0.240E-01  0.242E-01  0.240E-01
   3.650  0.247E-01  0.245E-01  0.247E-01  0.245E-01
   3.660  0.232E-01  0.232E-01  0.232E-01  0.232E-01
   3.670  0.214E-01  0.213E-01  0.214E-01  0.213E-01
   3.680  0.205E-01  0.205E-01  0.205E-01  0.205E-01
   3.690  0.200E-01  0.200E-01  0.200E-01  0.200E-01
   3.700  0.200E-01  0.200E-01  0.200E-01  0.200E-01
   3.710  0.209E-01  0.209E-01  0.209E-01  0.209E-01
   3.720  0.220E-01  0.221E-01  0.220E-01  0.221E-01
   3.730  0.220E-01  0.220E-01  0.220E-01  0.220E-01
   3.740  0.228E-01  0.228E-01  0.228E-01  0.228E-01
   3.750  0.246E-01  0.246E-01  0.246E-01  0.246E-01
   3.760  0.267E-01  0.267E-01  0.267E-01  0.267E-01
   3.770  0.275E-01  0.275E-01  0.275E-01  0.275E-01
   3.780  0.267E-01  0.267E-01  0.267E-01  0.267E-01
   3.790  0.259E-01  0.259E-01  0.259E-01  0.259E-01
   3.800  0.257E-01  0.258E-01  0.257E-01  0.258E-01
   3.810  0.250E-01  0.250E-01  0.250E-01  0.250E-01
   3.820  0.246E-01  0.245E-01  0.246E-01  0.245E-01
   3.830  0.245E-01  0.244E-01  0.245E-01  0.244E-01
   3.840  0.252E-01  0.251E-01  0.252E-01  0.251E-01
   3.850  0.269E-01  0.268E-01  0.269E-01  0.268E-01
   3.860  0.287E-01  0.286E-01  0.287E-01  0.286E-01
   3.870  0.304E-01  0.304E-01  0.304E-01  0.304E-01
   3.880  0.327E-01  0.326E-01  0.327E-01  0.326E-01
   3.890  0.337E-01  0.337E-01  0.337E-01  0.337E-01
   3.900  0.337E-01  0.337E-01  0.337E-01  0.337E-01
   3.910  0.322E-01  0.323E-01  0.322E-01  0.323E-01
   3.920  0.314E-01  0.314E-01  0.314E-01  0.314E-01
   3.930  0.252E-01  0.253E-01  0.252E-01  0.253E-01
   3.940  0.234E-01  0.234E-01  0.234E-01  0.234E-01
   3.950  0.215E-01  0.215E-01  0.215E-01  0.215E-01
   3.960  0.194E-01  0.194E-01  0.194E-01  0.194E-01
   3.970  0.179E-01  0.179E-01  0.179E-01  0.179E-01
   3.980  0.178E-01  0.178E-01  0.178E-01  0.178E-01
   3.990  0.188E-01  0.188E-01  0.188E-01  0.188E-01
   4.000  0.204E-01  0.204E-01  0.204E-01  0.204E-01
   4.010  0.202E-01  0.202E-01  0.202E-01  0.202E-01
   4.020  0.197E-01  0.197E-01  0.197E-01  0.197E-01
   4.030  0.192E-01  0.192E-01  0.192E-01  0.192E-01
   4.040  0.187E-01  0.187E-01  0.187E-01  0.187E-01
   4.050  0.160E-01  0.160E-01  0.160E-01  0.160E-01
   4.060  0.151E-01  0.151E-01  0.151E-01  0.151E-01
   4.070  0.147E-01  0.147E-01  0.147E-01  0.147E-01
   4.080  0.157E-01  0.157E-01  0.157E-01  0.157E-01
   4.090  0.152E-01  0.152E-01  0.152E-01  0.152E-01
   4.100  0.147E-01  0.147E-01  0.147E-01  0.147E-01
   4.110  0.149E-01  0.149E-01  0.149E-01  0.149E-01
   4.120  0.153E-01  0.153E-01  0.153E-01  0.153E-01
   4.130  0.157E-01  0.157E-01  0.157E-01  0.157E-01
   4.140  0.163E-01  0.163E-01  0.163E-01  0.163E-01
   4.150  0.180E-01  0.180E-01  0.180E-01  0.180E-01
   4.160  0.203E-01  0.203E-01  0.203E-01  0.203E-01
   4.170  0.224E-01  0.224E-01  0.224E-01  0.224E-01
   4.180  0.231E-01  0.231E-01  0.231E-01  0.231E-01
   4.190  0.201E-01  0.201E-01  0.201E-01  0.201E-01
   4.200  0.206E-01  0.206E-01  0.206E-01  0.206E-01
   4.210  0.205E-01  0.205E-01  0.205E-01  0.205E-01
   4.220  0.207E-01  0.207E-01  0.207E-01  0.207E-01
   4.230  0.204E-01  0.204E-01  0.204E-01  0.204E-01
   4.240  0.179E-01  0.179E-01  0.179E-01  0.179E-01
   4.250  0.151E-01  0.151E-01  0.151E-01  0.151E-01
   4.260  0.134E-01  0.134E-01  0.134E-01  0.134E-01
   4.270  0.120E-01  0.120E-01  0.120E-01  0.120E-01
   4.280  0.109E-01  0.109E-01  0.109E-01  0.109E-01
   4.290  0.104E-01  0.104E-01  0.104E-01  0.104E-01
   4.300  0.115E-01  0.114E-01  0.115E-01  0.114E-01
   4.310  0.155E-01  0.154E-01  0.155E-01  0.154E-01
   4.320  0.182E-01  0.181E-01  0.182E-01  0.181E-01
   4.330  0.205E-01  0.208E-01  0.205E-01  0.208E-01
   4.340  0.213E-01  0.216E-01  0.213E-01  0.216E-01
   4.350  0.207E-01  0.208E-01  0.207E-01  0.208E-01
   4.360  0.194E-01  0.194E-01  0.194E-01  0.194E-01
   4.370  0.185E-01  0.185E-01  0.185E-01  0.185E-01
   4.380  0.174E-01  0.174E-01  0.174E-01  0.174E-01
   4.390  0.165E-01  0.165E-01  0.165E-01  0.165E-01
   4.400  0.158E-01  0.157E-01  0.158E-01  0.157E-01
   4.410  0.151E-01  0.151E-01  0.151E-01  0.151E-01
   4.420  0.139E-01  0.138E-01  0.139E-01  0.138E-01
   4.430  0.122E-01  0.122E-01  0.122E-01  0.122E-01
   4.440  0.111E-01  0.111E-01  0.111E-01  0.111E-01
   4.450  0.117E-01  0.116E-01  0.117E-01  0.116E-01
   4.460  0.115E-01  0.115E-01  0.115E-01  0.115E-01
   4.470  0.115E-01  0.115E-01  0.115E-01  0.115E-01
   4.480  0.110E-01  0.110E-01  0.110E-01  0.110E-01
   4.490  0.111E-01  0.111E-01  0.111E-01  0.111E-01
   4.500  0.959E-02  0.959E-02  0.959E-02  0.959E-02
   4.510  0.856E-02  0.857E-02  0.856E-02  0.857E-02
   4.520  0.746E-02  0.746E-02  0.746E-02  0.746E-02
   4.530  0.677E-02  0.677E-02  0.677E-02  0.677E-02
   4.540  0.688E-02  0.689E-02  0.688E-02  0.689E-02
   4.550  0.722E-02  0.722E-02  0.722E-02  0.722E-02
   4.560  0.772E-02  0.772E-02  0.772E-02  0.772E-02
   4.570  0.833E-02  0.833E-02  0.833E-02  0.833E-02
   4.580  0.862E-02  0.863E-02  0.862E-02  0.863E-02
   4.590  0.942E-02  0.942E-02  0.942E-02  0.942E-02
   4.600  0.101E-01  0.101E-01  0.101E-01  0.101E-01
   4.610  0.104E-01  0.104E-01  0.104E-01  0.104E-01
   4.620  0.103E-01  0.103E-01  0.103E-01  0.103E-01
   4.630  0.101E-01  0.100E-01  0.101E-01  0.100E-01
   4.640  0.957E-02  0.957E-02  0.957E-02  0.957E-02
   4.650  0.902E-02  0.902E-02  0.902E-02  0.902E-02
   4.660  0.899E-02  0.899E-02  0.899E-02  0.899E-02
   4.670  0.939E-02  0.939E-02  0.939E-02  0.939E-02
   4.680  0.872E-02  0.872E-02  0.872E-02  0.872E-02
   4.690  0.731E-02  0.731E-02  0.731E-02  0.731E-02
   4.700  0.681E-02  0.681E-02  0.681E-02  0.681E-02
   4.710  0.662E-02  0.662E-02  0.662E-02  0.662E-02
   4.720  0.674E-02  0.674E-02  0.674E-02  0.674E-02
   4.730  0.723E-02  0.723E-02  0.723E-02  0.723E-02
   4.740  0.928E-02  0.928E-02  0.928E-02  0.928E-02
   4.750  0.136E-01  0.136E-01  0.136E-01  0.136E-01
   4.760  0.109E-01  0.109E-01  0.109E-01  0.109E-01
   4.770  0.968E-02  0.968E-02  0.968E-02  0.968E-02
   4.780  0.886E-02  0.886E-02  0.886E-02  0.886E-02
   4.790  0.811E-02  0.811E-02  0.811E-02  0.811E-02
   4.800  0.780E-02  0.779E-02  0.780E-02  0.779E-02
   4.810  0.727E-02  0.727E-02  0.727E-02  0.727E-02
   4.820  0.653E-02  0.653E-02  0.653E-02  0.653E-02
   4.830  0.572E-02  0.571E-02  0.572E-02  0.571E-02
   4.840  0.523E-02  0.523E-02  0.523E-02  0.523E-02
   4.850  0.483E-02  0.483E-02  0.483E-02  0.483E-02
   4.860  0.446E-02  0.445E-02  0.446E-02  0.445E-02
   4.870  0.412E-02  0.411E-02  0.412E-02  0.411E-02
   4.880  0.383E-02  0.382E-02  0.383E-02  0.382E-02
   4.890  0.359E-02  0.358E-02  0.359E-02  0.358E-02
   4.900  0.336E-02  0.335E-02  0.336E-02  0.335E-02
   4.910  0.314E-02  0.313E-02  0.314E-02  0.313E-02
   4.920  0.295E-02  0.295E-02  0.295E-02  0.295E-02
   4.930  0.284E-02  0.284E-02  0.284E-02  0.284E-02
   4.940  0.293E-02  0.293E-02  0.293E-02  0.293E-02
   4.950  0.364E-02  0.362E-02  0.364E-02  0.362E-02
   4.960  0.462E-02  0.460E-02  0.462E-02  0.460E-02
   4.970  0.501E-02  0.500E-02  0.501E-02  0.500E-02
   4.980  0.498E-02  0.498E-02  0.498E-02  0.498E-02
   4.990  0.488E-02  0.489E-02  0.488E-02  0.489E-02
   5.000  0.483E-02  0.485E-02  0.483E-02  0.485E-02
   5.010  0.476E-02  0.477E-02  0.476E-02  0.477E-02
   5.020  0.478E-02  0.480E-02  0.478E-02  0.480E-02
   5.030  0.465E-02  0.467E-02  0.465E-02  0.467E-02
   5.040  0.456E-02  0.458E-02  0.456E-02  0.458E-02
   5.050  0.449E-02  0.450E-02  0.449E-02  0.450E-02
   5.060  0.430E-02  0.431E-02  0.430E-02  0.431E-02
   5.070  0.403E-02  0.404E-02  0.403E-02  0.404E-02
   5.080  0.372E-02  0.372E-02  0.372E-02  0.372E-02
   5.090  0.335E-02  0.336E-02  0.335E-02  0.336E-02
   5.100  0.294E-02  0.295E-02  0.294E-02  0.295E-02
   5.110  0.251E-02  0.252E-02  0.251E-02  0.252E-02
   5.120  0.190E-02  0.190E-02  0.190E-02  0.190E-02
   5.130  0.160E-02  0.160E-02  0.160E-02  0.160E-02
   5.140  0.141E-02  0.141E-02  0.141E-02  0.141E-02
   5.150  0.129E-02  0.129E-02  0.129E-02  0.129E-02
   5.160  0.121E-02  0.121E-02  0.121E-02  0.121E-02
   5.170  0.122E-02  0.122E-02  0.122E-02  0.122E-02
   5.180  0.108E-02  0.108E-02  0.108E-02  0.108E-02
   5.190  0.102E-02  0.102E-02  0.102E-02  0.102E-02
   5.200  0.969E-03  0.970E-03  0.969E-03  0.970E-03
   5.210  0.957E-03  0.958E-03  0.957E-03  0.958E-03
   5.220  0.110E-02  0.110E-02  0.110E-02  0.110E-02
   5.230  0.143E-02  0.143E-02  0.143E-02  0.143E-02
   5.240  0.168E-02  0.168E-02  0.168E-02  0.168E-02
   5.250  0.178E-02  0.178E-02  0.178E-02  0.178E-02
   5.260  0.181E-02  0.181E-02  0.181E-02  0.181E-02
   5.270  0.177E-02  0.177E-02  0.177E-02  0.177E-02
   5.280  0.168E-02  0.168E-02  0.168E-02  0.168E-02
   5.290  0.155E-02  0.155E-02  0.155E-02  0.155E-02
   5.300  0.140E-02  0.140E-02  0.140E-02  0.140E-02
   5.310  0.124E-02  0.124E-02  0.124E-02  0.124E-02
   5.320  0.105E-02  0.105E-02  0.105E-02  0.105E-02
   5.330  0.950E-03  0.950E-03  0.950E-03  0.950E-03
   5.340  0.874E-03  0.874E-03  0.874E-03  0.874E-03
   5.350  0.742E-03  0.742E-03  0.742E-03  0.742E-03
   5.360  0.622E-03  0.622E-03  0.622E-03  0.622E-03
   5.370  0.527E-03  0.527E-03  0.527E-03  0.527E-03
   5.380  0.462E-03  0.461E-03  0.462E-03  0.461E-03
   5.390  0.404E-03  0.404E-03  0.404E-03  0.404E-03
   5.400  0.354E-03  0.354E-03  0.354E-03  0.354E-03
   5.410  0.309E-03  0.309E-03  0.309E-03  0.309E-03
   5.420  0.276E-03  0.276E-03  0.276E-03  0.276E-03
   5.430  0.308E-03  0.308E-03  0.308E-03  0.308E-03
   5.440  0.334E-03  0.333E-03  0.334E-03  0.333E-03
   5.450  0.260E-03  0.260E-03  0.260E-03  0.260E-03
   5.460  0.203E-03  0.203E-03  0.203E-03  0.203E-03
   5.470  0.132E-03  0.132E-03  0.132E-03  0.132E-03
   5.480  0.846E-04  0.846E-04  0.846E-04  0.846E-04
   5.490  0.511E-04  0.511E-04  0.511E-04  0.511E-04
   5.500  0.264E-04  0.264E-04  0.264E-04  0.264E-04
   5.510  0.561E-05  0.562E-05  0.561E-05  0.562E-05
   5.520 -0.645E-05 -0.645E-05 -0.645E-05 -0.645E-05
   5.530 -0.731E-05 -0.731E-05 -0.731E-05 -0.731E-05
   5.540  0.292E-06  0.292E-06  0.292E-06  0.292E-06
   5.550  0.334E-06  0.334E-06  0.334E-06  0.334E-06
   5.560 -0.964E-07 -0.964E-07 -0.964E-07 -0.964E-07
   5.570 -0.167E-06 -0.167E-06 -0.167E-06 -0.167E-06
   5.580 -0.837E-07 -0.837E-07 -0.837E-07 -0.837E-07
   5.590 -0.368E-08 -0.368E-08 -0.368E-08 -0.368E-08
   5.600  0.000E+00  0.000E+00  0.000E+00  0.000E+00
   5.610  0.000E+00  0.000E+00  0.000E+00  0.000E+00
   5.620  0.000E+00  0.000E+00  0.000E+00  0.000E+00
   5.630  0.000E+00  0.000E+00  0.000E+00  0.000E+00
   5.640  0.000E+00  0.000E+00  0.000E+00  0.000E+00
   5.650  0.000E+00  0.000E+00  0.000E+00  0.000E+00
   5.660  0.000E+00  0.000E+00  0.000E+00  0.000E+00
   5.670  0.000E+00  0.000E+00  0.000E+00  0.000E+00
   5.680  0.000E+00  0.000E+00  0.000E+00  0.000E+00
   5.690  0.000E+00  0.000E+00  0.000E+00  0.000E+00
   5.700  0.000E+00  0.000E+00  0.000E+00  0.000E+00
   5.710  0.000E+00  0.000E+00  0.000E+00  0.000E+00
   5.720  0.000E+00  0.000E+00  0.000E+00  0.000E+00
   5.730  0.000E+00  0.000E+00  0.000E+00  0.000E+00
   5.740  0.000E+00  0.000E+00  0.000E+00  0.000E+00
   5.750  0.000E+00  0.000E+00  0.000E+00  0.000E+00
   5.760  0.000E+00  0.000E+00  0.000E+00  0.000E+00
   5.770  0.000E+00  0.000E+00  0.000E+00  0.000E+00
   5.780  0.000E+00  0.000E+00  0.000E+00  0.000E+00
   5.790  0.000E+00  0.000E+00  0.000E+00  0.000E+00
   5.800  0.000E+00  0.000E+00  0.000E+00  0.000E+00
   5.810  0.000E+00  0.000E+00  0.000E+00  0.000E+00
   5.820  0.000E+00  0.000E+00  0.000E+00  0.000E+00
   5.830  0.000E+00  0.000E+00  0.000E+00  0.000E+00
   5.840  0.000E+00  0.000E+00  0.000E+00  0.000E+00
   5.850  0.000E+00  0.000E+00  0.000E+00  0.000E+00
   5.860  0.000E+00  0.000E+00  0.000E+00  0.000E+00
   5.870  0.000E+00  0.000E+00  0.000E+00  0.000E+00
   5.880  0.000E+00  0.000E+00  0.000E+00  0.000E+00
   5.890  0.000E+00  0.000E+00  0.000E+00  0.000E+00
   5.900  0.000E+00  0.000E+00  0.000E+00  0.000E+00
   5.910  0.000E+00  0.000E+00  0.000E+00  0.000E+00
   5.920  0.000E+00  0.000E+00  0.000E+00  0.000E+00
   5.930  0.000E+00  0.000E+00  0.000E+00  0.000E+00
   5.940  0.000E+00  0.000E+00  0.000E+00  0.000E+00
   5.950  0.000E+00  0.000E+00  0.000E+00  0.000E+00
   5.960  0.000E+00  0.000E+00  0.000E+00  0.000E+00
   5.970  0.000E+00  0.000E+00  0.000E+00  0.000E+00
   5.980  0.000E+00  0.000E+00  0.000E+00  0.000E+00
   5.990  0.000E+00  0.000E+00  0.000E+00  0.000E+00
   6.000  0.000E+00  0.000E+00  0.000E+00  0.000E+00
   6.010  0.000E+00  0.000E+00  0.000E+00  0.000E+00
   6.020  0.000E+00  0.000E+00  0.000E+00  0.000E+00
   6.030  0.000E+00  0.000E+00  0.000E+00  0.000E+00
   6.040  0.000E+00  0.000E+00  0.000E+00  0.000E+00
   6.050  0.000E+00  0.000E+00  0.000E+00  0.000E+00
   6.060  0.000E+00  0.000E+00  0.000E+00  0.000E+00
   6.070  0.000E+00  0.000E+00  0.000E+00  0.000E+00
   6.080  0.000E+00  0.000E+00  0.000E+00  0.000E+00
   6.090  0.000E+00  0.000E+00  0.000E+00  0.000E+00
   6.100  0.000E+00  0.000E+00  0.000E+00  0.000E+00
   6.110  0.000E+00  0.000E+00  0.000E+00  0.000E+00
   6.120  0.000E+00  0.000E+00  0.000E+00  0.000E+00
   6.130  0.000E+00  0.000E+00  0.000E+00  0.000E+00
   6.140  0.000E+00  0.000E+00  0.000E+00  0.000E+00
   6.150  0.000E+00  0.000E+00  0.000E+00  0.000E+00
   6.160  0.000E+00  0.000E+00  0.000E+00  0.000E+00
   6.170  0.000E+00  0.000E+00  0.000E+00  0.000E+00
   6.180  0.000E+00  0.000E+00  0.000E+00  0.000E+00
   6.190  0.000E+00  0.000E+00  0.000E+00  0.000E+00
   6.200  0.000E+00  0.000E+00  0.000E+00  0.000E+00
   6.210  0.000E+00  0.000E+00  0.000E+00  0.000E+00
   6.220  0.000E+00  0.000E+00  0.000E+00  0.000E+00
   6.230  0.000E+00  0.000E+00  0.000E+00  0.000E+00
   6.240  0.000E+00  0.000E+00  0.000E+00  0.000E+00
   6.250  0.000E+00  0.000E+00  0.000E+00  0.000E+00
   6.260  0.000E+00  0.000E+00  0.000E+00  0.000E+00
   6.270  0.000E+00  0.000E+00  0.000E+00  0.000E+00
   6.280  0.000E+00  0.000E+00  0.000E+00  0.000E+00
   6.290  0.000E+00  0.000E+00  0.000E+00  0.000E+00
   6.300  0.000E+00  0.000E+00  0.000E+00  0.000E+00
   6.310  0.000E+00  0.000E+00  0.000E+00  0.000E+00
   6.320  0.000E+00  0.000E+00  0.000E+00  0.000E+00
   6.330  0.000E+00  0.000E+00  0.000E+00  0.000E+00
   6.340  0.000E+00  0.000E+00  0.000E+00  0.000E+00
   6.350  0.000E+00  0.000E+00  0.000E+00  0.000E+00
   6.360  0.000E+00  0.000E+00  0.000E+00  0.000E+00
   6.370  0.000E+00  0.000E+00  0.000E+00  0.000E+00
   6.380  0.000E+00  0.000E+00  0.000E+00  0.000E+00
   6.390  0.000E+00  0.000E+00  0.000E+00  0.000E+00
   6.400  0.000E+00  0.000E+00  0.000E+00  0.000E+00
   6.410  0.000E+00  0.000E+00  0.000E+00  0.000E+00
   6.420  0.000E+00  0.000E+00  0.000E+00  0.000E+00
   6.430  0.000E+00  0.000E+00  0.000E+00  0.000E+00
   6.440  0.000E+00  0.000E+00  0.000E+00  0.000E+00
   6.450  0.000E+00  0.000E+00  0.000E+00  0.000E+00
   6.460  0.000E+00  0.000E+00  0.000E+00  0.000E+00
   6.470  0.000E+00  0.000E+00  0.000E+00  0.000E+00
   6.480  0.000E+00  0.000E+00  0.000E+00  0.000E+00
   6.490  0.000E+00  0.000E+00  0.000E+00  0.000E+00
   6.500  0.000E+00  0.000E+00  0.000E+00  0.000E+00
   6.510  0.000E+00  0.000E+00  0.000E+00  0.000E+00
   6.520  0.000E+00  0.000E+00  0.000E+00  0.000E+00
   6.530  0.000E+00  0.000E+00  0.000E+00  0.000E+00
   6.540  0.000E+00  0.000E+00  0.000E+00  0.000E+00
   6.550  0.000E+00  0.000E+00  0.000E+00  0.000E+00
   6.560  0.000E+00  0.000E+00  0.000E+00  0.000E+00
   6.570  0.000E+00  0.000E+00  0.000E+00  0.000E+00
   6.580  0.000E+00  0.000E+00  0.000E+00  0.000E+00
   6.590  0.000E+00  0.000E+00  0.000E+00  0.000E+00
   6.600  0.000E+00  0.000E+00  0.000E+00  0.000E+00
   6.610  0.000E+00  0.000E+00  0.000E+00  0.000E+00
   6.620  0.000E+00  0.000E+00  0.000E+00  0.000E+00
   6.630  0.000E+00  0.000E+00  0.000E+00  0.000E+00
   6.640  0.000E+00  0.000E+00  0.000E+00  0.000E+00
   6.650  0.000E+00  0.000E+00  0.000E+00  0.000E+00
   6.660  0.000E+00  0.000E+00  0.000E+00  0.000E+00
   6.670  0.000E+00  0.000E+00  0.000E+00  0.000E+00
   6.680  0.000E+00  0.000E+00  0.000E+00  0.000E+00
   6.690  0.000E+00  0.000E+00  0.000E+00  0.000E+00
   6.700  0.000E+00  0.000E+00  0.000E+00  0.000E+00
   6.710  0.000E+00  0.000E+00  0.000E+00  0.000E+00
   6.720  0.000E+00  0.000E+00  0.000E+00  0.000E+00
   6.730  0.000E+00  0.000E+00  0.000E+00  0.000E+00
   6.740  0.000E+00  0.000E+00  0.000E+00  0.000E+00
   6.750  0.000E+00  0.000E+00  0.000E+00  0.000E+00
   6.760  0.000E+00  0.000E+00  0.000E+00  0.000E+00
   6.770  0.000E+00  0.000E+00  0.000E+00  0.000E+00
   6.780  0.000E+00  0.000E+00  0.000E+00  0.000E+00
   6.790  0.000E+00  0.000E+00  0.000E+00  0.000E+00
   6.800  0.000E+00  0.000E+00  0.000E+00  0.000E+00
   6.810  0.000E+00  0.000E+00  0.000E+00  0.000E+00
   6.820  0.000E+00  0.000E+00  0.000E+00  0.000E+00
   6.830  0.000E+00  0.000E+00  0.000E+00  0.000E+00
   6.840  0.000E+00  0.000E+00  0.000E+00  0.000E+00
   6.850  0.000E+00  0.000E+00  0.000E+00  0.000E+00
   6.860  0.000E+00  0.000E+00  0.000E+00  0.000E+00
   6.870  0.000E+00  0.000E+00  0.000E+00  0.000E+00
   6.880  0.000E+00  0.000E+00  0.000E+00  0.000E+00
   6.890  0.000E+00  0.000E+00  0.000E+00  0.000E+00
   6.900  0.000E+00  0.000E+00  0.000E+00  0.000E+00
   6.910  0.000E+00  0.000E+00  0.000E+00  0.000E+00
   6.920  0.000E+00  0.000E+00  0.000E+00  0.000E+00
   6.930  0.000E+00  0.000E+00  0.000E+00  0.000E+00
   6.940  0.000E+00  0.000E+00  0.000E+00  0.000E+00
   6.950  0.000E+00  0.000E+00  0.000E+00  0.000E+00
   6.960  0.000E+00  0.000E+00  0.000E+00  0.000E+00
   6.970  0.000E+00  0.000E+00  0.000E+00  0.000E+00
   6.980  0.000E+00  0.000E+00  0.000E+00  0.000E+00
   6.990  0.000E+00  0.000E+00  0.000E+00  0.000E+00
   7.000  0.000E+00  0.000E+00  0.000E+00  0.000E+00
   7.010  0.000E+00  0.000E+00  0.000E+00  0.000E+00
   7.020  0.000E+00  0.000E+00  0.000E+00  0.000E+00
   7.030  0.000E+00  0.000E+00  0.000E+00  0.000E+00
   7.040  0.000E+00  0.000E+00  0.000E+00  0.000E+00
   7.050  0.000E+00  0.000E+00  0.000E+00  0.000E+00
   7.060  0.000E+00  0.000E+00  0.000E+00  0.000E+00
   7.070  0.000E+00  0.000E+00  0.000E+00  0.000E+00
   7.080  0.000E+00  0.000E+00  0.000E+00  0.000E+00
   7.090  0.000E+00  0.000E+00  0.000E+00  0.000E+00
   7.100  0.000E+00  0.000E+00  0.000E+00  0.000E+00
   7.110  0.000E+00  0.000E+00  0.000E+00  0.000E+00
   7.120  0.000E+00  0.000E+00  0.000E+00  0.000E+00
   7.130  0.000E+00  0.000E+00  0.000E+00  0.000E+00
   7.140  0.000E+00  0.000E+00  0.000E+00  0.000E+00
   7.150  0.000E+00  0.000E+00  0.000E+00  0.000E+00
   7.160  0.000E+00  0.000E+00  0.000E+00  0.000E+00
   7.170  0.000E+00  0.000E+00  0.000E+00  0.000E+00
   7.180  0.000E+00  0.000E+00  0.000E+00  0.000E+00
   7.190  0.000E+00  0.000E+00  0.000E+00  0.000E+00
   7.200  0.000E+00  0.000E+00  0.000E+00  0.000E+00
   7.210  0.000E+00  0.000E+00  0.000E+00  0.000E+00
   7.220  0.000E+00  0.000E+00  0.000E+00  0.000E+00
   7.230  0.000E+00  0.000E+00  0.000E+00  0.000E+00
   7.240  0.000E+00  0.000E+00  0.000E+00  0.000E+00
   7.250  0.000E+00  0.000E+00  0.000E+00  0.000E+00
   7.260  0.000E+00  0.000E+00  0.000E+00  0.000E+00
   7.270  0.000E+00  0.000E+00  0.000E+00  0.000E+00
   7.280  0.000E+00  0.000E+00  0.000E+00  0.000E+00
   7.290  0.000E+00  0.000E+00  0.000E+00  0.000E+00
   7.300  0.000E+00  0.000E+00  0.000E+00  0.000E+00
   7.310  0.000E+00  0.000E+00  0.000E+00  0.000E+00
   7.320  0.000E+00  0.000E+00  0.000E+00  0.000E+00
   7.330  0.000E+00  0.000E+00  0.000E+00  0.000E+00
   7.340  0.000E+00  0.000E+00  0.000E+00  0.000E+00
   7.350  0.000E+00  0.000E+00  0.000E+00  0.000E+00
   7.360  0.000E+00  0.000E+00  0.000E+00  0.000E+00
   7.370  0.000E+00  0.000E+00  0.000E+00  0.000E+00
   7.380  0.000E+00  0.000E+00  0.000E+00  0.000E+00
   7.390  0.000E+00  0.000E+00  0.000E+00  0.000E+00
   7.400  0.000E+00  0.000E+00  0.000E+00  0.000E+00
   7.410  0.000E+00  0.000E+00  0.000E+00  0.000E+00
   7.420  0.000E+00  0.000E+00  0.000E+00  0.000E+00
   7.430  0.000E+00  0.000E+00  0.000E+00  0.000E+00
   7.440  0.000E+00  0.000E+00  0.000E+00  0.000E+00
   7.450  0.000E+00  0.000E+00  0.000E+00  0.000E+00
   7.460  0.000E+00  0.000E+00  0.000E+00  0.000E+00
   7.470  0.166E-07  0.166E-07  0.166E-07  0.166E-07
   7.480  0.165E-05  0.165E-05  0.165E-05  0.165E-05
   7.490  0.593E-05  0.593E-05  0.593E-05  0.593E-05
   7.500  0.132E-04  0.132E-04  0.132E-04  0.132E-04
   7.510  0.309E-04  0.309E-04  0.309E-04  0.309E-04
   7.520  0.620E-04  0.620E-04  0.620E-04  0.620E-04
   7.530  0.106E-03  0.106E-03  0.106E-03  0.106E-03
   7.540  0.164E-03  0.164E-03  0.164E-03  0.164E-03
   7.550  0.234E-03  0.234E-03  0.234E-03  0.234E-03
   7.560  0.316E-03  0.316E-03  0.316E-03  0.316E-03
   7.570  0.411E-03  0.411E-03  0.411E-03  0.411E-03
   7.580  0.518E-03  0.518E-03  0.518E-03  0.518E-03
   7.590  0.636E-03  0.636E-03  0.636E-03  0.636E-03
   7.600  0.767E-03  0.767E-03  0.767E-03  0.767E-03
   7.610  0.909E-03  0.909E-03  0.909E-03  0.909E-03
   7.620  0.106E-02  0.106E-02  0.106E-02  0.106E-02
   7.630  0.123E-02  0.123E-02  0.123E-02  0.123E-02
   7.640  0.140E-02  0.140E-02  0.140E-02  0.140E-02
   7.650  0.159E-02  0.159E-02  0.159E-02  0.159E-02
   7.660  0.178E-02  0.178E-02  0.178E-02  0.178E-02
   7.670  0.197E-02  0.197E-02  0.197E-02  0.197E-02
   7.680  0.215E-02  0.215E-02  0.215E-02  0.215E-02
   7.690  0.234E-02  0.234E-02  0.234E-02  0.234E-02
   7.700  0.255E-02  0.255E-02  0.255E-02  0.255E-02
   7.710  0.275E-02  0.275E-02  0.275E-02  0.275E-02
   7.720  0.293E-02  0.293E-02  0.293E-02  0.293E-02
   7.730  0.311E-02  0.311E-02  0.311E-02  0.311E-02
   7.740  0.327E-02  0.327E-02  0.327E-02  0.327E-02
   7.750  0.343E-02  0.343E-02  0.343E-02  0.343E-02
   7.760  0.358E-02  0.358E-02  0.358E-02  0.358E-02
   7.770  0.372E-02  0.372E-02  0.372E-02  0.372E-02
   7.780  0.385E-02  0.385E-02  0.385E-02  0.385E-02
   7.790  0.397E-02  0.397E-02  0.397E-02  0.397E-02
   7.800  0.409E-02  0.409E-02  0.409E-02  0.409E-02
   7.810  0.419E-02  0.419E-02  0.419E-02  0.419E-02
   7.820  0.429E-02  0.429E-02  0.429E-02  0.429E-02
   7.830  0.438E-02  0.438E-02  0.438E-02  0.438E-02
   7.840  0.444E-02  0.444E-02  0.444E-02  0.444E-02
   7.850  0.448E-02  0.448E-02  0.448E-02  0.448E-02
   7.860  0.452E-02  0.452E-02  0.452E-02  0.452E-02
   7.870  0.459E-02  0.459E-02  0.459E-02  0.459E-02
   7.880  0.465E-02  0.465E-02  0.465E-02  0.465E-02
   7.890  0.472E-02  0.472E-02  0.472E-02  0.472E-02
   7.900  0.479E-02  0.479E-02  0.479E-02  0.479E-02
   7.910  0.488E-02  0.488E-02  0.488E-02  0.488E-02
   7.920  0.497E-02  0.497E-02  0.497E-02  0.497E-02
   7.930  0.507E-02  0.507E-02  0.507E-02  0.507E-02
   7.940  0.517E-02  0.517E-02  0.517E-02  0.517E-02
   7.950  0.529E-02  0.529E-02  0.529E-02  0.529E-02
   7.960  0.541E-02  0.541E-02  0.541E-02  0.541E-02
   7.970  0.553E-02  0.553E-02  0.553E-02  0.553E-02
   7.980  0.566E-02  0.566E-02  0.566E-02  0.566E-02
   7.990  0.580E-02  0.580E-02  0.580E-02  0.580E-02
   8.000  0.593E-02  0.593E-02  0.593E-02  0.593E-02
   8.010  0.607E-02  0.607E-02  0.607E-02  0.607E-02
   8.020  0.621E-02  0.621E-02  0.621E-02  0.621E-02
   8.030  0.635E-02  0.635E-02  0.635E-02  0.635E-02
   8.040  0.649E-02  0.649E-02  0.649E-02  0.649E-02
   8.050  0.663E-02  0.663E-02  0.663E-02  0.663E-02
   8.060  0.677E-02  0.677E-02  0.677E-02  0.677E-02
   8.070  0.691E-02  0.691E-02  0.691E-02  0.691E-02
   8.080  0.706E-02  0.706E-02  0.706E-02  0.706E-02
   8.090  0.721E-02  0.721E-02  0.721E-02  0.721E-02
   8.100  0.735E-02  0.735E-02  0.735E-02  0.735E-02
   8.110  0.750E-02  0.750E-02  0.750E-02  0.750E-02
   8.120  0.765E-02  0.765E-02  0.765E-02  0.765E-02
   8.130  0.780E-02  0.780E-02  0.780E-02  0.780E-02
   8.140  0.796E-02  0.796E-02  0.796E-02  0.796E-02
   8.150  0.812E-02  0.812E-02  0.812E-02  0.812E-02
   8.160  0.827E-02  0.827E-02  0.827E-02  0.827E-02
   8.170  0.840E-02  0.840E-02  0.840E-02  0.840E-02
   8.180  0.849E-02  0.849E-02  0.849E-02  0.849E-02
   8.190  0.855E-02  0.855E-02  0.855E-02  0.855E-02
   8.200  0.859E-02  0.859E-02  0.859E-02  0.859E-02
   8.210  0.863E-02  0.863E-02  0.863E-02  0.863E-02
   8.220  0.866E-02  0.866E-02  0.866E-02  0.866E-02
   8.230  0.869E-02  0.869E-02  0.869E-02  0.869E-02
   8.240  0.871E-02  0.871E-02  0.871E-02  0.871E-02
   8.250  0.876E-02  0.876E-02  0.876E-02  0.876E-02
   8.260  0.886E-02  0.886E-02  0.886E-02  0.886E-02
   8.270  0.900E-02  0.900E-02  0.900E-02  0.900E-02
   8.280  0.914E-02  0.914E-02  0.914E-02  0.914E-02
   8.290  0.928E-02  0.928E-02  0.928E-02  0.928E-02
   8.300  0.934E-02  0.934E-02  0.934E-02  0.934E-02
   8.310  0.937E-02  0.937E-02  0.937E-02  0.937E-02
   8.320  0.939E-02  0.939E-02  0.939E-02  0.939E-02
   8.330  0.947E-02  0.947E-02  0.947E-02  0.947E-02
   8.340  0.958E-02  0.958E-02  0.958E-02  0.958E-02
   8.350  0.969E-02  0.969E-02  0.969E-02  0.969E-02
   8.360  0.979E-02  0.979E-02  0.979E-02  0.979E-02
   8.370  0.989E-02  0.989E-02  0.989E-02  0.989E-02
   8.380  0.100E-01  0.100E-01  0.100E-01  0.100E-01
   8.390  0.101E-01  0.101E-01  0.101E-01  0.101E-01
   8.400  0.102E-01  0.102E-01  0.102E-01  0.102E-01
   8.410  0.103E-01  0.103E-01  0.103E-01  0.103E-01
   8.420  0.104E-01  0.104E-01  0.104E-01  0.104E-01
   8.430  0.105E-01  0.105E-01  0.105E-01  0.105E-01
   8.440  0.106E-01  0.106E-01  0.106E-01  0.106E-01
   8.450  0.107E-01  0.107E-01  0.107E-01  0.107E-01
   8.460  0.108E-01  0.108E-01  0.108E-01  0.108E-01
   8.470  0.109E-01  0.109E-01  0.109E-01  0.109E-01
   8.480  0.111E-01  0.111E-01  0.111E-01  0.111E-01
   8.490  0.112E-01  0.112E-01  0.112E-01  0.112E-01
   8.500  0.113E-01  0.113E-01  0.113E-01  0.113E-01
   8.510  0.114E-01  0.114E-01  0.114E-01  0.114E-01
   8.520  0.114E-01  0.114E-01  0.114E-01  0.114E-01
   8.530  0.114E-01  0.114E-01  0.114E-01  0.114E-01
   8.540  0.114E-01  0.114E-01  0.114E-01  0.114E-01
   8.550  0.114E-01  0.114E-01  0.114E-01  0.114E-01
   8.560  0.115E-01  0.115E-01  0.115E-01  0.115E-01
   8.570  0.116E-01  0.116E-01  0.116E-01  0.116E-01
   8.580  0.117E-01  0.117E-01  0.117E-01  0.117E-01
   8.590  0.118E-01  0.118E-01  0.118E-01  0.118E-01
   8.600  0.120E-01  0.120E-01  0.120E-01  0.120E-01
   8.610  0.121E-01  0.121E-01  0.121E-01  0.121E-01
   8.620  0.123E-01  0.123E-01  0.123E-01  0.123E-01
   8.630  0.125E-01  0.125E-01  0.125E-01  0.125E-01
   8.640  0.127E-01  0.127E-01  0.127E-01  0.127E-01
   8.650  0.129E-01  0.129E-01  0.129E-01  0.129E-01
   8.660  0.132E-01  0.132E-01  0.132E-01  0.132E-01
   8.670  0.134E-01  0.134E-01  0.134E-01  0.134E-01
   8.680  0.137E-01  0.137E-01  0.137E-01  0.137E-01
   8.690  0.140E-01  0.140E-01  0.140E-01  0.140E-01
   8.700  0.142E-01  0.142E-01  0.142E-01  0.142E-01
   8.710  0.145E-01  0.145E-01  0.145E-01  0.145E-01
   8.720  0.150E-01  0.150E-01  0.150E-01  0.150E-01
   8.730  0.159E-01  0.159E-01  0.159E-01  0.159E-01
   8.740  0.170E-01  0.170E-01  0.170E-01  0.170E-01
   8.750  0.184E-01  0.184E-01  0.184E-01  0.184E-01
   8.760  0.200E-01  0.200E-01  0.200E-01  0.200E-01
   8.770  0.214E-01  0.214E-01  0.214E-01  0.214E-01
   8.780  0.229E-01  0.229E-01  0.229E-01  0.229E-01
   8.790  0.246E-01  0.246E-01  0.246E-01  0.246E-01
   8.800  0.266E-01  0.266E-01  0.266E-01  0.266E-01
   8.810  0.291E-01  0.291E-01  0.291E-01  0.291E-01
   8.820  0.321E-01  0.321E-01  0.321E-01  0.321E-01
   8.830  0.359E-01  0.359E-01  0.359E-01  0.359E-01
   8.840  0.403E-01  0.403E-01  0.403E-01  0.403E-01
   8.850  0.448E-01  0.448E-01  0.448E-01  0.448E-01
   8.860  0.524E-01  0.524E-01  0.524E-01  0.524E-01
   8.870  0.635E-01  0.635E-01  0.635E-01  0.635E-01
   8.880  0.660E-01  0.660E-01  0.660E-01  0.660E-01
   8.890  0.908E-01  0.908E-01  0.908E-01  0.908E-01
   8.900  0.959E-01  0.959E-01  0.959E-01  0.959E-01
   8.910  0.992E-01  0.992E-01  0.992E-01  0.992E-01
   8.920  0.102E+00  0.102E+00  0.102E+00  0.102E+00
   8.930  0.102E+00  0.102E+00  0.102E+00  0.102E+00
   8.940  0.101E+00  0.101E+00  0.101E+00  0.101E+00
   8.950  0.101E+00  0.101E+00  0.101E+00  0.101E+00
   8.960  0.100E+00  0.100E+00  0.100E+00  0.100E+00
   8.970  0.101E+00  0.101E+00  0.101E+00  0.101E+00
   8.980  0.997E-01  0.997E-01  0.997E-01  0.997E-01
   8.990  0.807E-01  0.808E-01  0.807E-01  0.808E-01
   9.000  0.756E-01  0.757E-01  0.756E-01  0.757E-01
   9.010  0.741E-01  0.742E-01  0.741E-01  0.742E-01
   9.020  0.733E-01  0.734E-01  0.733E-01  0.734E-01
   9.030  0.726E-01  0.727E-01  0.726E-01  0.727E-01
   9.040  0.719E-01  0.720E-01  0.719E-01  0.720E-01
   9.050  0.715E-01  0.716E-01  0.715E-01  0.716E-01
   9.060  0.715E-01  0.715E-01  0.715E-01  0.715E-01
   9.070  0.717E-01  0.718E-01  0.717E-01  0.718E-01
   9.080  0.723E-01  0.724E-01  0.723E-01  0.724E-01
   9.090  0.726E-01  0.727E-01  0.726E-01  0.727E-01
   9.100  0.740E-01  0.741E-01  0.740E-01  0.741E-01
   9.110  0.765E-01  0.766E-01  0.765E-01  0.766E-01
   9.120  0.801E-01  0.802E-01  0.801E-01  0.802E-01
   9.130  0.845E-01  0.845E-01  0.845E-01  0.845E-01
   9.140  0.897E-01  0.897E-01  0.897E-01  0.897E-01
   9.150  0.960E-01  0.960E-01  0.960E-01  0.960E-01
   9.160  0.101E+00  0.101E+00  0.101E+00  0.101E+00
   9.170  0.106E+00  0.105E+00  0.106E+00  0.105E+00
   9.180  0.111E+00  0.111E+00  0.111E+00  0.111E+00
   9.190  0.116E+00  0.116E+00  0.116E+00  0.116E+00
   9.200  0.120E+00  0.120E+00  0.120E+00  0.120E+00
   9.210  0.125E+00  0.125E+00  0.125E+00  0.125E+00
   9.220  0.130E+00  0.129E+00  0.130E+00  0.129E+00
   9.230  0.135E+00  0.135E+00  0.135E+00  0.135E+00
   9.240  0.137E+00  0.137E+00  0.137E+00  0.137E+00
   9.250  0.139E+00  0.138E+00  0.139E+00  0.138E+00
   9.260  0.140E+00  0.140E+00  0.140E+00  0.140E+00
   9.270  0.141E+00  0.141E+00  0.141E+00  0.141E+00
   9.280  0.141E+00  0.141E+00  0.141E+00  0.141E+00
   9.290  0.142E+00  0.142E+00  0.142E+00  0.142E+00
   9.300  0.153E+00  0.153E+00  0.153E+00  0.153E+00
   9.310  0.115E+00  0.114E+00  0.115E+00  0.114E+00
   9.320  0.111E+00  0.110E+00  0.111E+00  0.110E+00
   9.330  0.109E+00  0.107E+00  0.109E+00  0.107E+00
   9.340  0.108E+00  0.107E+00  0.108E+00  0.107E+00
   9.350  0.109E+00  0.107E+00  0.109E+00  0.107E+00
   9.360  0.110E+00  0.109E+00  0.110E+00  0.109E+00
   9.370  0.117E+00  0.116E+00  0.117E+00  0.116E+00
   9.380  0.125E+00  0.125E+00  0.125E+00  0.125E+00
   9.390  0.134E+00  0.134E+00  0.134E+00  0.134E+00
   9.400  0.152E+00  0.152E+00  0.152E+00  0.152E+00
   9.410  0.179E+00  0.180E+00  0.179E+00  0.180E+00
   9.420  0.206E+00  0.208E+00  0.206E+00  0.208E+00
   9.430  0.219E+00  0.222E+00  0.219E+00  0.222E+00
   9.440  0.212E+00  0.215E+00  0.212E+00  0.215E+00
   9.450  0.161E+00  0.162E+00  0.161E+00  0.162E+00
   9.460  0.136E+00  0.137E+00  0.136E+00  0.137E+00
   9.470  0.129E+00  0.129E+00  0.129E+00  0.129E+00
   9.480  0.122E+00  0.122E+00  0.122E+00  0.122E+00
   9.490  0.116E+00  0.116E+00  0.116E+00  0.116E+00
   9.500  0.138E+00  0.139E+00  0.138E+00  0.139E+00
   9.510  0.874E-01  0.876E-01  0.874E-01  0.876E-01
   9.520  0.726E-01  0.727E-01  0.726E-01  0.727E-01
   9.530  0.663E-01  0.664E-01  0.663E-01  0.664E-01
   9.540  0.688E-01  0.688E-01  0.688E-01  0.688E-01
   9.550  0.742E-01  0.742E-01  0.742E-01  0.742E-01
   9.560  0.835E-01  0.835E-01  0.835E-01  0.835E-01
   9.570  0.939E-01  0.939E-01  0.939E-01  0.939E-01
   9.580  0.104E+00  0.104E+00  0.104E+00  0.104E+00
   9.590  0.114E+00  0.114E+00  0.114E+00  0.114E+00
   9.600  0.123E+00  0.123E+00  0.123E+00  0.123E+00
   9.610  0.135E+00  0.135E+00  0.135E+00  0.135E+00
   9.620  0.151E+00  0.151E+00  0.151E+00  0.151E+00
   9.630  0.159E+00  0.159E+00  0.159E+00  0.159E+00
   9.640  0.166E+00  0.166E+00  0.166E+00  0.166E+00
   9.650  0.172E+00  0.172E+00  0.172E+00  0.172E+00
   9.660  0.177E+00  0.177E+00  0.177E+00  0.177E+00
   9.670  0.178E+00  0.178E+00  0.178E+00  0.178E+00
   9.680  0.178E+00  0.178E+00  0.178E+00  0.178E+00
   9.690  0.196E+00  0.196E+00  0.196E+00  0.196E+00
   9.700  0.224E+00  0.224E+00  0.224E+00  0.224E+00
   9.710  0.310E+00  0.310E+00  0.310E+00  0.310E+00
   9.720  0.370E+00  0.369E+00  0.370E+00  0.369E+00
   9.730  0.327E+00  0.327E+00  0.327E+00  0.327E+00
   9.740  0.337E+00  0.337E+00  0.337E+00  0.337E+00
   9.750  0.322E+00  0.322E+00  0.322E+00  0.322E+00
   9.760  0.301E+00  0.301E+00  0.301E+00  0.301E+00
   9.770  0.275E+00  0.275E+00  0.275E+00  0.275E+00
   9.780  0.248E+00  0.248E+00  0.248E+00  0.248E+00
   9.790  0.225E+00  0.225E+00  0.225E+00  0.225E+00
   9.800  0.212E+00  0.213E+00  0.212E+00  0.213E+00
   9.810  0.212E+00  0.212E+00  0.212E+00  0.212E+00
   9.820  0.214E+00  0.214E+00  0.214E+00  0.214E+00
   9.830  0.221E+00  0.221E+00  0.221E+00  0.221E+00
   9.840  0.209E+00  0.208E+00  0.209E+00  0.208E+00
   9.850  0.207E+00  0.204E+00  0.207E+00  0.204E+00
   9.860  0.203E+00  0.200E+00  0.203E+00  0.200E+00
   9.870  0.211E+00  0.207E+00  0.211E+00  0.207E+00
   9.880  0.219E+00  0.216E+00  0.219E+00  0.216E+00
   9.890  0.231E+00  0.229E+00  0.231E+00  0.229E+00
   9.900  0.247E+00  0.245E+00  0.247E+00  0.245E+00
   9.910  0.272E+00  0.271E+00  0.272E+00  0.271E+00
   9.920  0.290E+00  0.291E+00  0.290E+00  0.291E+00
   9.930  0.304E+00  0.304E+00  0.304E+00  0.304E+00
   9.940  0.320E+00  0.322E+00  0.320E+00  0.322E+00
   9.950  0.318E+00  0.320E+00  0.318E+00  0.320E+00
   9.960  0.341E+00  0.343E+00  0.341E+00  0.343E+00
   9.970  0.366E+00  0.368E+00  0.366E+00  0.368E+00
   9.980  0.390E+00  0.391E+00  0.390E+00  0.391E+00
   9.990  0.378E+00  0.379E+00  0.378E+00  0.379E+00
  10.000  0.357E+00  0.358E+00  0.357E+00  0.358E+00
  10.010  0.336E+00  0.336E+00  0.336E+00  0.336E+00
  10.020  0.315E+00  0.315E+00  0.315E+00  0.315E+00
  10.030  0.318E+00  0.319E+00  0.318E+00  0.319E+00
  10.040  0.325E+00  0.325E+00  0.325E+00  0.325E+00
  10.050  0.325E+00  0.326E+00  0.325E+00  0.326E+00
  10.060  0.324E+00  0.325E+00  0.324E+00  0.325E+00
  10.070  0.320E+00  0.320E+00  0.320E+00  0.320E+00
  10.080  0.305E+00  0.306E+00  0.305E+00  0.306E+00
  10.090  0.293E+00  0.294E+00  0.293E+00  0.294E+00
  10.100  0.281E+00  0.282E+00  0.281E+00  0.282E+00
  10.110  0.265E+00  0.266E+00  0.265E+00  0.266E+00
  10.120  0.255E+00  0.256E+00  0.255E+00  0.256E+00
  10.130  0.252E+00  0.252E+00  0.252E+00  0.252E+00
  10.140  0.270E+00  0.271E+00  0.270E+00  0.271E+00
  10.150  0.345E+00  0.345E+00  0.345E+00  0.345E+00
  10.160  0.331E+00  0.331E+00  0.331E+00  0.331E+00
  10.170  0.309E+00  0.310E+00  0.309E+00  0.310E+00
  10.180  0.310E+00  0.310E+00  0.310E+00  0.310E+00
  10.190  0.334E+00  0.334E+00  0.334E+00  0.334E+00
  10.200  0.313E+00  0.313E+00  0.313E+00  0.313E+00
  10.210  0.281E+00  0.282E+00  0.281E+00  0.282E+00
  10.220  0.266E+00  0.266E+00  0.266E+00  0.266E+00
  10.230  0.247E+00  0.247E+00  0.247E+00  0.247E+00
  10.240  0.192E+00  0.192E+00  0.192E+00  0.192E+00
  10.250  0.177E+00  0.177E+00  0.177E+00  0.177E+00
  10.260  0.165E+00  0.165E+00  0.165E+00  0.165E+00
  10.270  0.160E+00  0.160E+00  0.160E+00  0.160E+00
  10.280  0.186E+00  0.186E+00  0.186E+00  0.186E+00
  10.290  0.199E+00  0.199E+00  0.199E+00  0.199E+00
  10.300  0.223E+00  0.223E+00  0.223E+00  0.223E+00
  10.310  0.240E+00  0.240E+00  0.240E+00  0.240E+00
  10.320  0.262E+00  0.262E+00  0.262E+00  0.262E+00
  10.330  0.277E+00  0.277E+00  0.277E+00  0.277E+00
  10.340  0.273E+00  0.273E+00  0.273E+00  0.273E+00
  10.350  0.279E+00  0.278E+00  0.279E+00  0.278E+00
  10.360  0.254E+00  0.254E+00  0.254E+00  0.254E+00
  10.370  0.226E+00  0.226E+00  0.226E+00  0.226E+00
  10.380  0.193E+00  0.193E+00  0.193E+00  0.193E+00
  10.390  0.170E+00  0.170E+00  0.170E+00  0.170E+00
  10.400  0.157E+00  0.157E+00  0.157E+00  0.157E+00
  10.410  0.147E+00  0.147E+00  0.147E+00  0.147E+00
  10.420  0.142E+00  0.142E+00  0.142E+00  0.142E+00
  10.430  0.137E+00  0.137E+00  0.137E+00  0.137E+00
  10.440  0.130E+00  0.129E+00  0.130E+00  0.129E+00
  10.450  0.129E+00  0.129E+00  0.129E+00  0.129E+00
  10.460  0.143E+00  0.142E+00  0.143E+00  0.142E+00
  10.470  0.156E+00  0.156E+00  0.156E+00  0.156E+00
  10.480  0.176E+00  0.176E+00  0.176E+00  0.176E+00
  10.490  0.185E+00  0.185E+00  0.185E+00  0.185E+00
  10.500  0.188E+00  0.187E+00  0.188E+00  0.187E+00
  10.510  0.185E+00  0.185E+00  0.185E+00  0.185E+00
  10.520  0.189E+00  0.189E+00  0.189E+00  0.189E+00
  10.530  0.204E+00  0.204E+00  0.204E+00  0.204E+00
  10.540  0.198E+00  0.198E+00  0.198E+00  0.198E+00
  10.550  0.189E+00  0.189E+00  0.189E+00  0.189E+00
  10.560  0.182E+00  0.182E+00  0.182E+00  0.182E+00
  10.570  0.177E+00  0.177E+00  0.177E+00  0.177E+00
  10.580  0.173E+00  0.173E+00  0.173E+00  0.173E+00
  10.590  0.168E+00  0.168E+00  0.168E+00  0.168E+00
  10.600  0.161E+00  0.161E+00  0.161E+00  0.161E+00
  10.610  0.157E+00  0.157E+00  0.157E+00  0.157E+00
  10.620  0.155E+00  0.155E+00  0.155E+00  0.155E+00
  10.630  0.153E+00  0.153E+00  0.153E+00  0.153E+00
  10.640  0.153E+00  0.153E+00  0.153E+00  0.153E+00
  10.650  0.151E+00  0.151E+00  0.151E+00  0.151E+00
  10.660  0.147E+00  0.147E+00  0.147E+00  0.147E+00
  10.670  0.143E+00  0.143E+00  0.143E+00  0.143E+00
  10.680  0.143E+00  0.143E+00  0.143E+00  0.143E+00
  10.690  0.146E+00  0.146E+00  0.146E+00  0.146E+00
  10.700  0.154E+00  0.154E+00  0.154E+00  0.154E+00
  10.710  0.145E+00  0.145E+00  0.145E+00  0.145E+00
  10.720  0.141E+00  0.141E+00  0.141E+00  0.141E+00
  10.730  0.139E+00  0.138E+00  0.139E+00  0.138E+00
  10.740  0.137E+00  0.137E+00  0.137E+00  0.137E+00
  10.750  0.135E+00  0.135E+00  0.135E+00  0.135E+00
  10.760  0.135E+00  0.134E+00  0.135E+00  0.134E+00
  10.770  0.128E+00  0.127E+00  0.128E+00  0.127E+00
  10.780  0.125E+00  0.125E+00  0.125E+00  0.125E+00
  10.790  0.124E+00  0.124E+00  0.124E+00  0.124E+00
  10.800  0.133E+00  0.132E+00  0.133E+00  0.132E+00
  10.810  0.169E+00  0.169E+00  0.169E+00  0.169E+00
  10.820  0.147E+00  0.147E+00  0.147E+00  0.147E+00
  10.830  0.125E+00  0.125E+00  0.125E+00  0.125E+00
  10.840  0.106E+00  0.106E+00  0.106E+00  0.106E+00
  10.850  0.906E-01  0.904E-01  0.906E-01  0.904E-01
  10.860  0.864E-01  0.863E-01  0.864E-01  0.863E-01
  10.870  0.839E-01  0.839E-01  0.839E-01  0.839E-01
  10.880  0.826E-01  0.826E-01  0.826E-01  0.826E-01
  10.890  0.825E-01  0.826E-01  0.825E-01  0.826E-01
  10.900  0.846E-01  0.847E-01  0.846E-01  0.847E-01
  10.910  0.947E-01  0.948E-01  0.947E-01  0.948E-01
  10.920  0.118E+00  0.118E+00  0.118E+00  0.118E+00
  10.930  0.155E+00  0.155E+00  0.155E+00  0.155E+00
  10.940  0.161E+00  0.161E+00  0.161E+00  0.161E+00
  10.950  0.156E+00  0.157E+00  0.156E+00  0.157E+00
  10.960  0.120E+00  0.120E+00  0.120E+00  0.120E+00
  10.970  0.103E+00  0.103E+00  0.103E+00  0.103E+00
  10.980  0.995E-01  0.999E-01  0.995E-01  0.999E-01
  10.990  0.977E-01  0.984E-01  0.977E-01  0.984E-01
  11.000  0.965E-01  0.972E-01  0.965E-01  0.972E-01
  11.010  0.957E-01  0.965E-01  0.957E-01  0.965E-01
  11.020  0.945E-01  0.954E-01  0.945E-01  0.954E-01
  11.030  0.925E-01  0.936E-01  0.925E-01  0.936E-01
  11.040  0.913E-01  0.926E-01  0.913E-01  0.926E-01
  11.050  0.986E-01  0.100E+00  0.986E-01  0.100E+00
  11.060  0.109E+00  0.110E+00  0.109E+00  0.110E+00
  11.070  0.996E-01  0.101E+00  0.996E-01  0.101E+00
  11.080  0.969E-01  0.989E-01  0.969E-01  0.989E-01
  11.090  0.951E-01  0.973E-01  0.951E-01  0.973E-01
  11.100  0.930E-01  0.954E-01  0.930E-01  0.954E-01
  11.110  0.907E-01  0.934E-01  0.907E-01  0.934E-01
  11.120  0.899E-01  0.928E-01  0.899E-01  0.928E-01
  11.130  0.903E-01  0.934E-01  0.903E-01  0.934E-01
  11.140  0.889E-01  0.924E-01  0.889E-01  0.924E-01
  11.150  0.860E-01  0.895E-01  0.860E-01  0.895E-01
  11.160  0.827E-01  0.859E-01  0.827E-01  0.859E-01
  11.170  0.806E-01  0.823E-01  0.806E-01  0.823E-01
  11.180  0.779E-01  0.783E-01  0.779E-01  0.783E-01
  11.190  0.741E-01  0.735E-01  0.741E-01  0.735E-01
  11.200  0.707E-01  0.696E-01  0.707E-01  0.696E-01
  11.210  0.688E-01  0.678E-01  0.688E-01  0.678E-01
  11.220  0.680E-01  0.669E-01  0.680E-01  0.669E-01
  11.230  0.690E-01  0.677E-01  0.690E-01  0.677E-01
  11.240  0.690E-01  0.677E-01  0.690E-01  0.677E-01
  11.250  0.691E-01  0.676E-01  0.691E-01  0.676E-01
  11.260  0.689E-01  0.674E-01  0.689E-01  0.674E-01
  11.270  0.102E+00  0.100E+00  0.102E+00  0.100E+00
  11.280  0.781E-01  0.765E-01  0.781E-01  0.765E-01
  11.290  0.791E-01  0.775E-01  0.791E-01  0.775E-01
  11.300  0.798E-01  0.782E-01  0.798E-01  0.782E-01
  11.310  0.806E-01  0.790E-01  0.806E-01  0.790E-01
  11.320  0.817E-01  0.801E-01  0.817E-01  0.801E-01
  11.330  0.826E-01  0.810E-01  0.826E-01  0.810E-01
  11.340  0.836E-01  0.821E-01  0.836E-01  0.821E-01
  11.350  0.847E-01  0.832E-01  0.847E-01  0.832E-01
  11.360  0.859E-01  0.845E-01  0.859E-01  0.845E-01
  11.370  0.873E-01  0.859E-01  0.873E-01  0.859E-01
  11.380  0.885E-01  0.873E-01  0.885E-01  0.873E-01
  11.390  0.907E-01  0.895E-01  0.907E-01  0.895E-01
  11.400  0.967E-01  0.957E-01  0.967E-01  0.957E-01
  11.410  0.113E+00  0.112E+00  0.113E+00  0.112E+00
  11.420  0.141E+00  0.140E+00  0.141E+00  0.140E+00
  11.430  0.169E+00  0.168E+00  0.169E+00  0.168E+00
  11.440  0.174E+00  0.174E+00  0.174E+00  0.174E+00
  11.450  0.178E+00  0.177E+00  0.178E+00  0.177E+00
  11.460  0.227E+00  0.226E+00  0.227E+00  0.226E+00
  11.470  0.195E+00  0.195E+00  0.195E+00  0.195E+00
  11.480  0.169E+00  0.169E+00  0.169E+00  0.169E+00
  11.490  0.158E+00  0.158E+00  0.158E+00  0.158E+00
  11.500  0.149E+00  0.149E+00  0.149E+00  0.149E+00
  11.510  0.145E+00  0.145E+00  0.145E+00  0.145E+00
  11.520  0.138E+00  0.138E+00  0.138E+00  0.138E+00
  11.530  0.148E+00  0.148E+00  0.148E+00  0.148E+00
  11.540  0.112E+00  0.112E+00  0.112E+00  0.112E+00
  11.550  0.949E-01  0.949E-01  0.949E-01  0.949E-01
  11.560  0.859E-01  0.859E-01  0.859E-01  0.859E-01
  11.570  0.866E-01  0.867E-01  0.866E-01  0.867E-01
  11.580  0.930E-01  0.930E-01  0.930E-01  0.930E-01
  11.590  0.998E-01  0.999E-01  0.998E-01  0.999E-01
  11.600  0.106E+00  0.106E+00  0.106E+00  0.106E+00
  11.610  0.109E+00  0.109E+00  0.109E+00  0.109E+00
  11.620  0.110E+00  0.111E+00  0.110E+00  0.111E+00
  11.630  0.114E+00  0.114E+00  0.114E+00  0.114E+00
  11.640  0.119E+00  0.119E+00  0.119E+00  0.119E+00
  11.650  0.119E+00  0.119E+00  0.119E+00  0.119E+00
  11.660  0.104E+00  0.104E+00  0.104E+00  0.104E+00
  11.670  0.104E+00  0.104E+00  0.104E+00  0.104E+00
  11.680  0.103E+00  0.103E+00  0.103E+00  0.103E+00
  11.690  0.102E+00  0.102E+00  0.102E+00  0.102E+00
  11.700  0.100E+00  0.100E+00  0.100E+00  0.100E+00
  11.710  0.985E-01  0.984E-01  0.985E-01  0.984E-01
  11.720  0.103E+00  0.103E+00  0.103E+00  0.103E+00
  11.730  0.937E-01  0.933E-01  0.937E-01  0.933E-01
  11.740  0.717E-01  0.716E-01  0.717E-01  0.716E-01
  11.750  0.659E-01  0.659E-01  0.659E-01  0.659E-01
  11.760  0.644E-01  0.644E-01  0.644E-01  0.644E-01
  11.770  0.544E-01  0.544E-01  0.544E-01  0.544E-01
  11.780  0.520E-01  0.520E-01  0.520E-01  0.520E-01
  11.790  0.513E-01  0.513E-01  0.513E-01  0.513E-01
  11.800  0.527E-01  0.527E-01  0.527E-01  0.527E-01
  11.810  0.546E-01  0.546E-01  0.546E-01  0.546E-01
  11.820  0.550E-01  0.550E-01  0.550E-01  0.550E-01
  11.830  0.565E-01  0.565E-01  0.565E-01  0.565E-01
  11.840  0.553E-01  0.553E-01  0.553E-01  0.553E-01
  11.850  0.487E-01  0.487E-01  0.487E-01  0.487E-01
  11.860  0.433E-01  0.433E-01  0.433E-01  0.433E-01
  11.870  0.352E-01  0.353E-01  0.352E-01  0.353E-01
  11.880  0.289E-01  0.289E-01  0.289E-01  0.289E-01
  11.890  0.261E-01  0.262E-01  0.261E-01  0.262E-01
  11.900  0.239E-01  0.239E-01  0.239E-01  0.239E-01
  11.910  0.218E-01  0.219E-01  0.218E-01  0.219E-01
  11.920  0.199E-01  0.199E-01  0.199E-01  0.199E-01
  11.930  0.182E-01  0.182E-01  0.182E-01  0.182E-01
  11.940  0.168E-01  0.168E-01  0.168E-01  0.168E-01
  11.950  0.155E-01  0.155E-01  0.155E-01  0.155E-01
  11.960  0.143E-01  0.143E-01  0.143E-01  0.143E-01
  11.970  0.132E-01  0.132E-01  0.132E-01  0.132E-01
  11.980  0.121E-01  0.121E-01  0.121E-01  0.121E-01
  11.990  0.111E-01  0.111E-01  0.111E-01  0.111E-01
  12.000  0.102E-01  0.103E-01  0.102E-01  0.103E-01
  12.010  0.958E-02  0.960E-02  0.958E-02  0.960E-02
