# E (eV)  ldosup(E)  ldosdw(E) pdosup(E)  pdosdw(E) 
   0.000  0.253E-01  0.253E-01  0.253E-01  0.253E-01
   0.010  0.334E-01  0.334E-01  0.334E-01  0.334E-01
   0.020  0.430E-01  0.430E-01  0.430E-01  0.430E-01
   0.030  0.414E-01  0.414E-01  0.414E-01  0.414E-01
   0.040  0.395E-01  0.395E-01  0.395E-01  0.395E-01
   0.050  0.394E-01  0.394E-01  0.394E-01  0.394E-01
   0.060  0.361E-01  0.361E-01  0.361E-01  0.361E-01
   0.070  0.369E-01  0.369E-01  0.369E-01  0.369E-01
   0.080  0.354E-01  0.354E-01  0.354E-01  0.354E-01
   0.090  0.447E-01  0.447E-01  0.447E-01  0.447E-01
   0.100  0.482E-01  0.482E-01  0.482E-01  0.482E-01
   0.110  0.506E-01  0.506E-01  0.506E-01  0.506E-01
   0.120  0.507E-01  0.507E-01  0.507E-01  0.507E-01
   0.130  0.423E-01  0.423E-01  0.423E-01  0.423E-01
   0.140  0.301E-01  0.301E-01  0.301E-01  0.301E-01
   0.150  0.216E-01  0.216E-01  0.216E-01  0.216E-01
   0.160  0.170E-01  0.170E-01  0.170E-01  0.170E-01
   0.170  0.129E-01  0.129E-01  0.129E-01  0.129E-01
   0.180  0.671E-02  0.671E-02  0.671E-02  0.671E-02
   0.190  0.145E-03  0.145E-03  0.145E-03  0.145E-03
   0.200  0.000E+00  0.000E+00  0.000E+00  0.000E+00
   0.210  0.000E+00  0.000E+00  0.000E+00  0.000E+00
   0.220  0.000E+00  0.000E+00  0.000E+00  0.000E+00
   0.230  0.000E+00  0.000E+00  0.000E+00  0.000E+00
   0.240  0.000E+00  0.000E+00  0.000E+00  0.000E+00
   0.250  0.000E+00  0.000E+00  0.000E+00  0.000E+00
   0.260  0.000E+00  0.000E+00  0.000E+00  0.000E+00
   0.270  0.000E+00  0.000E+00  0.000E+00  0.000E+00
   0.280  0.000E+00  0.000E+00  0.000E+00  0.000E+00
   0.290  0.000E+00  0.000E+00  0.000E+00  0.000E+00
   0.300  0.000E+00  0.000E+00  0.000E+00  0.000E+00
   0.310  0.000E+00  0.000E+00  0.000E+00  0.000E+00
   0.320  0.000E+00  0.000E+00  0.000E+00  0.000E+00
   0.330  0.000E+00  0.000E+00  0.000E+00  0.000E+00
   0.340 -0.148E-08 -0.156E-08 -0.148E-08 -0.156E-08
   0.350 -0.224E-07 -0.223E-07 -0.224E-07 -0.223E-07
   0.360 -0.106E-06 -0.107E-06 -0.106E-06 -0.107E-06
   0.370  0.242E-06  0.243E-06  0.242E-06  0.243E-06
   0.380  0.254E-05  0.255E-05  0.254E-05  0.255E-05
   0.390  0.845E-05  0.845E-05  0.845E-05  0.845E-05
   0.400  0.192E-04  0.192E-04  0.192E-04  0.192E-04
   0.410  0.418E-04  0.418E-04  0.418E-04  0.418E-04
   0.420  0.858E-04  0.858E-04  0.858E-04  0.858E-04
   0.430  0.158E-03  0.158E-03  0.158E-03  0.158E-03
   0.440  0.235E-03  0.235E-03  0.235E-03  0.235E-03
   0.450  0.298E-03  0.298E-03  0.298E-03  0.298E-03
   0.460  0.329E-03  0.329E-03  0.329E-03  0.329E-03
   0.470  0.324E-03  0.324E-03  0.324E-03  0.324E-03
   0.480  0.354E-03  0.354E-03  0.354E-03  0.354E-03
   0.490  0.407E-03  0.407E-03  0.407E-03  0.407E-03
   0.500  0.467E-03  0.467E-03  0.467E-03  0.467E-03
   0.510  0.554E-03  0.554E-03  0.554E-03  0.554E-03
   0.520  0.680E-03  0.681E-03  0.680E-03  0.681E-03
   0.530  0.784E-03  0.785E-03  0.784E-03  0.785E-03
   0.540  0.817E-03  0.817E-03  0.817E-03  0.817E-03
   0.550  0.828E-03  0.828E-03  0.828E-03  0.828E-03
   0.560  0.874E-03  0.874E-03  0.874E-03  0.874E-03
   0.570  0.963E-03  0.963E-03  0.963E-03  0.963E-03
   0.580  0.106E-02  0.106E-02  0.106E-02  0.106E-02
   0.590  0.117E-02  0.117E-02  0.117E-02  0.117E-02
   0.600  0.128E-02  0.128E-02  0.128E-02  0.128E-02
   0.610  0.141E-02  0.141E-02  0.141E-02  0.141E-02
   0.620  0.155E-02  0.155E-02  0.155E-02  0.155E-02
   0.630  0.170E-02  0.170E-02  0.170E-02  0.170E-02
   0.640  0.188E-02  0.188E-02  0.188E-02  0.188E-02
   0.650  0.209E-02  0.209E-02  0.209E-02  0.209E-02
   0.660  0.233E-02  0.233E-02  0.233E-02  0.233E-02
   0.670  0.265E-02  0.265E-02  0.265E-02  0.265E-02
   0.680  0.311E-02  0.311E-02  0.311E-02  0.311E-02
   0.690  0.345E-02  0.346E-02  0.345E-02  0.346E-02
   0.700  0.359E-02  0.359E-02  0.359E-02  0.359E-02
   0.710  0.380E-02  0.380E-02  0.380E-02  0.380E-02
   0.720  0.391E-02  0.392E-02  0.391E-02  0.392E-02
   0.730  0.393E-02  0.394E-02  0.393E-02  0.394E-02
   0.740  0.395E-02  0.395E-02  0.395E-02  0.395E-02
   0.750  0.391E-02  0.391E-02  0.391E-02  0.391E-02
   0.760  0.374E-02  0.374E-02  0.374E-02  0.374E-02
   0.770  0.366E-02  0.366E-02  0.366E-02  0.366E-02
   0.780  0.371E-02  0.370E-02  0.371E-02  0.370E-02
   0.790  0.382E-02  0.381E-02  0.382E-02  0.381E-02
   0.800  0.399E-02  0.399E-02  0.399E-02  0.399E-02
   0.810  0.421E-02  0.421E-02  0.421E-02  0.421E-02
   0.820  0.452E-02  0.451E-02  0.452E-02  0.451E-02
   0.830  0.496E-02  0.495E-02  0.496E-02  0.495E-02
   0.840  0.558E-02  0.557E-02  0.558E-02  0.557E-02
   0.850  0.628E-02  0.627E-02  0.628E-02  0.627E-02
   0.860  0.708E-02  0.707E-02  0.708E-02  0.707E-02
   0.870  0.792E-02  0.790E-02  0.792E-02  0.790E-02
   0.880  0.863E-02  0.861E-02  0.863E-02  0.861E-02
   0.890  0.927E-02  0.925E-02  0.927E-02  0.925E-02
   0.900  0.970E-02  0.968E-02  0.970E-02  0.968E-02
   0.910  0.102E-01  0.102E-01  0.102E-01  0.102E-01
   0.920  0.105E-01  0.105E-01  0.105E-01  0.105E-01
   0.930  0.104E-01  0.104E-01  0.104E-01  0.104E-01
   0.940  0.998E-02  0.999E-02  0.998E-02  0.999E-02
   0.950  0.936E-02  0.937E-02  0.936E-02  0.937E-02
   0.960  0.879E-02  0.881E-02  0.879E-02  0.881E-02
   0.970  0.810E-02  0.811E-02  0.810E-02  0.811E-02
   0.980  0.787E-02  0.788E-02  0.787E-02  0.788E-02
   0.990  0.741E-02  0.742E-02  0.741E-02  0.742E-02
   1.000  0.876E-02  0.877E-02  0.876E-02  0.877E-02
   1.010  0.106E-01  0.106E-01  0.106E-01  0.106E-01
   1.020  0.200E-01  0.200E-01  0.200E-01  0.200E-01
   1.030  0.175E-01  0.175E-01  0.175E-01  0.175E-01
   1.040  0.184E-01  0.184E-01  0.184E-01  0.184E-01
   1.050  0.227E-01  0.226E-01  0.227E-01  0.226E-01
   1.060  0.193E-01  0.193E-01  0.193E-01  0.193E-01
   1.070  0.170E-01  0.169E-01  0.170E-01  0.169E-01
   1.080  0.250E-01  0.250E-01  0.250E-01  0.250E-01
   1.090  0.181E-01  0.182E-01  0.181E-01  0.182E-01
   1.100  0.141E-01  0.141E-01  0.141E-01  0.141E-01
   1.110  0.131E-01  0.131E-01  0.131E-01  0.131E-01
   1.120  0.110E-01  0.110E-01  0.110E-01  0.110E-01
   1.130  0.107E-01  0.107E-01  0.107E-01  0.107E-01
   1.140  0.169E-01  0.169E-01  0.169E-01  0.169E-01
   1.150  0.193E-01  0.193E-01  0.193E-01  0.193E-01
   1.160  0.167E-01  0.167E-01  0.167E-01  0.167E-01
   1.170  0.179E-01  0.178E-01  0.179E-01  0.178E-01
   1.180  0.207E-01  0.206E-01  0.207E-01  0.206E-01
   1.190  0.238E-01  0.237E-01  0.238E-01  0.237E-01
   1.200  0.234E-01  0.232E-01  0.234E-01  0.232E-01
   1.210  0.229E-01  0.227E-01  0.229E-01  0.227E-01
   1.220  0.226E-01  0.224E-01  0.226E-01  0.224E-01
   1.230  0.223E-01  0.221E-01  0.223E-01  0.221E-01
   1.240  0.219E-01  0.216E-01  0.219E-01  0.216E-01
   1.250  0.212E-01  0.209E-01  0.212E-01  0.209E-01
   1.260  0.208E-01  0.203E-01  0.208E-01  0.203E-01
   1.270  0.203E-01  0.199E-01  0.203E-01  0.199E-01
   1.280  0.202E-01  0.198E-01  0.202E-01  0.198E-01
   1.290  0.205E-01  0.201E-01  0.205E-01  0.201E-01
   1.300  0.209E-01  0.205E-01  0.209E-01  0.205E-01
   1.310  0.218E-01  0.214E-01  0.218E-01  0.214E-01
   1.320  0.220E-01  0.217E-01  0.220E-01  0.217E-01
   1.330  0.218E-01  0.216E-01  0.218E-01  0.216E-01
   1.340  0.198E-01  0.197E-01  0.198E-01  0.197E-01
   1.350  0.190E-01  0.191E-01  0.190E-01  0.191E-01
   1.360  0.207E-01  0.209E-01  0.207E-01  0.209E-01
   1.370  0.222E-01  0.225E-01  0.222E-01  0.225E-01
   1.380  0.230E-01  0.233E-01  0.230E-01  0.233E-01
   1.390  0.230E-01  0.233E-01  0.230E-01  0.233E-01
   1.400  0.227E-01  0.230E-01  0.227E-01  0.230E-01
   1.410  0.219E-01  0.223E-01  0.219E-01  0.223E-01
   1.420  0.211E-01  0.215E-01  0.211E-01  0.215E-01
   1.430  0.203E-01  0.207E-01  0.203E-01  0.207E-01
   1.440  0.197E-01  0.200E-01  0.197E-01  0.200E-01
   1.450  0.194E-01  0.198E-01  0.194E-01  0.198E-01
   1.460  0.193E-01  0.196E-01  0.193E-01  0.196E-01
   1.470  0.192E-01  0.195E-01  0.192E-01  0.195E-01
   1.480  0.191E-01  0.194E-01  0.191E-01  0.194E-01
   1.490  0.191E-01  0.193E-01  0.191E-01  0.193E-01
   1.500  0.190E-01  0.192E-01  0.190E-01  0.192E-01
   1.510  0.189E-01  0.190E-01  0.189E-01  0.190E-01
   1.520  0.183E-01  0.184E-01  0.183E-01  0.184E-01
   1.530  0.179E-01  0.179E-01  0.179E-01  0.179E-01
   1.540  0.179E-01  0.179E-01  0.179E-01  0.179E-01
   1.550  0.181E-01  0.181E-01  0.181E-01  0.181E-01
   1.560  0.181E-01  0.181E-01  0.181E-01  0.181E-01
   1.570  0.181E-01  0.181E-01  0.181E-01  0.181E-01
   1.580  0.180E-01  0.180E-01  0.180E-01  0.180E-01
   1.590  0.178E-01  0.178E-01  0.178E-01  0.178E-01
   1.600  0.176E-01  0.176E-01  0.176E-01  0.176E-01
   1.610  0.173E-01  0.173E-01  0.173E-01  0.173E-01
   1.620  0.169E-01  0.169E-01  0.169E-01  0.169E-01
   1.630  0.167E-01  0.166E-01  0.167E-01  0.166E-01
   1.640  0.167E-01  0.167E-01  0.167E-01  0.167E-01
   1.650  0.169E-01  0.169E-01  0.169E-01  0.169E-01
   1.660  0.172E-01  0.172E-01  0.172E-01  0.172E-01
   1.670  0.177E-01  0.177E-01  0.177E-01  0.177E-01
   1.680  0.183E-01  0.182E-01  0.183E-01  0.182E-01
   1.690  0.188E-01  0.188E-01  0.188E-01  0.188E-01
   1.700  0.192E-01  0.192E-01  0.192E-01  0.192E-01
   1.710  0.195E-01  0.194E-01  0.195E-01  0.194E-01
   1.720  0.193E-01  0.192E-01  0.193E-01  0.192E-01
   1.730  0.183E-01  0.182E-01  0.183E-01  0.182E-01
   1.740  0.168E-01  0.168E-01  0.168E-01  0.168E-01
   1.750  0.154E-01  0.153E-01  0.154E-01  0.153E-01
   1.760  0.146E-01  0.146E-01  0.146E-01  0.146E-01
   1.770  0.159E-01  0.159E-01  0.159E-01  0.159E-01
   1.780  0.167E-01  0.167E-01  0.167E-01  0.167E-01
   1.790  0.161E-01  0.161E-01  0.161E-01  0.161E-01
   1.800  0.158E-01  0.158E-01  0.158E-01  0.158E-01
   1.810  0.163E-01  0.164E-01  0.163E-01  0.164E-01
   1.820  0.168E-01  0.168E-01  0.168E-01  0.168E-01
   1.830  0.171E-01  0.172E-01  0.171E-01  0.172E-01
   1.840  0.175E-01  0.175E-01  0.175E-01  0.175E-01
   1.850  0.177E-01  0.177E-01  0.177E-01  0.177E-01
   1.860  0.179E-01  0.179E-01  0.179E-01  0.179E-01
   1.870  0.179E-01  0.180E-01  0.179E-01  0.180E-01
   1.880  0.179E-01  0.180E-01  0.179E-01  0.180E-01
   1.890  0.178E-01  0.178E-01  0.178E-01  0.178E-01
   1.900  0.175E-01  0.176E-01  0.175E-01  0.176E-01
   1.910  0.173E-01  0.174E-01  0.173E-01  0.174E-01
   1.920  0.172E-01  0.173E-01  0.172E-01  0.173E-01
   1.930  0.174E-01  0.174E-01  0.174E-01  0.174E-01
   1.940  0.177E-01  0.177E-01  0.177E-01  0.177E-01
   1.950  0.180E-01  0.180E-01  0.180E-01  0.180E-01
   1.960  0.182E-01  0.182E-01  0.182E-01  0.182E-01
   1.970  0.184E-01  0.184E-01  0.184E-01  0.184E-01
   1.980  0.186E-01  0.185E-01  0.186E-01  0.185E-01
   1.990  0.187E-01  0.186E-01  0.187E-01  0.186E-01
   2.000  0.188E-01  0.187E-01  0.188E-01  0.187E-01
   2.010  0.189E-01  0.188E-01  0.189E-01  0.188E-01
   2.020  0.190E-01  0.189E-01  0.190E-01  0.189E-01
   2.030  0.190E-01  0.189E-01  0.190E-01  0.189E-01
   2.040  0.187E-01  0.186E-01  0.187E-01  0.186E-01
   2.050  0.190E-01  0.188E-01  0.190E-01  0.188E-01
   2.060  0.185E-01  0.183E-01  0.185E-01  0.183E-01
   2.070  0.177E-01  0.175E-01  0.177E-01  0.175E-01
   2.080  0.174E-01  0.172E-01  0.174E-01  0.172E-01
   2.090  0.173E-01  0.171E-01  0.173E-01  0.171E-01
   2.100  0.173E-01  0.171E-01  0.173E-01  0.171E-01
   2.110  0.174E-01  0.171E-01  0.174E-01  0.171E-01
   2.120  0.174E-01  0.172E-01  0.174E-01  0.172E-01
   2.130  0.174E-01  0.171E-01  0.174E-01  0.171E-01
   2.140  0.173E-01  0.170E-01  0.173E-01  0.170E-01
   2.150  0.170E-01  0.167E-01  0.170E-01  0.167E-01
   2.160  0.166E-01  0.162E-01  0.166E-01  0.162E-01
   2.170  0.161E-01  0.158E-01  0.161E-01  0.158E-01
   2.180  0.156E-01  0.152E-01  0.156E-01  0.152E-01
   2.190  0.150E-01  0.146E-01  0.150E-01  0.146E-01
   2.200  0.146E-01  0.142E-01  0.146E-01  0.142E-01
   2.210  0.143E-01  0.138E-01  0.143E-01  0.138E-01
   2.220  0.139E-01  0.135E-01  0.139E-01  0.135E-01
   2.230  0.136E-01  0.131E-01  0.136E-01  0.131E-01
   2.240  0.132E-01  0.127E-01  0.132E-01  0.127E-01
   2.250  0.129E-01  0.124E-01  0.129E-01  0.124E-01
   2.260  0.126E-01  0.121E-01  0.126E-01  0.121E-01
   2.270  0.124E-01  0.120E-01  0.124E-01  0.120E-01
   2.280  0.124E-01  0.120E-01  0.124E-01  0.120E-01
   2.290  0.125E-01  0.120E-01  0.125E-01  0.120E-01
   2.300  0.126E-01  0.121E-01  0.126E-01  0.121E-01
   2.310  0.127E-01  0.123E-01  0.127E-01  0.123E-01
   2.320  0.129E-01  0.125E-01  0.129E-01  0.125E-01
   2.330  0.131E-01  0.127E-01  0.131E-01  0.127E-01
   2.340  0.134E-01  0.130E-01  0.134E-01  0.130E-01
   2.350  0.136E-01  0.133E-01  0.136E-01  0.133E-01
   2.360  0.129E-01  0.127E-01  0.129E-01  0.127E-01
   2.370  0.128E-01  0.127E-01  0.128E-01  0.127E-01
   2.380  0.132E-01  0.132E-01  0.132E-01  0.132E-01
   2.390  0.138E-01  0.139E-01  0.138E-01  0.139E-01
   2.400  0.139E-01  0.141E-01  0.139E-01  0.141E-01
   2.410  0.135E-01  0.138E-01  0.135E-01  0.138E-01
   2.420  0.132E-01  0.136E-01  0.132E-01  0.136E-01
   2.430  0.129E-01  0.134E-01  0.129E-01  0.134E-01
   2.440  0.126E-01  0.131E-01  0.126E-01  0.131E-01
   2.450  0.122E-01  0.128E-01  0.122E-01  0.128E-01
   2.460  0.119E-01  0.125E-01  0.119E-01  0.125E-01
   2.470  0.115E-01  0.121E-01  0.115E-01  0.121E-01
   2.480  0.111E-01  0.117E-01  0.111E-01  0.117E-01
   2.490  0.105E-01  0.111E-01  0.105E-01  0.111E-01
   2.500  0.956E-02  0.102E-01  0.956E-02  0.102E-01
   2.510  0.907E-02  0.964E-02  0.907E-02  0.964E-02
   2.520  0.884E-02  0.939E-02  0.884E-02  0.939E-02
   2.530  0.868E-02  0.920E-02  0.868E-02  0.920E-02
   2.540  0.835E-02  0.884E-02  0.835E-02  0.884E-02
   2.550  0.786E-02  0.830E-02  0.786E-02  0.830E-02
   2.560  0.731E-02  0.771E-02  0.731E-02  0.771E-02
   2.570  0.695E-02  0.732E-02  0.695E-02  0.732E-02
   2.580  0.700E-02  0.731E-02  0.700E-02  0.731E-02
   2.590  0.742E-02  0.769E-02  0.742E-02  0.769E-02
   2.600  0.834E-02  0.857E-02  0.834E-02  0.857E-02
   2.610  0.994E-02  0.101E-01  0.994E-02  0.101E-01
   2.620  0.110E-01  0.111E-01  0.110E-01  0.111E-01
   2.630  0.121E-01  0.122E-01  0.121E-01  0.122E-01
   2.640  0.124E-01  0.125E-01  0.124E-01  0.125E-01
   2.650  0.125E-01  0.126E-01  0.125E-01  0.126E-01
   2.660  0.130E-01  0.130E-01  0.130E-01  0.130E-01
   2.670  0.138E-01  0.139E-01  0.138E-01  0.139E-01
   2.680  0.162E-01  0.163E-01  0.162E-01  0.163E-01
   2.690  0.232E-01  0.233E-01  0.232E-01  0.233E-01
   2.700  0.281E-01  0.281E-01  0.281E-01  0.281E-01
   2.710  0.317E-01  0.317E-01  0.317E-01  0.317E-01
   2.720  0.267E-01  0.268E-01  0.267E-01  0.268E-01
   2.730  0.221E-01  0.222E-01  0.221E-01  0.222E-01
   2.740  0.146E-01  0.146E-01  0.146E-01  0.146E-01
   2.750  0.122E-01  0.122E-01  0.122E-01  0.122E-01
   2.760  0.112E-01  0.112E-01  0.112E-01  0.112E-01
   2.770  0.108E-01  0.109E-01  0.108E-01  0.109E-01
   2.780  0.110E-01  0.111E-01  0.110E-01  0.111E-01
   2.790  0.117E-01  0.118E-01  0.117E-01  0.118E-01
   2.800  0.123E-01  0.124E-01  0.123E-01  0.124E-01
   2.810  0.130E-01  0.131E-01  0.130E-01  0.131E-01
   2.820  0.136E-01  0.137E-01  0.136E-01  0.137E-01
   2.830  0.135E-01  0.135E-01  0.135E-01  0.135E-01
   2.840  0.140E-01  0.141E-01  0.140E-01  0.141E-01
   2.850  0.130E-01  0.131E-01  0.130E-01  0.131E-01
   2.860  0.108E-01  0.109E-01  0.108E-01  0.109E-01
   2.870  0.971E-02  0.973E-02  0.971E-02  0.973E-02
   2.880  0.878E-02  0.879E-02  0.878E-02  0.879E-02
   2.890  0.807E-02  0.807E-02  0.807E-02  0.807E-02
   2.900  0.741E-02  0.741E-02  0.741E-02  0.741E-02
   2.910  0.784E-02  0.784E-02  0.784E-02  0.784E-02
   2.920  0.911E-02  0.911E-02  0.911E-02  0.911E-02
   2.930  0.117E-01  0.117E-01  0.117E-01  0.117E-01
   2.940  0.131E-01  0.131E-01  0.131E-01  0.131E-01
   2.950  0.142E-01  0.142E-01  0.142E-01  0.142E-01
   2.960  0.151E-01  0.151E-01  0.151E-01  0.151E-01
   2.970  0.159E-01  0.159E-01  0.159E-01  0.159E-01
   2.980  0.167E-01  0.167E-01  0.167E-01  0.167E-01
   2.990  0.172E-01  0.172E-01  0.172E-01  0.172E-01
   3.000  0.172E-01  0.172E-01  0.172E-01  0.172E-01
   3.010  0.170E-01  0.170E-01  0.170E-01  0.170E-01
   3.020  0.176E-01  0.176E-01  0.176E-01  0.176E-01
   3.030  0.177E-01  0.177E-01  0.177E-01  0.177E-01
   3.040  0.154E-01  0.154E-01  0.154E-01  0.154E-01
   3.050  0.134E-01  0.134E-01  0.134E-01  0.134E-01
   3.060  0.119E-01  0.119E-01  0.119E-01  0.119E-01
   3.070  0.114E-01  0.114E-01  0.114E-01  0.114E-01
   3.080  0.114E-01  0.114E-01  0.114E-01  0.114E-01
   3.090  0.118E-01  0.118E-01  0.118E-01  0.118E-01
   3.100  0.134E-01  0.134E-01  0.134E-01  0.134E-01
   3.110  0.163E-01  0.163E-01  0.163E-01  0.163E-01
   3.120  0.166E-01  0.166E-01  0.166E-01  0.166E-01
   3.130  0.145E-01  0.145E-01  0.145E-01  0.145E-01
   3.140  0.139E-01  0.139E-01  0.139E-01  0.139E-01
   3.150  0.139E-01  0.139E-01  0.139E-01  0.139E-01
   3.160  0.133E-01  0.133E-01  0.133E-01  0.133E-01
   3.170  0.126E-01  0.126E-01  0.126E-01  0.126E-01
   3.180  0.120E-01  0.120E-01  0.120E-01  0.120E-01
   3.190  0.114E-01  0.114E-01  0.114E-01  0.114E-01
   3.200  0.977E-02  0.977E-02  0.977E-02  0.977E-02
   3.210  0.912E-02  0.896E-02  0.912E-02  0.896E-02
   3.220  0.868E-02  0.865E-02  0.868E-02  0.865E-02
   3.230  0.770E-02  0.769E-02  0.770E-02  0.769E-02
   3.240  0.667E-02  0.667E-02  0.667E-02  0.667E-02
   3.250  0.773E-02  0.773E-02  0.773E-02  0.773E-02
   3.260  0.663E-02  0.661E-02  0.663E-02  0.661E-02
   3.270  0.648E-02  0.646E-02  0.648E-02  0.646E-02
   3.280  0.688E-02  0.685E-02  0.688E-02  0.685E-02
   3.290  0.743E-02  0.739E-02  0.743E-02  0.739E-02
   3.300  0.804E-02  0.800E-02  0.804E-02  0.800E-02
   3.310  0.889E-02  0.885E-02  0.889E-02  0.885E-02
   3.320  0.100E-01  0.999E-02  0.100E-01  0.999E-02
   3.330  0.110E-01  0.109E-01  0.110E-01  0.109E-01
   3.340  0.120E-01  0.120E-01  0.120E-01  0.120E-01
   3.350  0.137E-01  0.137E-01  0.137E-01  0.137E-01
   3.360  0.147E-01  0.147E-01  0.147E-01  0.147E-01
   3.370  0.132E-01  0.133E-01  0.132E-01  0.133E-01
   3.380  0.138E-01  0.139E-01  0.138E-01  0.139E-01
   3.390  0.149E-01  0.149E-01  0.149E-01  0.149E-01
   3.400  0.171E-01  0.171E-01  0.171E-01  0.171E-01
   3.410  0.190E-01  0.191E-01  0.190E-01  0.191E-01
   3.420  0.198E-01  0.199E-01  0.198E-01  0.199E-01
   3.430  0.193E-01  0.194E-01  0.193E-01  0.194E-01
   3.440  0.179E-01  0.179E-01  0.179E-01  0.179E-01
   3.450  0.155E-01  0.155E-01  0.155E-01  0.155E-01
   3.460  0.133E-01  0.133E-01  0.133E-01  0.133E-01
   3.470  0.130E-01  0.130E-01  0.130E-01  0.130E-01
   3.480  0.131E-01  0.131E-01  0.131E-01  0.131E-01
   3.490  0.133E-01  0.133E-01  0.133E-01  0.133E-01
   3.500  0.130E-01  0.131E-01  0.130E-01  0.131E-01
   3.510  0.124E-01  0.125E-01  0.124E-01  0.125E-01
   3.520  0.124E-01  0.124E-01  0.124E-01  0.124E-01
   3.530  0.123E-01  0.123E-01  0.123E-01  0.123E-01
   3.540  0.151E-01  0.151E-01  0.151E-01  0.151E-01
   3.550  0.159E-01  0.159E-01  0.159E-01  0.159E-01
   3.560  0.154E-01  0.154E-01  0.154E-01  0.154E-01
   3.570  0.145E-01  0.144E-01  0.145E-01  0.144E-01
   3.580  0.126E-01  0.125E-01  0.126E-01  0.125E-01
   3.590  0.993E-02  0.975E-02  0.993E-02  0.975E-02
   3.600  0.784E-02  0.772E-02  0.784E-02  0.772E-02
   3.610  0.677E-02  0.679E-02  0.677E-02  0.679E-02
   3.620  0.590E-02  0.606E-02  0.590E-02  0.606E-02
   3.630  0.831E-02  0.839E-02  0.831E-02  0.839E-02
   3.640  0.718E-02  0.724E-02  0.718E-02  0.724E-02
   3.650  0.756E-02  0.761E-02  0.756E-02  0.761E-02
   3.660  0.645E-02  0.648E-02  0.645E-02  0.648E-02
   3.670  0.567E-02  0.569E-02  0.567E-02  0.569E-02
   3.680  0.533E-02  0.534E-02  0.533E-02  0.534E-02
   3.690  0.519E-02  0.519E-02  0.519E-02  0.519E-02
   3.700  0.558E-02  0.558E-02  0.558E-02  0.558E-02
   3.710  0.662E-02  0.662E-02  0.662E-02  0.662E-02
   3.720  0.774E-02  0.774E-02  0.774E-02  0.774E-02
   3.730  0.799E-02  0.799E-02  0.799E-02  0.799E-02
   3.740  0.843E-02  0.845E-02  0.843E-02  0.845E-02
   3.750  0.912E-02  0.913E-02  0.912E-02  0.913E-02
   3.760  0.107E-01  0.107E-01  0.107E-01  0.107E-01
   3.770  0.116E-01  0.116E-01  0.116E-01  0.116E-01
   3.780  0.119E-01  0.119E-01  0.119E-01  0.119E-01
   3.790  0.119E-01  0.119E-01  0.119E-01  0.119E-01
   3.800  0.120E-01  0.120E-01  0.120E-01  0.120E-01
   3.810  0.117E-01  0.117E-01  0.117E-01  0.117E-01
   3.820  0.115E-01  0.114E-01  0.115E-01  0.114E-01
   3.830  0.112E-01  0.111E-01  0.112E-01  0.111E-01
   3.840  0.108E-01  0.108E-01  0.108E-01  0.108E-01
   3.850  0.115E-01  0.116E-01  0.115E-01  0.116E-01
   3.860  0.121E-01  0.122E-01  0.121E-01  0.122E-01
   3.870  0.121E-01  0.121E-01  0.121E-01  0.121E-01
   3.880  0.116E-01  0.116E-01  0.116E-01  0.116E-01
   3.890  0.115E-01  0.115E-01  0.115E-01  0.115E-01
   3.900  0.119E-01  0.119E-01  0.119E-01  0.119E-01
   3.910  0.120E-01  0.120E-01  0.120E-01  0.120E-01
   3.920  0.132E-01  0.132E-01  0.132E-01  0.132E-01
   3.930  0.119E-01  0.119E-01  0.119E-01  0.119E-01
   3.940  0.113E-01  0.113E-01  0.113E-01  0.113E-01
   3.950  0.101E-01  0.101E-01  0.101E-01  0.101E-01
   3.960  0.849E-02  0.848E-02  0.849E-02  0.848E-02
   3.970  0.703E-02  0.703E-02  0.703E-02  0.703E-02
   3.980  0.604E-02  0.603E-02  0.604E-02  0.603E-02
   3.990  0.576E-02  0.576E-02  0.576E-02  0.576E-02
   4.000  0.601E-02  0.601E-02  0.601E-02  0.601E-02
   4.010  0.583E-02  0.584E-02  0.583E-02  0.584E-02
   4.020  0.559E-02  0.559E-02  0.559E-02  0.559E-02
   4.030  0.537E-02  0.537E-02  0.537E-02  0.537E-02
   4.040  0.508E-02  0.507E-02  0.508E-02  0.507E-02
   4.050  0.410E-02  0.410E-02  0.410E-02  0.410E-02
   4.060  0.399E-02  0.399E-02  0.399E-02  0.399E-02
   4.070  0.404E-02  0.403E-02  0.404E-02  0.403E-02
   4.080  0.451E-02  0.450E-02  0.451E-02  0.450E-02
   4.090  0.460E-02  0.460E-02  0.460E-02  0.460E-02
   4.100  0.467E-02  0.467E-02  0.467E-02  0.467E-02
   4.110  0.494E-02  0.494E-02  0.494E-02  0.494E-02
   4.120  0.526E-02  0.526E-02  0.526E-02  0.526E-02
   4.130  0.561E-02  0.562E-02  0.561E-02  0.562E-02
   4.140  0.619E-02  0.620E-02  0.619E-02  0.620E-02
   4.150  0.718E-02  0.718E-02  0.718E-02  0.718E-02
   4.160  0.888E-02  0.888E-02  0.888E-02  0.888E-02
   4.170  0.103E-01  0.103E-01  0.103E-01  0.103E-01
   4.180  0.926E-02  0.926E-02  0.926E-02  0.926E-02
   4.190  0.677E-02  0.677E-02  0.677E-02  0.677E-02
   4.200  0.677E-02  0.676E-02  0.677E-02  0.676E-02
   4.210  0.705E-02  0.704E-02  0.705E-02  0.704E-02
   4.220  0.830E-02  0.830E-02  0.830E-02  0.830E-02
   4.230  0.784E-02  0.785E-02  0.784E-02  0.785E-02
   4.240  0.660E-02  0.660E-02  0.660E-02  0.660E-02
   4.250  0.546E-02  0.547E-02  0.546E-02  0.547E-02
   4.260  0.472E-02  0.472E-02  0.472E-02  0.472E-02
   4.270  0.409E-02  0.409E-02  0.409E-02  0.409E-02
   4.280  0.358E-02  0.358E-02  0.358E-02  0.358E-02
   4.290  0.322E-02  0.322E-02  0.322E-02  0.322E-02
   4.300  0.356E-02  0.357E-02  0.356E-02  0.357E-02
   4.310  0.648E-02  0.648E-02  0.648E-02  0.648E-02
   4.320  0.790E-02  0.791E-02  0.790E-02  0.791E-02
   4.330  0.833E-02  0.825E-02  0.833E-02  0.825E-02
   4.340  0.874E-02  0.867E-02  0.874E-02  0.867E-02
   4.350  0.857E-02  0.854E-02  0.857E-02  0.854E-02
   4.360  0.823E-02  0.822E-02  0.823E-02  0.822E-02
   4.370  0.785E-02  0.786E-02  0.785E-02  0.786E-02
   4.380  0.743E-02  0.745E-02  0.743E-02  0.745E-02
   4.390  0.706E-02  0.708E-02  0.706E-02  0.708E-02
   4.400  0.677E-02  0.680E-02  0.677E-02  0.680E-02
   4.410  0.650E-02  0.652E-02  0.650E-02  0.652E-02
   4.420  0.599E-02  0.601E-02  0.599E-02  0.601E-02
   4.430  0.529E-02  0.531E-02  0.529E-02  0.531E-02
   4.440  0.464E-02  0.465E-02  0.464E-02  0.465E-02
   4.450  0.424E-02  0.425E-02  0.424E-02  0.425E-02
   4.460  0.394E-02  0.395E-02  0.394E-02  0.395E-02
   4.470  0.374E-02  0.374E-02  0.374E-02  0.374E-02
   4.480  0.366E-02  0.366E-02  0.366E-02  0.366E-02
   4.490  0.362E-02  0.362E-02  0.362E-02  0.362E-02
   4.500  0.284E-02  0.284E-02  0.284E-02  0.284E-02
   4.510  0.245E-02  0.244E-02  0.245E-02  0.244E-02
   4.520  0.217E-02  0.217E-02  0.217E-02  0.217E-02
   4.530  0.188E-02  0.188E-02  0.188E-02  0.188E-02
   4.540  0.196E-02  0.196E-02  0.196E-02  0.196E-02
   4.550  0.222E-02  0.222E-02  0.222E-02  0.222E-02
   4.560  0.270E-02  0.270E-02  0.270E-02  0.270E-02
   4.570  0.309E-02  0.308E-02  0.309E-02  0.308E-02
   4.580  0.325E-02  0.325E-02  0.325E-02  0.325E-02
   4.590  0.380E-02  0.379E-02  0.380E-02  0.379E-02
   4.600  0.428E-02  0.428E-02  0.428E-02  0.428E-02
   4.610  0.454E-02  0.454E-02  0.454E-02  0.454E-02
   4.620  0.462E-02  0.462E-02  0.462E-02  0.462E-02
   4.630  0.454E-02  0.454E-02  0.454E-02  0.454E-02
   4.640  0.431E-02  0.431E-02  0.431E-02  0.431E-02
   4.650  0.399E-02  0.399E-02  0.399E-02  0.399E-02
   4.660  0.387E-02  0.387E-02  0.387E-02  0.387E-02
   4.670  0.410E-02  0.410E-02  0.410E-02  0.410E-02
   4.680  0.346E-02  0.346E-02  0.346E-02  0.346E-02
   4.690  0.279E-02  0.279E-02  0.279E-02  0.279E-02
   4.700  0.244E-02  0.244E-02  0.244E-02  0.244E-02
   4.710  0.222E-02  0.222E-02  0.222E-02  0.222E-02
   4.720  0.232E-02  0.232E-02  0.232E-02  0.232E-02
   4.730  0.265E-02  0.265E-02  0.265E-02  0.265E-02
   4.740  0.389E-02  0.389E-02  0.389E-02  0.389E-02
   4.750  0.664E-02  0.664E-02  0.664E-02  0.664E-02
   4.760  0.495E-02  0.495E-02  0.495E-02  0.495E-02
   4.770  0.420E-02  0.420E-02  0.420E-02  0.420E-02
   4.780  0.380E-02  0.380E-02  0.380E-02  0.380E-02
   4.790  0.339E-02  0.339E-02  0.339E-02  0.339E-02
   4.800  0.312E-02  0.312E-02  0.312E-02  0.312E-02
   4.810  0.285E-02  0.285E-02  0.285E-02  0.285E-02
   4.820  0.253E-02  0.253E-02  0.253E-02  0.253E-02
   4.830  0.218E-02  0.218E-02  0.218E-02  0.218E-02
   4.840  0.195E-02  0.195E-02  0.195E-02  0.195E-02
   4.850  0.177E-02  0.177E-02  0.177E-02  0.177E-02
   4.860  0.161E-02  0.161E-02  0.161E-02  0.161E-02
   4.870  0.147E-02  0.147E-02  0.147E-02  0.147E-02
   4.880  0.134E-02  0.134E-02  0.134E-02  0.134E-02
   4.890  0.124E-02  0.124E-02  0.124E-02  0.124E-02
   4.900  0.115E-02  0.115E-02  0.115E-02  0.115E-02
   4.910  0.106E-02  0.106E-02  0.106E-02  0.106E-02
   4.920  0.979E-03  0.978E-03  0.979E-03  0.978E-03
   4.930  0.932E-03  0.932E-03  0.932E-03  0.932E-03
   4.940  0.974E-03  0.973E-03  0.974E-03  0.973E-03
   4.950  0.131E-02  0.131E-02  0.131E-02  0.131E-02
   4.960  0.179E-02  0.179E-02  0.179E-02  0.179E-02
   4.970  0.210E-02  0.210E-02  0.210E-02  0.210E-02
   4.980  0.216E-02  0.216E-02  0.216E-02  0.216E-02
   4.990  0.213E-02  0.213E-02  0.213E-02  0.213E-02
   5.000  0.211E-02  0.211E-02  0.211E-02  0.211E-02
   5.010  0.209E-02  0.209E-02  0.209E-02  0.209E-02
   5.020  0.208E-02  0.208E-02  0.208E-02  0.208E-02
   5.030  0.202E-02  0.202E-02  0.202E-02  0.202E-02
   5.040  0.198E-02  0.198E-02  0.198E-02  0.198E-02
   5.050  0.194E-02  0.194E-02  0.194E-02  0.194E-02
   5.060  0.187E-02  0.187E-02  0.187E-02  0.187E-02
   5.070  0.176E-02  0.176E-02  0.176E-02  0.176E-02
   5.080  0.163E-02  0.163E-02  0.163E-02  0.163E-02
   5.090  0.147E-02  0.147E-02  0.147E-02  0.147E-02
   5.100  0.129E-02  0.129E-02  0.129E-02  0.129E-02
   5.110  0.108E-02  0.108E-02  0.108E-02  0.108E-02
   5.120  0.793E-03  0.792E-03  0.793E-03  0.792E-03
   5.130  0.631E-03  0.630E-03  0.631E-03  0.630E-03
   5.140  0.524E-03  0.523E-03  0.524E-03  0.523E-03
   5.150  0.482E-03  0.481E-03  0.482E-03  0.481E-03
   5.160  0.482E-03  0.481E-03  0.482E-03  0.481E-03
   5.170  0.522E-03  0.523E-03  0.522E-03  0.523E-03
   5.180  0.470E-03  0.471E-03  0.470E-03  0.471E-03
   5.190  0.463E-03  0.463E-03  0.463E-03  0.463E-03
   5.200  0.464E-03  0.464E-03  0.464E-03  0.464E-03
   5.210  0.480E-03  0.480E-03  0.480E-03  0.480E-03
   5.220  0.565E-03  0.572E-03  0.565E-03  0.572E-03
   5.230  0.707E-03  0.707E-03  0.707E-03  0.707E-03
   5.240  0.827E-03  0.824E-03  0.827E-03  0.824E-03
   5.250  0.838E-03  0.836E-03  0.838E-03  0.836E-03
   5.260  0.831E-03  0.829E-03  0.831E-03  0.829E-03
   5.270  0.803E-03  0.802E-03  0.803E-03  0.802E-03
   5.280  0.756E-03  0.756E-03  0.756E-03  0.756E-03
   5.290  0.694E-03  0.694E-03  0.694E-03  0.694E-03
   5.300  0.617E-03  0.618E-03  0.617E-03  0.618E-03
   5.310  0.529E-03  0.530E-03  0.529E-03  0.530E-03
   5.320  0.424E-03  0.425E-03  0.424E-03  0.425E-03
   5.330  0.360E-03  0.361E-03  0.360E-03  0.361E-03
   5.340  0.309E-03  0.309E-03  0.309E-03  0.309E-03
   5.350  0.257E-03  0.257E-03  0.257E-03  0.257E-03
   5.360  0.212E-03  0.212E-03  0.212E-03  0.212E-03
   5.370  0.162E-03  0.162E-03  0.162E-03  0.162E-03
   5.380  0.149E-03  0.149E-03  0.149E-03  0.149E-03
   5.390  0.138E-03  0.138E-03  0.138E-03  0.138E-03
   5.400  0.128E-03  0.128E-03  0.128E-03  0.128E-03
   5.410  0.119E-03  0.119E-03  0.119E-03  0.119E-03
   5.420  0.114E-03  0.114E-03  0.114E-03  0.114E-03
   5.430  0.139E-03  0.139E-03  0.139E-03  0.139E-03
   5.440  0.160E-03  0.160E-03  0.160E-03  0.160E-03
   5.450  0.132E-03  0.132E-03  0.132E-03  0.132E-03
   5.460  0.109E-03  0.109E-03  0.109E-03  0.109E-03
   5.470  0.732E-04  0.732E-04  0.732E-04  0.732E-04
   5.480  0.483E-04  0.483E-04  0.483E-04  0.483E-04
   5.490  0.311E-04  0.311E-04  0.311E-04  0.311E-04
   5.500  0.178E-04  0.178E-04  0.178E-04  0.178E-04
   5.510  0.610E-05  0.610E-05  0.610E-05  0.610E-05
   5.520 -0.102E-05 -0.102E-05 -0.102E-05 -0.102E-05
   5.530 -0.257E-05 -0.257E-05 -0.257E-05 -0.257E-05
   5.540  0.234E-06  0.234E-06  0.234E-06  0.234E-06
   5.550  0.151E-06  0.151E-06  0.151E-06  0.151E-06
   5.560 -0.629E-07 -0.629E-07 -0.629E-07 -0.629E-07
   5.570 -0.970E-07 -0.970E-07 -0.970E-07 -0.970E-07
   5.580 -0.481E-07 -0.481E-07 -0.481E-07 -0.481E-07
   5.590 -0.208E-08 -0.208E-08 -0.208E-08 -0.208E-08
   5.600  0.000E+00  0.000E+00  0.000E+00  0.000E+00
   5.610  0.000E+00  0.000E+00  0.000E+00  0.000E+00
   5.620  0.000E+00  0.000E+00  0.000E+00  0.000E+00
   5.630  0.000E+00  0.000E+00  0.000E+00  0.000E+00
   5.640  0.000E+00  0.000E+00  0.000E+00  0.000E+00
   5.650  0.000E+00  0.000E+00  0.000E+00  0.000E+00
   5.660  0.000E+00  0.000E+00  0.000E+00  0.000E+00
   5.670  0.000E+00  0.000E+00  0.000E+00  0.000E+00
   5.680  0.000E+00  0.000E+00  0.000E+00  0.000E+00
   5.690  0.000E+00  0.000E+00  0.000E+00  0.000E+00
   5.700  0.000E+00  0.000E+00  0.000E+00  0.000E+00
   5.710  0.000E+00  0.000E+00  0.000E+00  0.000E+00
   5.720  0.000E+00  0.000E+00  0.000E+00  0.000E+00
   5.730  0.000E+00  0.000E+00  0.000E+00  0.000E+00
   5.740  0.000E+00  0.000E+00  0.000E+00  0.000E+00
   5.750  0.000E+00  0.000E+00  0.000E+00  0.000E+00
   5.760  0.000E+00  0.000E+00  0.000E+00  0.000E+00
   5.770  0.000E+00  0.000E+00  0.000E+00  0.000E+00
   5.780  0.000E+00  0.000E+00  0.000E+00  0.000E+00
   5.790  0.000E+00  0.000E+00  0.000E+00  0.000E+00
   5.800  0.000E+00  0.000E+00  0.000E+00  0.000E+00
   5.810  0.000E+00  0.000E+00  0.000E+00  0.000E+00
   5.820  0.000E+00  0.000E+00  0.000E+00  0.000E+00
   5.830  0.000E+00  0.000E+00  0.000E+00  0.000E+00
   5.840  0.000E+00  0.000E+00  0.000E+00  0.000E+00
   5.850  0.000E+00  0.000E+00  0.000E+00  0.000E+00
   5.860  0.000E+00  0.000E+00  0.000E+00  0.000E+00
   5.870  0.000E+00  0.000E+00  0.000E+00  0.000E+00
   5.880  0.000E+00  0.000E+00  0.000E+00  0.000E+00
   5.890  0.000E+00  0.000E+00  0.000E+00  0.000E+00
   5.900  0.000E+00  0.000E+00  0.000E+00  0.000E+00
   5.910  0.000E+00  0.000E+00  0.000E+00  0.000E+00
   5.920  0.000E+00  0.000E+00  0.000E+00  0.000E+00
   5.930  0.000E+00  0.000E+00  0.000E+00  0.000E+00
   5.940  0.000E+00  0.000E+00  0.000E+00  0.000E+00
   5.950  0.000E+00  0.000E+00  0.000E+00  0.000E+00
   5.960  0.000E+00  0.000E+00  0.000E+00  0.000E+00
   5.970  0.000E+00  0.000E+00  0.000E+00  0.000E+00
   5.980  0.000E+00  0.000E+00  0.000E+00  0.000E+00
   5.990  0.000E+00  0.000E+00  0.000E+00  0.000E+00
   6.000  0.000E+00  0.000E+00  0.000E+00  0.000E+00
   6.010  0.000E+00  0.000E+00  0.000E+00  0.000E+00
   6.020  0.000E+00  0.000E+00  0.000E+00  0.000E+00
   6.030  0.000E+00  0.000E+00  0.000E+00  0.000E+00
   6.040  0.000E+00  0.000E+00  0.000E+00  0.000E+00
   6.050  0.000E+00  0.000E+00  0.000E+00  0.000E+00
   6.060  0.000E+00  0.000E+00  0.000E+00  0.000E+00
   6.070  0.000E+00  0.000E+00  0.000E+00  0.000E+00
   6.080  0.000E+00  0.000E+00  0.000E+00  0.000E+00
   6.090  0.000E+00  0.000E+00  0.000E+00  0.000E+00
   6.100  0.000E+00  0.000E+00  0.000E+00  0.000E+00
   6.110  0.000E+00  0.000E+00  0.000E+00  0.000E+00
   6.120  0.000E+00  0.000E+00  0.000E+00  0.000E+00
   6.130  0.000E+00  0.000E+00  0.000E+00  0.000E+00
   6.140  0.000E+00  0.000E+00  0.000E+00  0.000E+00
   6.150  0.000E+00  0.000E+00  0.000E+00  0.000E+00
   6.160  0.000E+00  0.000E+00  0.000E+00  0.000E+00
   6.170  0.000E+00  0.000E+00  0.000E+00  0.000E+00
   6.180  0.000E+00  0.000E+00  0.000E+00  0.000E+00
   6.190  0.000E+00  0.000E+00  0.000E+00  0.000E+00
   6.200  0.000E+00  0.000E+00  0.000E+00  0.000E+00
   6.210  0.000E+00  0.000E+00  0.000E+00  0.000E+00
   6.220  0.000E+00  0.000E+00  0.000E+00  0.000E+00
   6.230  0.000E+00  0.000E+00  0.000E+00  0.000E+00
   6.240  0.000E+00  0.000E+00  0.000E+00  0.000E+00
   6.250  0.000E+00  0.000E+00  0.000E+00  0.000E+00
   6.260  0.000E+00  0.000E+00  0.000E+00  0.000E+00
   6.270  0.000E+00  0.000E+00  0.000E+00  0.000E+00
   6.280  0.000E+00  0.000E+00  0.000E+00  0.000E+00
   6.290  0.000E+00  0.000E+00  0.000E+00  0.000E+00
   6.300  0.000E+00  0.000E+00  0.000E+00  0.000E+00
   6.310  0.000E+00  0.000E+00  0.000E+00  0.000E+00
   6.320  0.000E+00  0.000E+00  0.000E+00  0.000E+00
   6.330  0.000E+00  0.000E+00  0.000E+00  0.000E+00
   6.340  0.000E+00  0.000E+00  0.000E+00  0.000E+00
   6.350  0.000E+00  0.000E+00  0.000E+00  0.000E+00
   6.360  0.000E+00  0.000E+00  0.000E+00  0.000E+00
   6.370  0.000E+00  0.000E+00  0.000E+00  0.000E+00
   6.380  0.000E+00  0.000E+00  0.000E+00  0.000E+00
   6.390  0.000E+00  0.000E+00  0.000E+00  0.000E+00
   6.400  0.000E+00  0.000E+00  0.000E+00  0.000E+00
   6.410  0.000E+00  0.000E+00  0.000E+00  0.000E+00
   6.420  0.000E+00  0.000E+00  0.000E+00  0.000E+00
   6.430  0.000E+00  0.000E+00  0.000E+00  0.000E+00
   6.440  0.000E+00  0.000E+00  0.000E+00  0.000E+00
   6.450  0.000E+00  0.000E+00  0.000E+00  0.000E+00
   6.460  0.000E+00  0.000E+00  0.000E+00  0.000E+00
   6.470  0.000E+00  0.000E+00  0.000E+00  0.000E+00
   6.480  0.000E+00  0.000E+00  0.000E+00  0.000E+00
   6.490  0.000E+00  0.000E+00  0.000E+00  0.000E+00
   6.500  0.000E+00  0.000E+00  0.000E+00  0.000E+00
   6.510  0.000E+00  0.000E+00  0.000E+00  0.000E+00
   6.520  0.000E+00  0.000E+00  0.000E+00  0.000E+00
   6.530  0.000E+00  0.000E+00  0.000E+00  0.000E+00
   6.540  0.000E+00  0.000E+00  0.000E+00  0.000E+00
   6.550  0.000E+00  0.000E+00  0.000E+00  0.000E+00
   6.560  0.000E+00  0.000E+00  0.000E+00  0.000E+00
   6.570  0.000E+00  0.000E+00  0.000E+00  0.000E+00
   6.580  0.000E+00  0.000E+00  0.000E+00  0.000E+00
   6.590  0.000E+00  0.000E+00  0.000E+00  0.000E+00
   6.600  0.000E+00  0.000E+00  0.000E+00  0.000E+00
   6.610  0.000E+00  0.000E+00  0.000E+00  0.000E+00
   6.620  0.000E+00  0.000E+00  0.000E+00  0.000E+00
   6.630  0.000E+00  0.000E+00  0.000E+00  0.000E+00
   6.640  0.000E+00  0.000E+00  0.000E+00  0.000E+00
   6.650  0.000E+00  0.000E+00  0.000E+00  0.000E+00
   6.660  0.000E+00  0.000E+00  0.000E+00  0.000E+00
   6.670  0.000E+00  0.000E+00  0.000E+00  0.000E+00
   6.680  0.000E+00  0.000E+00  0.000E+00  0.000E+00
   6.690  0.000E+00  0.000E+00  0.000E+00  0.000E+00
   6.700  0.000E+00  0.000E+00  0.000E+00  0.000E+00
   6.710  0.000E+00  0.000E+00  0.000E+00  0.000E+00
   6.720  0.000E+00  0.000E+00  0.000E+00  0.000E+00
   6.730  0.000E+00  0.000E+00  0.000E+00  0.000E+00
   6.740  0.000E+00  0.000E+00  0.000E+00  0.000E+00
   6.750  0.000E+00  0.000E+00  0.000E+00  0.000E+00
   6.760  0.000E+00  0.000E+00  0.000E+00  0.000E+00
   6.770  0.000E+00  0.000E+00  0.000E+00  0.000E+00
   6.780  0.000E+00  0.000E+00  0.000E+00  0.000E+00
   6.790  0.000E+00  0.000E+00  0.000E+00  0.000E+00
   6.800  0.000E+00  0.000E+00  0.000E+00  0.000E+00
   6.810  0.000E+00  0.000E+00  0.000E+00  0.000E+00
   6.820  0.000E+00  0.000E+00  0.000E+00  0.000E+00
   6.830  0.000E+00  0.000E+00  0.000E+00  0.000E+00
   6.840  0.000E+00  0.000E+00  0.000E+00  0.000E+00
   6.850  0.000E+00  0.000E+00  0.000E+00  0.000E+00
   6.860  0.000E+00  0.000E+00  0.000E+00  0.000E+00
   6.870  0.000E+00  0.000E+00  0.000E+00  0.000E+00
   6.880  0.000E+00  0.000E+00  0.000E+00  0.000E+00
   6.890  0.000E+00  0.000E+00  0.000E+00  0.000E+00
   6.900  0.000E+00  0.000E+00  0.000E+00  0.000E+00
   6.910  0.000E+00  0.000E+00  0.000E+00  0.000E+00
   6.920  0.000E+00  0.000E+00  0.000E+00  0.000E+00
   6.930  0.000E+00  0.000E+00  0.000E+00  0.000E+00
   6.940  0.000E+00  0.000E+00  0.000E+00  0.000E+00
   6.950  0.000E+00  0.000E+00  0.000E+00  0.000E+00
   6.960  0.000E+00  0.000E+00  0.000E+00  0.000E+00
   6.970  0.000E+00  0.000E+00  0.000E+00  0.000E+00
   6.980  0.000E+00  0.000E+00  0.000E+00  0.000E+00
   6.990  0.000E+00  0.000E+00  0.000E+00  0.000E+00
   7.000  0.000E+00  0.000E+00  0.000E+00  0.000E+00
   7.010  0.000E+00  0.000E+00  0.000E+00  0.000E+00
   7.020  0.000E+00  0.000E+00  0.000E+00  0.000E+00
   7.030  0.000E+00  0.000E+00  0.000E+00  0.000E+00
   7.040  0.000E+00  0.000E+00  0.000E+00  0.000E+00
   7.050  0.000E+00  0.000E+00  0.000E+00  0.000E+00
   7.060  0.000E+00  0.000E+00  0.000E+00  0.000E+00
   7.070  0.000E+00  0.000E+00  0.000E+00  0.000E+00
   7.080  0.000E+00  0.000E+00  0.000E+00  0.000E+00
   7.090  0.000E+00  0.000E+00  0.000E+00  0.000E+00
   7.100  0.000E+00  0.000E+00  0.000E+00  0.000E+00
   7.110  0.000E+00  0.000E+00  0.000E+00  0.000E+00
   7.120  0.000E+00  0.000E+00  0.000E+00  0.000E+00
   7.130  0.000E+00  0.000E+00  0.000E+00  0.000E+00
   7.140  0.000E+00  0.000E+00  0.000E+00  0.000E+00
   7.150  0.000E+00  0.000E+00  0.000E+00  0.000E+00
   7.160  0.000E+00  0.000E+00  0.000E+00  0.000E+00
   7.170  0.000E+00  0.000E+00  0.000E+00  0.000E+00
   7.180  0.000E+00  0.000E+00  0.000E+00  0.000E+00
   7.190  0.000E+00  0.000E+00  0.000E+00  0.000E+00
   7.200  0.000E+00  0.000E+00  0.000E+00  0.000E+00
   7.210  0.000E+00  0.000E+00  0.000E+00  0.000E+00
   7.220  0.000E+00  0.000E+00  0.000E+00  0.000E+00
   7.230  0.000E+00  0.000E+00  0.000E+00  0.000E+00
   7.240  0.000E+00  0.000E+00  0.000E+00  0.000E+00
   7.250  0.000E+00  0.000E+00  0.000E+00  0.000E+00
   7.260  0.000E+00  0.000E+00  0.000E+00  0.000E+00
   7.270  0.000E+00  0.000E+00  0.000E+00  0.000E+00
   7.280  0.000E+00  0.000E+00  0.000E+00  0.000E+00
   7.290  0.000E+00  0.000E+00  0.000E+00  0.000E+00
   7.300  0.000E+00  0.000E+00  0.000E+00  0.000E+00
   7.310  0.000E+00  0.000E+00  0.000E+00  0.000E+00
   7.320  0.000E+00  0.000E+00  0.000E+00  0.000E+00
   7.330  0.000E+00  0.000E+00  0.000E+00  0.000E+00
   7.340  0.000E+00  0.000E+00  0.000E+00  0.000E+00
   7.350  0.000E+00  0.000E+00  0.000E+00  0.000E+00
   7.360  0.000E+00  0.000E+00  0.000E+00  0.000E+00
   7.370  0.000E+00  0.000E+00  0.000E+00  0.000E+00
   7.380  0.000E+00  0.000E+00  0.000E+00  0.000E+00
   7.390  0.000E+00  0.000E+00  0.000E+00  0.000E+00
   7.400  0.000E+00  0.000E+00  0.000E+00  0.000E+00
   7.410  0.000E+00  0.000E+00  0.000E+00  0.000E+00
   7.420  0.000E+00  0.000E+00  0.000E+00  0.000E+00
   7.430  0.000E+00  0.000E+00  0.000E+00  0.000E+00
   7.440  0.000E+00  0.000E+00  0.000E+00  0.000E+00
   7.450  0.000E+00  0.000E+00  0.000E+00  0.000E+00
   7.460  0.000E+00  0.000E+00  0.000E+00  0.000E+00
   7.470  0.816E-08  0.816E-08  0.816E-08  0.816E-08
   7.480  0.813E-06  0.813E-06  0.813E-06  0.813E-06
   7.490  0.292E-05  0.292E-05  0.292E-05  0.292E-05
   7.500  0.650E-05  0.650E-05  0.650E-05  0.650E-05
   7.510  0.153E-04  0.153E-04  0.153E-04  0.153E-04
   7.520  0.307E-04  0.307E-04  0.307E-04  0.307E-04
   7.530  0.526E-04  0.526E-04  0.526E-04  0.526E-04
   7.540  0.811E-04  0.811E-04  0.811E-04  0.811E-04
   7.550  0.116E-03  0.116E-03  0.116E-03  0.116E-03
   7.560  0.157E-03  0.157E-03  0.157E-03  0.157E-03
   7.570  0.205E-03  0.205E-03  0.205E-03  0.205E-03
   7.580  0.258E-03  0.258E-03  0.258E-03  0.258E-03
   7.590  0.318E-03  0.318E-03  0.318E-03  0.318E-03
   7.600  0.384E-03  0.384E-03  0.384E-03  0.384E-03
   7.610  0.455E-03  0.455E-03  0.455E-03  0.455E-03
   7.620  0.533E-03  0.533E-03  0.533E-03  0.533E-03
   7.630  0.616E-03  0.616E-03  0.616E-03  0.616E-03
   7.640  0.705E-03  0.705E-03  0.705E-03  0.705E-03
   7.650  0.800E-03  0.800E-03  0.800E-03  0.800E-03
   7.660  0.900E-03  0.900E-03  0.900E-03  0.900E-03
   7.670  0.996E-03  0.996E-03  0.996E-03  0.996E-03
   7.680  0.109E-02  0.109E-02  0.109E-02  0.109E-02
   7.690  0.119E-02  0.119E-02  0.119E-02  0.119E-02
   7.700  0.130E-02  0.130E-02  0.130E-02  0.130E-02
   7.710  0.140E-02  0.140E-02  0.140E-02  0.140E-02
   7.720  0.149E-02  0.149E-02  0.149E-02  0.149E-02
   7.730  0.159E-02  0.159E-02  0.159E-02  0.159E-02
   7.740  0.167E-02  0.167E-02  0.167E-02  0.167E-02
   7.750  0.176E-02  0.176E-02  0.176E-02  0.176E-02
   7.760  0.183E-02  0.183E-02  0.183E-02  0.183E-02
   7.770  0.191E-02  0.191E-02  0.191E-02  0.191E-02
   7.780  0.198E-02  0.198E-02  0.198E-02  0.198E-02
   7.790  0.204E-02  0.204E-02  0.204E-02  0.204E-02
   7.800  0.210E-02  0.210E-02  0.210E-02  0.210E-02
   7.810  0.216E-02  0.216E-02  0.216E-02  0.216E-02
   7.820  0.221E-02  0.221E-02  0.221E-02  0.221E-02
   7.830  0.225E-02  0.225E-02  0.225E-02  0.225E-02
   7.840  0.229E-02  0.229E-02  0.229E-02  0.229E-02
   7.850  0.231E-02  0.231E-02  0.231E-02  0.231E-02
   7.860  0.233E-02  0.233E-02  0.233E-02  0.233E-02
   7.870  0.236E-02  0.236E-02  0.236E-02  0.236E-02
   7.880  0.239E-02  0.239E-02  0.239E-02  0.239E-02
   7.890  0.243E-02  0.243E-02  0.243E-02  0.243E-02
   7.900  0.246E-02  0.246E-02  0.246E-02  0.246E-02
   7.910  0.251E-02  0.251E-02  0.251E-02  0.251E-02
   7.920  0.255E-02  0.255E-02  0.255E-02  0.255E-02
   7.930  0.260E-02  0.260E-02  0.260E-02  0.260E-02
   7.940  0.265E-02  0.265E-02  0.265E-02  0.265E-02
   7.950  0.271E-02  0.271E-02  0.271E-02  0.271E-02
   7.960  0.277E-02  0.277E-02  0.277E-02  0.277E-02
   7.970  0.283E-02  0.283E-02  0.283E-02  0.283E-02
   7.980  0.290E-02  0.290E-02  0.290E-02  0.290E-02
   7.990  0.296E-02  0.296E-02  0.296E-02  0.296E-02
   8.000  0.303E-02  0.303E-02  0.303E-02  0.303E-02
   8.010  0.310E-02  0.310E-02  0.310E-02  0.310E-02
   8.020  0.317E-02  0.317E-02  0.317E-02  0.317E-02
   8.030  0.324E-02  0.324E-02  0.324E-02  0.324E-02
   8.040  0.332E-02  0.332E-02  0.332E-02  0.332E-02
   8.050  0.339E-02  0.339E-02  0.339E-02  0.339E-02
   8.060  0.346E-02  0.346E-02  0.346E-02  0.346E-02
   8.070  0.354E-02  0.354E-02  0.354E-02  0.354E-02
   8.080  0.361E-02  0.361E-02  0.361E-02  0.361E-02
   8.090  0.369E-02  0.369E-02  0.369E-02  0.369E-02
   8.100  0.377E-02  0.377E-02  0.377E-02  0.377E-02
   8.110  0.385E-02  0.385E-02  0.385E-02  0.385E-02
   8.120  0.393E-02  0.393E-02  0.393E-02  0.393E-02
   8.130  0.401E-02  0.401E-02  0.401E-02  0.401E-02
   8.140  0.410E-02  0.410E-02  0.410E-02  0.410E-02
   8.150  0.418E-02  0.418E-02  0.418E-02  0.418E-02
   8.160  0.427E-02  0.427E-02  0.427E-02  0.427E-02
   8.170  0.434E-02  0.434E-02  0.434E-02  0.434E-02
   8.180  0.439E-02  0.439E-02  0.439E-02  0.439E-02
   8.190  0.442E-02  0.442E-02  0.442E-02  0.442E-02
   8.200  0.445E-02  0.445E-02  0.445E-02  0.445E-02
   8.210  0.447E-02  0.447E-02  0.447E-02  0.447E-02
   8.220  0.450E-02  0.450E-02  0.450E-02  0.450E-02
   8.230  0.452E-02  0.452E-02  0.452E-02  0.452E-02
   8.240  0.454E-02  0.454E-02  0.454E-02  0.454E-02
   8.250  0.458E-02  0.458E-02  0.458E-02  0.458E-02
   8.260  0.465E-02  0.465E-02  0.465E-02  0.465E-02
   8.270  0.474E-02  0.474E-02  0.474E-02  0.474E-02
   8.280  0.484E-02  0.484E-02  0.484E-02  0.484E-02
   8.290  0.493E-02  0.493E-02  0.493E-02  0.493E-02
   8.300  0.500E-02  0.500E-02  0.500E-02  0.500E-02
   8.310  0.504E-02  0.504E-02  0.504E-02  0.504E-02
   8.320  0.509E-02  0.509E-02  0.509E-02  0.509E-02
   8.330  0.517E-02  0.517E-02  0.517E-02  0.517E-02
   8.340  0.527E-02  0.527E-02  0.527E-02  0.527E-02
   8.350  0.537E-02  0.537E-02  0.537E-02  0.537E-02
   8.360  0.548E-02  0.548E-02  0.548E-02  0.548E-02
   8.370  0.559E-02  0.559E-02  0.559E-02  0.559E-02
   8.380  0.570E-02  0.570E-02  0.570E-02  0.570E-02
   8.390  0.582E-02  0.582E-02  0.582E-02  0.582E-02
   8.400  0.594E-02  0.594E-02  0.594E-02  0.594E-02
   8.410  0.606E-02  0.606E-02  0.606E-02  0.606E-02
   8.420  0.620E-02  0.620E-02  0.620E-02  0.620E-02
   8.430  0.633E-02  0.633E-02  0.633E-02  0.633E-02
   8.440  0.648E-02  0.648E-02  0.648E-02  0.648E-02
   8.450  0.663E-02  0.663E-02  0.663E-02  0.663E-02
   8.460  0.679E-02  0.679E-02  0.679E-02  0.679E-02
   8.470  0.696E-02  0.696E-02  0.696E-02  0.696E-02
   8.480  0.713E-02  0.713E-02  0.713E-02  0.713E-02
   8.490  0.731E-02  0.731E-02  0.731E-02  0.731E-02
   8.500  0.750E-02  0.750E-02  0.750E-02  0.750E-02
   8.510  0.769E-02  0.769E-02  0.769E-02  0.769E-02
   8.520  0.786E-02  0.786E-02  0.786E-02  0.786E-02
   8.530  0.800E-02  0.800E-02  0.800E-02  0.800E-02
   8.540  0.813E-02  0.813E-02  0.813E-02  0.813E-02
   8.550  0.828E-02  0.828E-02  0.828E-02  0.828E-02
   8.560  0.849E-02  0.849E-02  0.849E-02  0.849E-02
   8.570  0.873E-02  0.873E-02  0.873E-02  0.873E-02
   8.580  0.898E-02  0.898E-02  0.898E-02  0.898E-02
   8.590  0.925E-02  0.925E-02  0.925E-02  0.925E-02
   8.600  0.953E-02  0.953E-02  0.953E-02  0.953E-02
   8.610  0.983E-02  0.983E-02  0.983E-02  0.983E-02
   8.620  0.102E-01  0.102E-01  0.102E-01  0.102E-01
   8.630  0.105E-01  0.105E-01  0.105E-01  0.105E-01
   8.640  0.109E-01  0.109E-01  0.109E-01  0.109E-01
   8.650  0.113E-01  0.113E-01  0.113E-01  0.113E-01
   8.660  0.117E-01  0.117E-01  0.117E-01  0.117E-01
   8.670  0.122E-01  0.122E-01  0.122E-01  0.122E-01
   8.680  0.127E-01  0.127E-01  0.127E-01  0.127E-01
   8.690  0.132E-01  0.132E-01  0.132E-01  0.132E-01
   8.700  0.137E-01  0.137E-01  0.137E-01  0.137E-01
   8.710  0.143E-01  0.143E-01  0.143E-01  0.143E-01
   8.720  0.149E-01  0.149E-01  0.149E-01  0.149E-01
   8.730  0.156E-01  0.156E-01  0.156E-01  0.156E-01
   8.740  0.163E-01  0.163E-01  0.163E-01  0.163E-01
   8.750  0.170E-01  0.170E-01  0.170E-01  0.170E-01
   8.760  0.176E-01  0.176E-01  0.176E-01  0.176E-01
   8.770  0.180E-01  0.180E-01  0.180E-01  0.180E-01
   8.780  0.184E-01  0.184E-01  0.184E-01  0.184E-01
   8.790  0.187E-01  0.187E-01  0.187E-01  0.187E-01
   8.800  0.191E-01  0.191E-01  0.191E-01  0.191E-01
   8.810  0.199E-01  0.199E-01  0.199E-01  0.199E-01
   8.820  0.208E-01  0.208E-01  0.208E-01  0.208E-01
   8.830  0.221E-01  0.221E-01  0.221E-01  0.221E-01
   8.840  0.237E-01  0.237E-01  0.237E-01  0.237E-01
   8.850  0.254E-01  0.254E-01  0.254E-01  0.254E-01
   8.860  0.280E-01  0.280E-01  0.280E-01  0.280E-01
   8.870  0.330E-01  0.330E-01  0.330E-01  0.330E-01
   8.880  0.332E-01  0.332E-01  0.332E-01  0.332E-01
   8.890  0.381E-01  0.381E-01  0.381E-01  0.381E-01
   8.900  0.366E-01  0.366E-01  0.366E-01  0.366E-01
   8.910  0.380E-01  0.380E-01  0.380E-01  0.380E-01
   8.920  0.421E-01  0.421E-01  0.421E-01  0.421E-01
   8.930  0.447E-01  0.447E-01  0.447E-01  0.447E-01
   8.940  0.493E-01  0.493E-01  0.493E-01  0.493E-01
   8.950  0.515E-01  0.515E-01  0.515E-01  0.515E-01
   8.960  0.517E-01  0.517E-01  0.517E-01  0.517E-01
   8.970  0.516E-01  0.516E-01  0.516E-01  0.516E-01
   8.980  0.515E-01  0.515E-01  0.515E-01  0.515E-01
   8.990  0.431E-01  0.431E-01  0.431E-01  0.431E-01
   9.000  0.401E-01  0.401E-01  0.401E-01  0.401E-01
   9.010  0.391E-01  0.391E-01  0.391E-01  0.391E-01
   9.020  0.391E-01  0.391E-01  0.391E-01  0.391E-01
   9.030  0.392E-01  0.392E-01  0.392E-01  0.392E-01
   9.040  0.394E-01  0.394E-01  0.394E-01  0.394E-01
   9.050  0.397E-01  0.398E-01  0.397E-01  0.398E-01
   9.060  0.404E-01  0.404E-01  0.404E-01  0.404E-01
   9.070  0.418E-01  0.418E-01  0.418E-01  0.418E-01
   9.080  0.425E-01  0.425E-01  0.425E-01  0.425E-01
   9.090  0.419E-01  0.419E-01  0.419E-01  0.419E-01
   9.100  0.419E-01  0.419E-01  0.419E-01  0.419E-01
   9.110  0.425E-01  0.425E-01  0.425E-01  0.425E-01
   9.120  0.433E-01  0.433E-01  0.433E-01  0.433E-01
   9.130  0.431E-01  0.431E-01  0.431E-01  0.431E-01
   9.140  0.446E-01  0.446E-01  0.446E-01  0.446E-01
   9.150  0.465E-01  0.466E-01  0.465E-01  0.466E-01
   9.160  0.489E-01  0.489E-01  0.489E-01  0.489E-01
   9.170  0.505E-01  0.505E-01  0.505E-01  0.505E-01
   9.180  0.535E-01  0.535E-01  0.535E-01  0.535E-01
   9.190  0.567E-01  0.567E-01  0.567E-01  0.567E-01
   9.200  0.599E-01  0.599E-01  0.599E-01  0.599E-01
   9.210  0.636E-01  0.636E-01  0.636E-01  0.636E-01
   9.220  0.674E-01  0.674E-01  0.674E-01  0.674E-01
   9.230  0.715E-01  0.714E-01  0.715E-01  0.714E-01
   9.240  0.750E-01  0.749E-01  0.750E-01  0.749E-01
   9.250  0.782E-01  0.781E-01  0.782E-01  0.781E-01
   9.260  0.809E-01  0.808E-01  0.809E-01  0.808E-01
   9.270  0.830E-01  0.829E-01  0.830E-01  0.829E-01
   9.280  0.846E-01  0.845E-01  0.846E-01  0.845E-01
   9.290  0.858E-01  0.857E-01  0.858E-01  0.857E-01
   9.300  0.899E-01  0.898E-01  0.899E-01  0.898E-01
   9.310  0.693E-01  0.692E-01  0.693E-01  0.692E-01
   9.320  0.670E-01  0.668E-01  0.670E-01  0.668E-01
   9.330  0.660E-01  0.659E-01  0.660E-01  0.659E-01
   9.340  0.657E-01  0.656E-01  0.657E-01  0.656E-01
   9.350  0.659E-01  0.657E-01  0.659E-01  0.657E-01
   9.360  0.668E-01  0.667E-01  0.668E-01  0.667E-01
   9.370  0.689E-01  0.688E-01  0.689E-01  0.688E-01
   9.380  0.725E-01  0.724E-01  0.725E-01  0.724E-01
   9.390  0.761E-01  0.760E-01  0.761E-01  0.760E-01
   9.400  0.835E-01  0.835E-01  0.835E-01  0.835E-01
   9.410  0.939E-01  0.940E-01  0.939E-01  0.940E-01
   9.420  0.101E+00  0.101E+00  0.101E+00  0.101E+00
   9.430  0.103E+00  0.104E+00  0.103E+00  0.104E+00
   9.440  0.100E+00  0.101E+00  0.100E+00  0.101E+00
   9.450  0.827E-01  0.828E-01  0.827E-01  0.828E-01
   9.460  0.723E-01  0.724E-01  0.723E-01  0.724E-01
   9.470  0.682E-01  0.682E-01  0.682E-01  0.682E-01
   9.480  0.666E-01  0.667E-01  0.666E-01  0.667E-01
   9.490  0.650E-01  0.651E-01  0.650E-01  0.651E-01
   9.500  0.778E-01  0.778E-01  0.778E-01  0.778E-01
   9.510  0.569E-01  0.569E-01  0.569E-01  0.569E-01
   9.520  0.501E-01  0.501E-01  0.501E-01  0.501E-01
   9.530  0.453E-01  0.453E-01  0.453E-01  0.453E-01
   9.540  0.444E-01  0.444E-01  0.444E-01  0.444E-01
   9.550  0.450E-01  0.450E-01  0.450E-01  0.450E-01
   9.560  0.467E-01  0.467E-01  0.467E-01  0.467E-01
   9.570  0.494E-01  0.494E-01  0.494E-01  0.494E-01
   9.580  0.530E-01  0.530E-01  0.530E-01  0.530E-01
   9.590  0.571E-01  0.571E-01  0.571E-01  0.571E-01
   9.600  0.610E-01  0.610E-01  0.610E-01  0.610E-01
   9.610  0.672E-01  0.672E-01  0.672E-01  0.672E-01
   9.620  0.749E-01  0.749E-01  0.749E-01  0.749E-01
   9.630  0.776E-01  0.776E-01  0.776E-01  0.776E-01
   9.640  0.798E-01  0.799E-01  0.798E-01  0.799E-01
   9.650  0.823E-01  0.823E-01  0.823E-01  0.823E-01
   9.660  0.854E-01  0.855E-01  0.854E-01  0.855E-01
   9.670  0.870E-01  0.870E-01  0.870E-01  0.870E-01
   9.680  0.908E-01  0.908E-01  0.908E-01  0.908E-01
   9.690  0.101E+00  0.101E+00  0.101E+00  0.101E+00
   9.700  0.100E+00  0.100E+00  0.100E+00  0.100E+00
   9.710  0.122E+00  0.123E+00  0.122E+00  0.123E+00
   9.720  0.141E+00  0.141E+00  0.141E+00  0.141E+00
   9.730  0.130E+00  0.130E+00  0.130E+00  0.130E+00
   9.740  0.134E+00  0.133E+00  0.134E+00  0.133E+00
   9.750  0.133E+00  0.132E+00  0.133E+00  0.132E+00
   9.760  0.122E+00  0.122E+00  0.122E+00  0.122E+00
   9.770  0.100E+00  0.100E+00  0.100E+00  0.100E+00
   9.780  0.862E-01  0.864E-01  0.862E-01  0.864E-01
   9.790  0.772E-01  0.776E-01  0.772E-01  0.776E-01
   9.800  0.739E-01  0.742E-01  0.739E-01  0.742E-01
   9.810  0.743E-01  0.746E-01  0.743E-01  0.746E-01
   9.820  0.800E-01  0.802E-01  0.800E-01  0.802E-01
   9.830  0.836E-01  0.837E-01  0.836E-01  0.837E-01
   9.840  0.882E-01  0.880E-01  0.882E-01  0.880E-01
   9.850  0.915E-01  0.911E-01  0.915E-01  0.911E-01
   9.860  0.851E-01  0.847E-01  0.851E-01  0.847E-01
   9.870  0.858E-01  0.855E-01  0.858E-01  0.855E-01
   9.880  0.842E-01  0.840E-01  0.842E-01  0.840E-01
   9.890  0.856E-01  0.856E-01  0.856E-01  0.856E-01
   9.900  0.894E-01  0.895E-01  0.894E-01  0.895E-01
   9.910  0.964E-01  0.966E-01  0.964E-01  0.966E-01
   9.920  0.981E-01  0.985E-01  0.981E-01  0.985E-01
   9.930  0.988E-01  0.991E-01  0.988E-01  0.991E-01
   9.940  0.111E+00  0.112E+00  0.111E+00  0.112E+00
   9.950  0.119E+00  0.119E+00  0.119E+00  0.119E+00
   9.960  0.129E+00  0.129E+00  0.129E+00  0.129E+00
   9.970  0.133E+00  0.133E+00  0.133E+00  0.133E+00
   9.980  0.145E+00  0.145E+00  0.145E+00  0.145E+00
   9.990  0.134E+00  0.134E+00  0.134E+00  0.134E+00
  10.000  0.124E+00  0.123E+00  0.124E+00  0.123E+00
  10.010  0.117E+00  0.117E+00  0.117E+00  0.117E+00
  10.020  0.109E+00  0.109E+00  0.109E+00  0.109E+00
  10.030  0.104E+00  0.104E+00  0.104E+00  0.104E+00
  10.040  0.102E+00  0.102E+00  0.102E+00  0.102E+00
  10.050  0.973E-01  0.973E-01  0.973E-01  0.973E-01
  10.060  0.937E-01  0.937E-01  0.937E-01  0.937E-01
  10.070  0.908E-01  0.908E-01  0.908E-01  0.908E-01
  10.080  0.871E-01  0.872E-01  0.871E-01  0.872E-01
  10.090  0.859E-01  0.860E-01  0.859E-01  0.860E-01
  10.100  0.780E-01  0.782E-01  0.780E-01  0.782E-01
  10.110  0.719E-01  0.721E-01  0.719E-01  0.721E-01
  10.120  0.690E-01  0.691E-01  0.690E-01  0.691E-01
  10.130  0.682E-01  0.683E-01  0.682E-01  0.683E-01
  10.140  0.702E-01  0.703E-01  0.702E-01  0.703E-01
  10.150  0.746E-01  0.747E-01  0.746E-01  0.747E-01
  10.160  0.720E-01  0.721E-01  0.720E-01  0.721E-01
  10.170  0.679E-01  0.680E-01  0.679E-01  0.680E-01
  10.180  0.711E-01  0.712E-01  0.711E-01  0.712E-01
  10.190  0.747E-01  0.747E-01  0.747E-01  0.747E-01
  10.200  0.697E-01  0.698E-01  0.697E-01  0.698E-01
  10.210  0.632E-01  0.633E-01  0.632E-01  0.633E-01
  10.220  0.596E-01  0.596E-01  0.596E-01  0.596E-01
  10.230  0.577E-01  0.573E-01  0.577E-01  0.573E-01
  10.240  0.516E-01  0.508E-01  0.516E-01  0.508E-01
  10.250  0.520E-01  0.510E-01  0.520E-01  0.510E-01
  10.260  0.529E-01  0.518E-01  0.529E-01  0.518E-01
  10.270  0.542E-01  0.532E-01  0.542E-01  0.532E-01
  10.280  0.591E-01  0.591E-01  0.591E-01  0.591E-01
  10.290  0.648E-01  0.664E-01  0.648E-01  0.664E-01
  10.300  0.702E-01  0.709E-01  0.702E-01  0.709E-01
  10.310  0.636E-01  0.645E-01  0.636E-01  0.645E-01
  10.320  0.632E-01  0.640E-01  0.632E-01  0.640E-01
  10.330  0.649E-01  0.654E-01  0.649E-01  0.654E-01
  10.340  0.608E-01  0.611E-01  0.608E-01  0.611E-01
  10.350  0.606E-01  0.607E-01  0.606E-01  0.607E-01
  10.360  0.500E-01  0.500E-01  0.500E-01  0.500E-01
  10.370  0.429E-01  0.429E-01  0.429E-01  0.429E-01
  10.380  0.369E-01  0.368E-01  0.369E-01  0.368E-01
  10.390  0.322E-01  0.321E-01  0.322E-01  0.321E-01
  10.400  0.288E-01  0.288E-01  0.288E-01  0.288E-01
  10.410  0.269E-01  0.269E-01  0.269E-01  0.269E-01
  10.420  0.266E-01  0.266E-01  0.266E-01  0.266E-01
  10.430  0.262E-01  0.262E-01  0.262E-01  0.262E-01
  10.440  0.246E-01  0.245E-01  0.246E-01  0.245E-01
  10.450  0.255E-01  0.254E-01  0.255E-01  0.254E-01
  10.460  0.282E-01  0.282E-01  0.282E-01  0.282E-01
  10.470  0.320E-01  0.320E-01  0.320E-01  0.320E-01
  10.480  0.378E-01  0.377E-01  0.378E-01  0.377E-01
  10.490  0.414E-01  0.414E-01  0.414E-01  0.414E-01
  10.500  0.425E-01  0.425E-01  0.425E-01  0.425E-01
  10.510  0.413E-01  0.413E-01  0.413E-01  0.413E-01
  10.520  0.404E-01  0.404E-01  0.404E-01  0.404E-01
  10.530  0.431E-01  0.431E-01  0.431E-01  0.431E-01
  10.540  0.410E-01  0.410E-01  0.410E-01  0.410E-01
  10.550  0.379E-01  0.379E-01  0.379E-01  0.379E-01
  10.560  0.353E-01  0.353E-01  0.353E-01  0.353E-01
  10.570  0.332E-01  0.332E-01  0.332E-01  0.332E-01
  10.580  0.317E-01  0.317E-01  0.317E-01  0.317E-01
  10.590  0.307E-01  0.307E-01  0.307E-01  0.307E-01
  10.600  0.297E-01  0.297E-01  0.297E-01  0.297E-01
  10.610  0.288E-01  0.288E-01  0.288E-01  0.288E-01
  10.620  0.280E-01  0.280E-01  0.280E-01  0.280E-01
  10.630  0.272E-01  0.272E-01  0.272E-01  0.272E-01
  10.640  0.265E-01  0.266E-01  0.265E-01  0.266E-01
  10.650  0.258E-01  0.258E-01  0.258E-01  0.258E-01
  10.660  0.247E-01  0.247E-01  0.247E-01  0.247E-01
  10.670  0.237E-01  0.237E-01  0.237E-01  0.237E-01
  10.680  0.231E-01  0.231E-01  0.231E-01  0.231E-01
  10.690  0.229E-01  0.229E-01  0.229E-01  0.229E-01
  10.700  0.234E-01  0.234E-01  0.234E-01  0.234E-01
  10.710  0.211E-01  0.211E-01  0.211E-01  0.211E-01
  10.720  0.191E-01  0.191E-01  0.191E-01  0.191E-01
  10.730  0.185E-01  0.185E-01  0.185E-01  0.185E-01
  10.740  0.183E-01  0.183E-01  0.183E-01  0.183E-01
  10.750  0.184E-01  0.184E-01  0.184E-01  0.184E-01
  10.760  0.192E-01  0.192E-01  0.192E-01  0.192E-01
  10.770  0.176E-01  0.175E-01  0.176E-01  0.175E-01
  10.780  0.173E-01  0.173E-01  0.173E-01  0.173E-01
  10.790  0.169E-01  0.169E-01  0.169E-01  0.169E-01
  10.800  0.170E-01  0.169E-01  0.170E-01  0.169E-01
  10.810  0.172E-01  0.172E-01  0.172E-01  0.172E-01
  10.820  0.173E-01  0.172E-01  0.173E-01  0.172E-01
  10.830  0.150E-01  0.149E-01  0.150E-01  0.149E-01
  10.840  0.118E-01  0.118E-01  0.118E-01  0.118E-01
  10.850  0.108E-01  0.108E-01  0.108E-01  0.108E-01
  10.860  0.110E-01  0.110E-01  0.110E-01  0.110E-01
  10.870  0.113E-01  0.113E-01  0.113E-01  0.113E-01
  10.880  0.118E-01  0.118E-01  0.118E-01  0.118E-01
  10.890  0.123E-01  0.124E-01  0.123E-01  0.124E-01
  10.900  0.132E-01  0.132E-01  0.132E-01  0.132E-01
  10.910  0.146E-01  0.147E-01  0.146E-01  0.147E-01
  10.920  0.186E-01  0.187E-01  0.186E-01  0.187E-01
  10.930  0.240E-01  0.240E-01  0.240E-01  0.240E-01
  10.940  0.276E-01  0.276E-01  0.276E-01  0.276E-01
  10.950  0.279E-01  0.280E-01  0.279E-01  0.280E-01
  10.960  0.223E-01  0.223E-01  0.223E-01  0.223E-01
  10.970  0.187E-01  0.187E-01  0.187E-01  0.187E-01
  10.980  0.174E-01  0.174E-01  0.174E-01  0.174E-01
  10.990  0.165E-01  0.165E-01  0.165E-01  0.165E-01
  11.000  0.158E-01  0.158E-01  0.158E-01  0.158E-01
  11.010  0.153E-01  0.153E-01  0.153E-01  0.153E-01
  11.020  0.149E-01  0.148E-01  0.149E-01  0.148E-01
  11.030  0.144E-01  0.143E-01  0.144E-01  0.143E-01
  11.040  0.140E-01  0.139E-01  0.140E-01  0.139E-01
  11.050  0.145E-01  0.144E-01  0.145E-01  0.144E-01
  11.060  0.145E-01  0.144E-01  0.145E-01  0.144E-01
  11.070  0.139E-01  0.137E-01  0.139E-01  0.137E-01
  11.080  0.135E-01  0.133E-01  0.135E-01  0.133E-01
  11.090  0.131E-01  0.129E-01  0.131E-01  0.129E-01
  11.100  0.128E-01  0.125E-01  0.128E-01  0.125E-01
  11.110  0.124E-01  0.121E-01  0.124E-01  0.121E-01
  11.120  0.121E-01  0.118E-01  0.121E-01  0.118E-01
  11.130  0.120E-01  0.116E-01  0.120E-01  0.116E-01
  11.140  0.122E-01  0.117E-01  0.122E-01  0.117E-01
  11.150  0.120E-01  0.115E-01  0.120E-01  0.115E-01
  11.160  0.116E-01  0.112E-01  0.116E-01  0.112E-01
  11.170  0.114E-01  0.112E-01  0.114E-01  0.112E-01
  11.180  0.113E-01  0.112E-01  0.113E-01  0.112E-01
  11.190  0.111E-01  0.111E-01  0.111E-01  0.111E-01
  11.200  0.109E-01  0.110E-01  0.109E-01  0.110E-01
  11.210  0.110E-01  0.112E-01  0.110E-01  0.112E-01
  11.220  0.116E-01  0.117E-01  0.116E-01  0.117E-01
  11.230  0.122E-01  0.123E-01  0.122E-01  0.123E-01
  11.240  0.126E-01  0.127E-01  0.126E-01  0.127E-01
  11.250  0.128E-01  0.130E-01  0.128E-01  0.130E-01
  11.260  0.131E-01  0.133E-01  0.131E-01  0.133E-01
  11.270  0.135E-01  0.137E-01  0.135E-01  0.137E-01
  11.280  0.139E-01  0.141E-01  0.139E-01  0.141E-01
  11.290  0.152E-01  0.154E-01  0.152E-01  0.154E-01
  11.300  0.160E-01  0.162E-01  0.160E-01  0.162E-01
  11.310  0.167E-01  0.169E-01  0.167E-01  0.169E-01
  11.320  0.173E-01  0.175E-01  0.173E-01  0.175E-01
  11.330  0.177E-01  0.179E-01  0.177E-01  0.179E-01
  11.340  0.180E-01  0.182E-01  0.180E-01  0.182E-01
  11.350  0.184E-01  0.185E-01  0.184E-01  0.185E-01
  11.360  0.187E-01  0.189E-01  0.187E-01  0.189E-01
  11.370  0.190E-01  0.191E-01  0.190E-01  0.191E-01
  11.380  0.192E-01  0.193E-01  0.192E-01  0.193E-01
  11.390  0.193E-01  0.194E-01  0.193E-01  0.194E-01
  11.400  0.197E-01  0.198E-01  0.197E-01  0.198E-01
  11.410  0.203E-01  0.205E-01  0.203E-01  0.205E-01
  11.420  0.210E-01  0.211E-01  0.210E-01  0.211E-01
  11.430  0.211E-01  0.212E-01  0.211E-01  0.212E-01
  11.440  0.209E-01  0.210E-01  0.209E-01  0.210E-01
  11.450  0.216E-01  0.216E-01  0.216E-01  0.216E-01
  11.460  0.275E-01  0.277E-01  0.275E-01  0.277E-01
  11.470  0.251E-01  0.251E-01  0.251E-01  0.251E-01
  11.480  0.246E-01  0.247E-01  0.246E-01  0.247E-01
  11.490  0.246E-01  0.246E-01  0.246E-01  0.246E-01
  11.500  0.235E-01  0.235E-01  0.235E-01  0.235E-01
  11.510  0.244E-01  0.243E-01  0.244E-01  0.243E-01
  11.520  0.244E-01  0.243E-01  0.244E-01  0.243E-01
  11.530  0.256E-01  0.256E-01  0.256E-01  0.256E-01
  11.540  0.268E-01  0.268E-01  0.268E-01  0.268E-01
  11.550  0.246E-01  0.246E-01  0.246E-01  0.246E-01
  11.560  0.215E-01  0.215E-01  0.215E-01  0.215E-01
  11.570  0.205E-01  0.205E-01  0.205E-01  0.205E-01
  11.580  0.204E-01  0.204E-01  0.204E-01  0.204E-01
  11.590  0.209E-01  0.209E-01  0.209E-01  0.209E-01
  11.600  0.214E-01  0.214E-01  0.214E-01  0.214E-01
  11.610  0.216E-01  0.216E-01  0.216E-01  0.216E-01
  11.620  0.218E-01  0.217E-01  0.218E-01  0.217E-01
  11.630  0.220E-01  0.220E-01  0.220E-01  0.220E-01
  11.640  0.228E-01  0.228E-01  0.228E-01  0.228E-01
  11.650  0.217E-01  0.217E-01  0.217E-01  0.217E-01
  11.660  0.165E-01  0.165E-01  0.165E-01  0.165E-01
  11.670  0.154E-01  0.154E-01  0.154E-01  0.154E-01
  11.680  0.150E-01  0.150E-01  0.150E-01  0.150E-01
  11.690  0.149E-01  0.149E-01  0.149E-01  0.149E-01
  11.700  0.150E-01  0.150E-01  0.150E-01  0.150E-01
  11.710  0.152E-01  0.153E-01  0.152E-01  0.153E-01
  11.720  0.162E-01  0.162E-01  0.162E-01  0.162E-01
  11.730  0.175E-01  0.175E-01  0.175E-01  0.175E-01
  11.740  0.172E-01  0.172E-01  0.172E-01  0.172E-01
  11.750  0.178E-01  0.178E-01  0.178E-01  0.178E-01
  11.760  0.183E-01  0.183E-01  0.183E-01  0.183E-01
  11.770  0.159E-01  0.159E-01  0.159E-01  0.159E-01
  11.780  0.152E-01  0.153E-01  0.152E-01  0.153E-01
  11.790  0.148E-01  0.148E-01  0.148E-01  0.148E-01
  11.800  0.142E-01  0.143E-01  0.142E-01  0.143E-01
  11.810  0.138E-01  0.138E-01  0.138E-01  0.138E-01
  11.820  0.134E-01  0.134E-01  0.134E-01  0.134E-01
  11.830  0.135E-01  0.135E-01  0.135E-01  0.135E-01
  11.840  0.138E-01  0.138E-01  0.138E-01  0.138E-01
  11.850  0.137E-01  0.137E-01  0.137E-01  0.137E-01
  11.860  0.129E-01  0.129E-01  0.129E-01  0.129E-01
  11.870  0.110E-01  0.110E-01  0.110E-01  0.110E-01
  11.880  0.827E-02  0.827E-02  0.827E-02  0.827E-02
  11.890  0.750E-02  0.750E-02  0.750E-02  0.750E-02
  11.900  0.699E-02  0.699E-02  0.699E-02  0.699E-02
  11.910  0.650E-02  0.650E-02  0.650E-02  0.650E-02
  11.920  0.603E-02  0.603E-02  0.603E-02  0.603E-02
  11.930  0.559E-02  0.559E-02  0.559E-02  0.559E-02
  11.940  0.518E-02  0.518E-02  0.518E-02  0.518E-02
  11.950  0.480E-02  0.479E-02  0.480E-02  0.479E-02
  11.960  0.444E-02  0.444E-02  0.444E-02  0.444E-02
  11.970  0.410E-02  0.410E-02  0.410E-02  0.410E-02
  11.980  0.378E-02  0.378E-02  0.378E-02  0.378E-02
  11.990  0.349E-02  0.349E-02  0.349E-02  0.349E-02
  12.000  0.325E-02  0.325E-02  0.325E-02  0.325E-02
  12.010  0.307E-02  0.307E-02  0.307E-02  0.307E-02
