#  E (eV)   dosup(E)     dosdw(E)   Int dos(E) EFermi =    7.224 eV
 -15.000  0.0000E+00  0.0000E+00  0.8000E+01
 -14.990  0.0000E+00  0.0000E+00  0.8000E+01
 -14.980  0.0000E+00  0.0000E+00  0.8000E+01
 -14.970  0.0000E+00  0.0000E+00  0.8000E+01
 -14.960  0.0000E+00  0.0000E+00  0.8000E+01
 -14.950  0.0000E+00  0.0000E+00  0.8000E+01
 -14.940  0.0000E+00  0.0000E+00  0.8000E+01
 -14.930  0.0000E+00  0.0000E+00  0.8000E+01
 -14.920  0.0000E+00  0.0000E+00  0.8000E+01
 -14.910  0.0000E+00  0.0000E+00  0.8000E+01
 -14.900  0.0000E+00  0.0000E+00  0.8000E+01
 -14.890  0.0000E+00  0.0000E+00  0.8000E+01
 -14.880  0.0000E+00  0.0000E+00  0.8000E+01
 -14.870  0.0000E+00  0.0000E+00  0.8000E+01
 -14.860  0.0000E+00  0.0000E+00  0.8000E+01
 -14.850  0.0000E+00  0.0000E+00  0.8000E+01
 -14.840  0.0000E+00  0.0000E+00  0.8000E+01
 -14.830  0.0000E+00  0.0000E+00  0.8000E+01
 -14.820  0.0000E+00  0.0000E+00  0.8000E+01
 -14.810  0.0000E+00  0.0000E+00  0.8000E+01
 -14.800  0.0000E+00  0.0000E+00  0.8000E+01
 -14.790  0.0000E+00  0.0000E+00  0.8000E+01
 -14.780  0.0000E+00  0.0000E+00  0.8000E+01
 -14.770  0.0000E+00  0.0000E+00  0.8000E+01
 -14.760  0.0000E+00  0.0000E+00  0.8000E+01
 -14.750  0.0000E+00  0.0000E+00  0.8000E+01
 -14.740  0.0000E+00  0.0000E+00  0.8000E+01
 -14.730  0.0000E+00  0.0000E+00  0.8000E+01
 -14.720  0.0000E+00  0.0000E+00  0.8000E+01
 -14.710  0.0000E+00  0.0000E+00  0.8000E+01
 -14.700  0.0000E+00  0.0000E+00  0.8000E+01
 -14.690  0.0000E+00  0.0000E+00  0.8000E+01
 -14.680  0.0000E+00  0.0000E+00  0.8000E+01
 -14.670  0.0000E+00  0.0000E+00  0.8000E+01
 -14.660  0.0000E+00  0.0000E+00  0.8000E+01
 -14.650  0.0000E+00  0.0000E+00  0.8000E+01
 -14.640  0.0000E+00  0.0000E+00  0.8000E+01
 -14.630  0.0000E+00  0.0000E+00  0.8000E+01
 -14.620  0.0000E+00  0.0000E+00  0.8000E+01
 -14.610  0.0000E+00  0.0000E+00  0.8000E+01
 -14.600  0.0000E+00  0.0000E+00  0.8000E+01
 -14.590  0.0000E+00  0.0000E+00  0.8000E+01
 -14.580  0.0000E+00  0.0000E+00  0.8000E+01
 -14.570  0.0000E+00  0.0000E+00  0.8000E+01
 -14.560  0.0000E+00  0.0000E+00  0.8000E+01
 -14.550  0.0000E+00  0.0000E+00  0.8000E+01
 -14.540  0.0000E+00  0.0000E+00  0.8000E+01
 -14.530  0.0000E+00  0.0000E+00  0.8000E+01
 -14.520  0.0000E+00  0.0000E+00  0.8000E+01
 -14.510  0.0000E+00  0.0000E+00  0.8000E+01
 -14.500  0.0000E+00  0.0000E+00  0.8000E+01
 -14.490  0.0000E+00  0.0000E+00  0.8000E+01
 -14.480  0.0000E+00  0.0000E+00  0.8000E+01
 -14.470  0.0000E+00  0.0000E+00  0.8000E+01
 -14.460  0.0000E+00  0.0000E+00  0.8000E+01
 -14.450  0.0000E+00  0.0000E+00  0.8000E+01
 -14.440  0.0000E+00  0.0000E+00  0.8000E+01
 -14.430  0.0000E+00  0.0000E+00  0.8000E+01
 -14.420  0.0000E+00  0.0000E+00  0.8000E+01
 -14.410  0.0000E+00  0.0000E+00  0.8000E+01
 -14.400  0.0000E+00  0.0000E+00  0.8000E+01
 -14.390  0.0000E+00  0.0000E+00  0.8000E+01
 -14.380  0.0000E+00  0.0000E+00  0.8000E+01
 -14.370  0.0000E+00  0.0000E+00  0.8000E+01
 -14.360  0.0000E+00  0.0000E+00  0.8000E+01
 -14.350  0.0000E+00  0.0000E+00  0.8000E+01
 -14.340  0.0000E+00  0.0000E+00  0.8000E+01
 -14.330  0.0000E+00  0.0000E+00  0.8000E+01
 -14.320  0.0000E+00  0.0000E+00  0.8000E+01
 -14.310  0.0000E+00  0.0000E+00  0.8000E+01
 -14.300  0.0000E+00  0.0000E+00  0.8000E+01
 -14.290  0.0000E+00  0.0000E+00  0.8000E+01
 -14.280  0.0000E+00  0.0000E+00  0.8000E+01
 -14.270  0.0000E+00  0.0000E+00  0.8000E+01
 -14.260  0.0000E+00  0.0000E+00  0.8000E+01
 -14.250  0.0000E+00  0.0000E+00  0.8000E+01
 -14.240  0.0000E+00  0.0000E+00  0.8000E+01
 -14.230  0.0000E+00  0.0000E+00  0.8000E+01
 -14.220  0.0000E+00  0.0000E+00  0.8000E+01
 -14.210  0.0000E+00  0.0000E+00  0.8000E+01
 -14.200  0.0000E+00  0.0000E+00  0.8000E+01
 -14.190  0.0000E+00  0.0000E+00  0.8000E+01
 -14.180  0.0000E+00  0.0000E+00  0.8000E+01
 -14.170  0.0000E+00  0.0000E+00  0.8000E+01
 -14.160  0.0000E+00  0.0000E+00  0.8000E+01
 -14.150  0.0000E+00  0.0000E+00  0.8000E+01
 -14.140  0.0000E+00  0.0000E+00  0.8000E+01
 -14.130  0.0000E+00  0.0000E+00  0.8000E+01
 -14.120  0.0000E+00  0.0000E+00  0.8000E+01
 -14.110  0.0000E+00  0.0000E+00  0.8000E+01
 -14.100  0.0000E+00  0.0000E+00  0.8000E+01
 -14.090  0.0000E+00  0.0000E+00  0.8000E+01
 -14.080  0.0000E+00  0.0000E+00  0.8000E+01
 -14.070  0.0000E+00  0.0000E+00  0.8000E+01
 -14.060  0.0000E+00  0.0000E+00  0.8000E+01
 -14.050  0.0000E+00  0.0000E+00  0.8000E+01
 -14.040  0.0000E+00  0.0000E+00  0.8000E+01
 -14.030  0.0000E+00  0.0000E+00  0.8000E+01
 -14.020  0.0000E+00  0.0000E+00  0.8000E+01
 -14.010  0.0000E+00  0.0000E+00  0.8000E+01
 -14.000  0.0000E+00  0.0000E+00  0.8000E+01
 -13.990  0.0000E+00  0.0000E+00  0.8000E+01
 -13.980  0.0000E+00  0.0000E+00  0.8000E+01
 -13.970  0.0000E+00  0.0000E+00  0.8000E+01
 -13.960  0.0000E+00  0.0000E+00  0.8000E+01
 -13.950  0.0000E+00  0.0000E+00  0.8000E+01
 -13.940  0.0000E+00  0.0000E+00  0.8000E+01
 -13.930  0.0000E+00  0.0000E+00  0.8000E+01
 -13.920  0.0000E+00  0.0000E+00  0.8000E+01
 -13.910  0.0000E+00  0.0000E+00  0.8000E+01
 -13.900  0.0000E+00  0.0000E+00  0.8000E+01
 -13.890  0.0000E+00  0.0000E+00  0.8000E+01
 -13.880  0.0000E+00  0.0000E+00  0.8000E+01
 -13.870  0.0000E+00  0.0000E+00  0.8000E+01
 -13.860  0.0000E+00  0.0000E+00  0.8000E+01
 -13.850  0.0000E+00  0.0000E+00  0.8000E+01
 -13.840  0.0000E+00  0.0000E+00  0.8000E+01
 -13.830  0.0000E+00  0.0000E+00  0.8000E+01
 -13.820  0.0000E+00  0.0000E+00  0.8000E+01
 -13.810  0.0000E+00  0.0000E+00  0.8000E+01
 -13.800  0.0000E+00  0.0000E+00  0.8000E+01
 -13.790  0.0000E+00  0.0000E+00  0.8000E+01
 -13.780  0.0000E+00  0.0000E+00  0.8000E+01
 -13.770  0.0000E+00  0.0000E+00  0.8000E+01
 -13.760  0.0000E+00  0.0000E+00  0.8000E+01
 -13.750  0.0000E+00  0.0000E+00  0.8000E+01
 -13.740  0.0000E+00  0.0000E+00  0.8000E+01
 -13.730  0.0000E+00  0.0000E+00  0.8000E+01
 -13.720  0.0000E+00  0.0000E+00  0.8000E+01
 -13.710  0.0000E+00  0.0000E+00  0.8000E+01
 -13.700  0.0000E+00  0.0000E+00  0.8000E+01
 -13.690  0.0000E+00  0.0000E+00  0.8000E+01
 -13.680  0.0000E+00  0.0000E+00  0.8000E+01
 -13.670  0.0000E+00  0.0000E+00  0.8000E+01
 -13.660  0.0000E+00  0.0000E+00  0.8000E+01
 -13.650  0.0000E+00  0.0000E+00  0.8000E+01
 -13.640  0.0000E+00  0.0000E+00  0.8000E+01
 -13.630  0.0000E+00  0.0000E+00  0.8000E+01
 -13.620  0.0000E+00  0.0000E+00  0.8000E+01
 -13.610  0.0000E+00  0.0000E+00  0.8000E+01
 -13.600  0.0000E+00  0.0000E+00  0.8000E+01
 -13.590  0.0000E+00  0.0000E+00  0.8000E+01
 -13.580  0.0000E+00  0.0000E+00  0.8000E+01
 -13.570  0.0000E+00  0.0000E+00  0.8000E+01
 -13.560  0.0000E+00  0.0000E+00  0.8000E+01
 -13.550  0.0000E+00  0.0000E+00  0.8000E+01
 -13.540  0.0000E+00  0.0000E+00  0.8000E+01
 -13.530  0.0000E+00  0.0000E+00  0.8000E+01
 -13.520  0.0000E+00  0.0000E+00  0.8000E+01
 -13.510  0.0000E+00  0.0000E+00  0.8000E+01
 -13.500  0.0000E+00  0.0000E+00  0.8000E+01
 -13.490  0.0000E+00  0.0000E+00  0.8000E+01
 -13.480  0.0000E+00  0.0000E+00  0.8000E+01
 -13.470  0.0000E+00  0.0000E+00  0.8000E+01
 -13.460  0.0000E+00  0.0000E+00  0.8000E+01
 -13.450  0.0000E+00  0.0000E+00  0.8000E+01
 -13.440  0.0000E+00  0.0000E+00  0.8000E+01
 -13.430  0.0000E+00  0.0000E+00  0.8000E+01
 -13.420  0.0000E+00  0.0000E+00  0.8000E+01
 -13.410  0.0000E+00  0.0000E+00  0.8000E+01
 -13.400  0.0000E+00  0.0000E+00  0.8000E+01
 -13.390  0.0000E+00  0.0000E+00  0.8000E+01
 -13.380  0.0000E+00  0.0000E+00  0.8000E+01
 -13.370  0.0000E+00  0.0000E+00  0.8000E+01
 -13.360  0.0000E+00  0.0000E+00  0.8000E+01
 -13.350  0.0000E+00  0.0000E+00  0.8000E+01
 -13.340  0.0000E+00  0.0000E+00  0.8000E+01
 -13.330  0.0000E+00  0.0000E+00  0.8000E+01
 -13.320  0.0000E+00  0.0000E+00  0.8000E+01
 -13.310  0.0000E+00  0.0000E+00  0.8000E+01
 -13.300  0.0000E+00  0.0000E+00  0.8000E+01
 -13.290  0.0000E+00  0.0000E+00  0.8000E+01
 -13.280  0.0000E+00  0.0000E+00  0.8000E+01
 -13.270  0.0000E+00  0.0000E+00  0.8000E+01
 -13.260  0.0000E+00  0.0000E+00  0.8000E+01
 -13.250  0.0000E+00  0.0000E+00  0.8000E+01
 -13.240  0.0000E+00  0.0000E+00  0.8000E+01
 -13.230  0.0000E+00  0.0000E+00  0.8000E+01
 -13.220  0.0000E+00  0.0000E+00  0.8000E+01
 -13.210  0.0000E+00  0.0000E+00  0.8000E+01
 -13.200  0.0000E+00  0.0000E+00  0.8000E+01
 -13.190  0.0000E+00  0.0000E+00  0.8000E+01
 -13.180  0.0000E+00  0.0000E+00  0.8000E+01
 -13.170  0.0000E+00  0.0000E+00  0.8000E+01
 -13.160  0.0000E+00  0.0000E+00  0.8000E+01
 -13.150  0.0000E+00  0.0000E+00  0.8000E+01
 -13.140  0.0000E+00  0.0000E+00  0.8000E+01
 -13.130  0.0000E+00  0.0000E+00  0.8000E+01
 -13.120  0.0000E+00  0.0000E+00  0.8000E+01
 -13.110  0.0000E+00  0.0000E+00  0.8000E+01
 -13.100  0.0000E+00  0.0000E+00  0.8000E+01
 -13.090  0.0000E+00  0.0000E+00  0.8000E+01
 -13.080  0.0000E+00  0.0000E+00  0.8000E+01
 -13.070  0.0000E+00  0.0000E+00  0.8000E+01
 -13.060  0.0000E+00  0.0000E+00  0.8000E+01
 -13.050  0.0000E+00  0.0000E+00  0.8000E+01
 -13.040  0.0000E+00  0.0000E+00  0.8000E+01
 -13.030  0.0000E+00  0.0000E+00  0.8000E+01
 -13.020  0.0000E+00  0.0000E+00  0.8000E+01
 -13.010  0.0000E+00  0.0000E+00  0.8000E+01
 -13.000  0.0000E+00  0.0000E+00  0.8000E+01
 -12.990  0.0000E+00  0.0000E+00  0.8000E+01
 -12.980  0.0000E+00  0.0000E+00  0.8000E+01
 -12.970  0.0000E+00  0.0000E+00  0.8000E+01
 -12.960  0.0000E+00  0.0000E+00  0.8000E+01
 -12.950  0.0000E+00  0.0000E+00  0.8000E+01
 -12.940  0.0000E+00  0.0000E+00  0.8000E+01
 -12.930  0.0000E+00  0.0000E+00  0.8000E+01
 -12.920  0.0000E+00  0.0000E+00  0.8000E+01
 -12.910  0.0000E+00  0.0000E+00  0.8000E+01
 -12.900  0.0000E+00  0.0000E+00  0.8000E+01
 -12.890  0.0000E+00  0.0000E+00  0.8000E+01
 -12.880  0.0000E+00  0.0000E+00  0.8000E+01
 -12.870  0.0000E+00  0.0000E+00  0.8000E+01
 -12.860  0.0000E+00  0.0000E+00  0.8000E+01
 -12.850  0.0000E+00  0.0000E+00  0.8000E+01
 -12.840  0.0000E+00  0.0000E+00  0.8000E+01
 -12.830  0.0000E+00  0.0000E+00  0.8000E+01
 -12.820  0.0000E+00  0.0000E+00  0.8000E+01
 -12.810  0.0000E+00  0.0000E+00  0.8000E+01
 -12.800  0.0000E+00  0.0000E+00  0.8000E+01
 -12.790  0.0000E+00  0.0000E+00  0.8000E+01
 -12.780  0.0000E+00  0.0000E+00  0.8000E+01
 -12.770  0.0000E+00  0.0000E+00  0.8000E+01
 -12.760  0.0000E+00  0.0000E+00  0.8000E+01
 -12.750  0.0000E+00  0.0000E+00  0.8000E+01
 -12.740  0.0000E+00  0.0000E+00  0.8000E+01
 -12.730  0.0000E+00  0.0000E+00  0.8000E+01
 -12.720  0.0000E+00  0.0000E+00  0.8000E+01
 -12.710  0.0000E+00  0.0000E+00  0.8000E+01
 -12.700  0.0000E+00  0.0000E+00  0.8000E+01
 -12.690  0.0000E+00  0.0000E+00  0.8000E+01
 -12.680  0.0000E+00  0.0000E+00  0.8000E+01
 -12.670  0.0000E+00  0.0000E+00  0.8000E+01
 -12.660  0.0000E+00  0.0000E+00  0.8000E+01
 -12.650  0.0000E+00  0.0000E+00  0.8000E+01
 -12.640  0.0000E+00  0.0000E+00  0.8000E+01
 -12.630  0.0000E+00  0.0000E+00  0.8000E+01
 -12.620  0.0000E+00  0.0000E+00  0.8000E+01
 -12.610  0.0000E+00  0.0000E+00  0.8000E+01
 -12.600  0.0000E+00  0.0000E+00  0.8000E+01
 -12.590  0.0000E+00  0.0000E+00  0.8000E+01
 -12.580  0.0000E+00  0.0000E+00  0.8000E+01
 -12.570  0.0000E+00  0.0000E+00  0.8000E+01
 -12.560  0.0000E+00  0.0000E+00  0.8000E+01
 -12.550  0.0000E+00  0.0000E+00  0.8000E+01
 -12.540  0.0000E+00  0.0000E+00  0.8000E+01
 -12.530  0.0000E+00  0.0000E+00  0.8000E+01
 -12.520  0.0000E+00  0.0000E+00  0.8000E+01
 -12.510  0.0000E+00  0.0000E+00  0.8000E+01
 -12.500  0.0000E+00  0.0000E+00  0.8000E+01
 -12.490  0.0000E+00  0.0000E+00  0.8000E+01
 -12.480  0.0000E+00  0.0000E+00  0.8000E+01
 -12.470  0.0000E+00  0.0000E+00  0.8000E+01
 -12.460  0.0000E+00  0.0000E+00  0.8000E+01
 -12.450  0.0000E+00  0.0000E+00  0.8000E+01
 -12.440  0.0000E+00  0.0000E+00  0.8000E+01
 -12.430  0.0000E+00  0.0000E+00  0.8000E+01
 -12.420  0.0000E+00  0.0000E+00  0.8000E+01
 -12.410  0.0000E+00  0.0000E+00  0.8000E+01
 -12.400  0.0000E+00  0.0000E+00  0.8000E+01
 -12.390  0.0000E+00  0.0000E+00  0.8000E+01
 -12.380  0.0000E+00  0.0000E+00  0.8000E+01
 -12.370  0.0000E+00  0.0000E+00  0.8000E+01
 -12.360  0.0000E+00  0.0000E+00  0.8000E+01
 -12.350  0.0000E+00  0.0000E+00  0.8000E+01
 -12.340  0.0000E+00  0.0000E+00  0.8000E+01
 -12.330  0.0000E+00  0.0000E+00  0.8000E+01
 -12.320  0.0000E+00  0.0000E+00  0.8000E+01
 -12.310  0.0000E+00  0.0000E+00  0.8000E+01
 -12.300  0.0000E+00  0.0000E+00  0.8000E+01
 -12.290  0.0000E+00  0.0000E+00  0.8000E+01
 -12.280  0.0000E+00  0.0000E+00  0.8000E+01
 -12.270  0.0000E+00  0.0000E+00  0.8000E+01
 -12.260  0.0000E+00  0.0000E+00  0.8000E+01
 -12.250  0.0000E+00  0.0000E+00  0.8000E+01
 -12.240  0.0000E+00  0.0000E+00  0.8000E+01
 -12.230  0.0000E+00  0.0000E+00  0.8000E+01
 -12.220  0.0000E+00  0.0000E+00  0.8000E+01
 -12.210  0.0000E+00  0.0000E+00  0.8000E+01
 -12.200  0.0000E+00  0.0000E+00  0.8000E+01
 -12.190  0.0000E+00  0.0000E+00  0.8000E+01
 -12.180  0.0000E+00  0.0000E+00  0.8000E+01
 -12.170  0.0000E+00  0.0000E+00  0.8000E+01
 -12.160  0.0000E+00  0.0000E+00  0.8000E+01
 -12.150  0.0000E+00  0.0000E+00  0.8000E+01
 -12.140  0.0000E+00  0.0000E+00  0.8000E+01
 -12.130  0.0000E+00  0.0000E+00  0.8000E+01
 -12.120  0.0000E+00  0.0000E+00  0.8000E+01
 -12.110  0.0000E+00  0.0000E+00  0.8000E+01
 -12.100  0.0000E+00  0.0000E+00  0.8000E+01
 -12.090  0.0000E+00  0.0000E+00  0.8000E+01
 -12.080  0.0000E+00  0.0000E+00  0.8000E+01
 -12.070  0.0000E+00  0.0000E+00  0.8000E+01
 -12.060  0.0000E+00  0.0000E+00  0.8000E+01
 -12.050  0.0000E+00  0.0000E+00  0.8000E+01
 -12.040  0.0000E+00  0.0000E+00  0.8000E+01
 -12.030  0.0000E+00  0.0000E+00  0.8000E+01
 -12.020  0.0000E+00  0.0000E+00  0.8000E+01
 -12.010  0.0000E+00  0.0000E+00  0.8000E+01
 -12.000  0.0000E+00  0.0000E+00  0.8000E+01
 -11.990  0.0000E+00  0.0000E+00  0.8000E+01
 -11.980  0.0000E+00  0.0000E+00  0.8000E+01
 -11.970  0.0000E+00  0.0000E+00  0.8000E+01
 -11.960  0.0000E+00  0.0000E+00  0.8000E+01
 -11.950  0.0000E+00  0.0000E+00  0.8000E+01
 -11.940  0.0000E+00  0.0000E+00  0.8000E+01
 -11.930  0.0000E+00  0.0000E+00  0.8000E+01
 -11.920  0.0000E+00  0.0000E+00  0.8000E+01
 -11.910  0.0000E+00  0.0000E+00  0.8000E+01
 -11.900  0.0000E+00  0.0000E+00  0.8000E+01
 -11.890  0.0000E+00  0.0000E+00  0.8000E+01
 -11.880  0.0000E+00  0.0000E+00  0.8000E+01
 -11.870  0.0000E+00  0.0000E+00  0.8000E+01
 -11.860  0.0000E+00  0.0000E+00  0.8000E+01
 -11.850  0.0000E+00  0.0000E+00  0.8000E+01
 -11.840  0.0000E+00  0.0000E+00  0.8000E+01
 -11.830  0.0000E+00  0.0000E+00  0.8000E+01
 -11.820  0.0000E+00  0.0000E+00  0.8000E+01
 -11.810  0.0000E+00  0.0000E+00  0.8000E+01
 -11.800  0.0000E+00  0.0000E+00  0.8000E+01
 -11.790  0.0000E+00  0.0000E+00  0.8000E+01
 -11.780  0.0000E+00  0.0000E+00  0.8000E+01
 -11.770  0.0000E+00  0.0000E+00  0.8000E+01
 -11.760  0.0000E+00  0.0000E+00  0.8000E+01
 -11.750  0.0000E+00  0.0000E+00  0.8000E+01
 -11.740  0.0000E+00  0.0000E+00  0.8000E+01
 -11.730  0.0000E+00  0.0000E+00  0.8000E+01
 -11.720  0.0000E+00  0.0000E+00  0.8000E+01
 -11.710  0.0000E+00  0.0000E+00  0.8000E+01
 -11.700  0.0000E+00  0.0000E+00  0.8000E+01
 -11.690  0.0000E+00  0.0000E+00  0.8000E+01
 -11.680  0.0000E+00  0.0000E+00  0.8000E+01
 -11.670  0.0000E+00  0.0000E+00  0.8000E+01
 -11.660  0.0000E+00  0.0000E+00  0.8000E+01
 -11.650  0.0000E+00  0.0000E+00  0.8000E+01
 -11.640  0.0000E+00  0.0000E+00  0.8000E+01
 -11.630  0.0000E+00  0.0000E+00  0.8000E+01
 -11.620  0.0000E+00  0.0000E+00  0.8000E+01
 -11.610  0.0000E+00  0.0000E+00  0.8000E+01
 -11.600  0.0000E+00  0.0000E+00  0.8000E+01
 -11.590  0.0000E+00  0.0000E+00  0.8000E+01
 -11.580  0.0000E+00  0.0000E+00  0.8000E+01
 -11.570  0.0000E+00  0.0000E+00  0.8000E+01
 -11.560  0.0000E+00  0.0000E+00  0.8000E+01
 -11.550  0.0000E+00  0.0000E+00  0.8000E+01
 -11.540  0.0000E+00  0.0000E+00  0.8000E+01
 -11.530  0.0000E+00  0.0000E+00  0.8000E+01
 -11.520  0.0000E+00  0.0000E+00  0.8000E+01
 -11.510  0.0000E+00  0.0000E+00  0.8000E+01
 -11.500  0.0000E+00  0.0000E+00  0.8000E+01
 -11.490  0.0000E+00  0.0000E+00  0.8000E+01
 -11.480  0.0000E+00  0.0000E+00  0.8000E+01
 -11.470  0.0000E+00  0.0000E+00  0.8000E+01
 -11.460  0.0000E+00  0.0000E+00  0.8000E+01
 -11.450  0.0000E+00  0.0000E+00  0.8000E+01
 -11.440  0.0000E+00  0.0000E+00  0.8000E+01
 -11.430  0.0000E+00  0.0000E+00  0.8000E+01
 -11.420  0.0000E+00  0.0000E+00  0.8000E+01
 -11.410  0.0000E+00  0.0000E+00  0.8000E+01
 -11.400  0.0000E+00  0.0000E+00  0.8000E+01
 -11.390  0.0000E+00  0.0000E+00  0.8000E+01
 -11.380  0.0000E+00  0.0000E+00  0.8000E+01
 -11.370  0.0000E+00  0.0000E+00  0.8000E+01
 -11.360  0.0000E+00  0.0000E+00  0.8000E+01
 -11.350  0.0000E+00  0.0000E+00  0.8000E+01
 -11.340  0.0000E+00  0.0000E+00  0.8000E+01
 -11.330  0.0000E+00  0.0000E+00  0.8000E+01
 -11.320  0.0000E+00  0.0000E+00  0.8000E+01
 -11.310  0.0000E+00  0.0000E+00  0.8000E+01
 -11.300  0.0000E+00  0.0000E+00  0.8000E+01
 -11.290  0.0000E+00  0.0000E+00  0.8000E+01
 -11.280  0.0000E+00  0.0000E+00  0.8000E+01
 -11.270  0.0000E+00  0.0000E+00  0.8000E+01
 -11.260  0.0000E+00  0.0000E+00  0.8000E+01
 -11.250  0.0000E+00  0.0000E+00  0.8000E+01
 -11.240  0.0000E+00  0.0000E+00  0.8000E+01
 -11.230  0.0000E+00  0.0000E+00  0.8000E+01
 -11.220  0.0000E+00  0.0000E+00  0.8000E+01
 -11.210  0.0000E+00  0.0000E+00  0.8000E+01
 -11.200  0.0000E+00  0.0000E+00  0.8000E+01
 -11.190  0.0000E+00  0.0000E+00  0.8000E+01
 -11.180  0.0000E+00  0.0000E+00  0.8000E+01
 -11.170  0.0000E+00  0.0000E+00  0.8000E+01
 -11.160  0.0000E+00  0.0000E+00  0.8000E+01
 -11.150  0.0000E+00  0.0000E+00  0.8000E+01
 -11.140  0.0000E+00  0.0000E+00  0.8000E+01
 -11.130  0.0000E+00  0.0000E+00  0.8000E+01
 -11.120  0.0000E+00  0.0000E+00  0.8000E+01
 -11.110  0.0000E+00  0.0000E+00  0.8000E+01
 -11.100  0.0000E+00  0.0000E+00  0.8000E+01
 -11.090  0.0000E+00  0.0000E+00  0.8000E+01
 -11.080  0.0000E+00  0.0000E+00  0.8000E+01
 -11.070  0.0000E+00  0.0000E+00  0.8000E+01
 -11.060  0.0000E+00  0.0000E+00  0.8000E+01
 -11.050  0.0000E+00  0.0000E+00  0.8000E+01
 -11.040  0.0000E+00  0.0000E+00  0.8000E+01
 -11.030  0.0000E+00  0.0000E+00  0.8000E+01
 -11.020  0.0000E+00  0.0000E+00  0.8000E+01
 -11.010  0.0000E+00  0.0000E+00  0.8000E+01
 -11.000  0.0000E+00  0.0000E+00  0.8000E+01
 -10.990  0.0000E+00  0.0000E+00  0.8000E+01
 -10.980  0.0000E+00  0.0000E+00  0.8000E+01
 -10.970  0.0000E+00  0.0000E+00  0.8000E+01
 -10.960  0.0000E+00  0.0000E+00  0.8000E+01
 -10.950  0.0000E+00  0.0000E+00  0.8000E+01
 -10.940  0.0000E+00  0.0000E+00  0.8000E+01
 -10.930  0.0000E+00  0.0000E+00  0.8000E+01
 -10.920  0.0000E+00  0.0000E+00  0.8000E+01
 -10.910  0.0000E+00  0.0000E+00  0.8000E+01
 -10.900  0.0000E+00  0.0000E+00  0.8000E+01
 -10.890  0.0000E+00  0.0000E+00  0.8000E+01
 -10.880  0.0000E+00  0.0000E+00  0.8000E+01
 -10.870  0.0000E+00  0.0000E+00  0.8000E+01
 -10.860  0.0000E+00  0.0000E+00  0.8000E+01
 -10.850  0.0000E+00  0.0000E+00  0.8000E+01
 -10.840  0.0000E+00  0.0000E+00  0.8000E+01
 -10.830  0.0000E+00  0.0000E+00  0.8000E+01
 -10.820  0.0000E+00  0.0000E+00  0.8000E+01
 -10.810  0.0000E+00  0.0000E+00  0.8000E+01
 -10.800  0.0000E+00  0.0000E+00  0.8000E+01
 -10.790  0.0000E+00  0.0000E+00  0.8000E+01
 -10.780  0.0000E+00  0.0000E+00  0.8000E+01
 -10.770  0.0000E+00  0.0000E+00  0.8000E+01
 -10.760  0.0000E+00  0.0000E+00  0.8000E+01
 -10.750  0.0000E+00  0.0000E+00  0.8000E+01
 -10.740  0.0000E+00  0.0000E+00  0.8000E+01
 -10.730  0.0000E+00  0.0000E+00  0.8000E+01
 -10.720  0.0000E+00  0.0000E+00  0.8000E+01
 -10.710  0.0000E+00  0.0000E+00  0.8000E+01
 -10.700  0.0000E+00  0.0000E+00  0.8000E+01
 -10.690  0.0000E+00  0.0000E+00  0.8000E+01
 -10.680  0.0000E+00  0.0000E+00  0.8000E+01
 -10.670  0.0000E+00  0.0000E+00  0.8000E+01
 -10.660  0.0000E+00  0.0000E+00  0.8000E+01
 -10.650  0.0000E+00  0.0000E+00  0.8000E+01
 -10.640  0.0000E+00  0.0000E+00  0.8000E+01
 -10.630  0.0000E+00  0.0000E+00  0.8000E+01
 -10.620  0.0000E+00  0.0000E+00  0.8000E+01
 -10.610  0.0000E+00  0.0000E+00  0.8000E+01
 -10.600  0.0000E+00  0.0000E+00  0.8000E+01
 -10.590  0.0000E+00  0.0000E+00  0.8000E+01
 -10.580  0.0000E+00  0.0000E+00  0.8000E+01
 -10.570  0.0000E+00  0.0000E+00  0.8000E+01
 -10.560  0.0000E+00  0.0000E+00  0.8000E+01
 -10.550  0.0000E+00  0.0000E+00  0.8000E+01
 -10.540  0.0000E+00  0.0000E+00  0.8000E+01
 -10.530  0.0000E+00  0.0000E+00  0.8000E+01
 -10.520  0.0000E+00  0.0000E+00  0.8000E+01
 -10.510  0.0000E+00  0.0000E+00  0.8000E+01
 -10.500  0.0000E+00  0.0000E+00  0.8000E+01
 -10.490  0.0000E+00  0.0000E+00  0.8000E+01
 -10.480  0.0000E+00  0.0000E+00  0.8000E+01
 -10.470  0.0000E+00  0.0000E+00  0.8000E+01
 -10.460  0.0000E+00  0.0000E+00  0.8000E+01
 -10.450  0.0000E+00  0.0000E+00  0.8000E+01
 -10.440  0.0000E+00  0.0000E+00  0.8000E+01
 -10.430  0.0000E+00  0.0000E+00  0.8000E+01
 -10.420  0.0000E+00  0.0000E+00  0.8000E+01
 -10.410  0.0000E+00  0.0000E+00  0.8000E+01
 -10.400  0.0000E+00  0.0000E+00  0.8000E+01
 -10.390  0.0000E+00  0.0000E+00  0.8000E+01
 -10.380  0.0000E+00  0.0000E+00  0.8000E+01
 -10.370  0.0000E+00  0.0000E+00  0.8000E+01
 -10.360  0.0000E+00  0.0000E+00  0.8000E+01
 -10.350  0.0000E+00  0.0000E+00  0.8000E+01
 -10.340  0.0000E+00  0.0000E+00  0.8000E+01
 -10.330  0.0000E+00  0.0000E+00  0.8000E+01
 -10.320  0.0000E+00  0.0000E+00  0.8000E+01
 -10.310  0.0000E+00  0.0000E+00  0.8000E+01
 -10.300  0.0000E+00  0.0000E+00  0.8000E+01
 -10.290  0.0000E+00  0.0000E+00  0.8000E+01
 -10.280  0.0000E+00  0.0000E+00  0.8000E+01
 -10.270  0.0000E+00  0.0000E+00  0.8000E+01
 -10.260  0.0000E+00  0.0000E+00  0.8000E+01
 -10.250  0.0000E+00  0.0000E+00  0.8000E+01
 -10.240  0.0000E+00  0.0000E+00  0.8000E+01
 -10.230  0.0000E+00  0.0000E+00  0.8000E+01
 -10.220  0.0000E+00  0.0000E+00  0.8000E+01
 -10.210  0.0000E+00  0.0000E+00  0.8000E+01
 -10.200  0.0000E+00  0.0000E+00  0.8000E+01
 -10.190  0.0000E+00  0.0000E+00  0.8000E+01
 -10.180  0.0000E+00  0.0000E+00  0.8000E+01
 -10.170  0.0000E+00  0.0000E+00  0.8000E+01
 -10.160  0.0000E+00  0.0000E+00  0.8000E+01
 -10.150  0.0000E+00  0.0000E+00  0.8000E+01
 -10.140  0.0000E+00  0.0000E+00  0.8000E+01
 -10.130  0.0000E+00  0.0000E+00  0.8000E+01
 -10.120  0.0000E+00  0.0000E+00  0.8000E+01
 -10.110  0.0000E+00  0.0000E+00  0.8000E+01
 -10.100  0.0000E+00  0.0000E+00  0.8000E+01
 -10.090  0.0000E+00  0.0000E+00  0.8000E+01
 -10.080  0.0000E+00  0.0000E+00  0.8000E+01
 -10.070  0.0000E+00  0.0000E+00  0.8000E+01
 -10.060  0.0000E+00  0.0000E+00  0.8000E+01
 -10.050  0.0000E+00  0.0000E+00  0.8000E+01
 -10.040  0.0000E+00  0.0000E+00  0.8000E+01
 -10.030  0.0000E+00  0.0000E+00  0.8000E+01
 -10.020  0.0000E+00  0.0000E+00  0.8000E+01
 -10.010  0.0000E+00  0.0000E+00  0.8000E+01
 -10.000  0.0000E+00  0.0000E+00  0.8000E+01
  -9.990  0.0000E+00  0.0000E+00  0.8000E+01
  -9.980  0.0000E+00  0.0000E+00  0.8000E+01
  -9.970  0.0000E+00  0.0000E+00  0.8000E+01
  -9.960  0.0000E+00  0.0000E+00  0.8000E+01
  -9.950  0.0000E+00  0.0000E+00  0.8000E+01
  -9.940  0.0000E+00  0.0000E+00  0.8000E+01
  -9.930  0.0000E+00  0.0000E+00  0.8000E+01
  -9.920  0.0000E+00  0.0000E+00  0.8000E+01
  -9.910  0.0000E+00  0.0000E+00  0.8000E+01
  -9.900  0.0000E+00  0.0000E+00  0.8000E+01
  -9.890  0.0000E+00  0.0000E+00  0.8000E+01
  -9.880  0.0000E+00  0.0000E+00  0.8000E+01
  -9.870  0.0000E+00  0.0000E+00  0.8000E+01
  -9.860  0.0000E+00  0.0000E+00  0.8000E+01
  -9.850  0.0000E+00  0.0000E+00  0.8000E+01
  -9.840  0.0000E+00  0.0000E+00  0.8000E+01
  -9.830  0.0000E+00  0.0000E+00  0.8000E+01
  -9.820  0.0000E+00  0.0000E+00  0.8000E+01
  -9.810  0.0000E+00  0.0000E+00  0.8000E+01
  -9.800  0.0000E+00  0.0000E+00  0.8000E+01
  -9.790  0.0000E+00  0.0000E+00  0.8000E+01
  -9.780  0.0000E+00  0.0000E+00  0.8000E+01
  -9.770  0.0000E+00  0.0000E+00  0.8000E+01
  -9.760  0.0000E+00  0.0000E+00  0.8000E+01
  -9.750  0.0000E+00  0.0000E+00  0.8000E+01
  -9.740  0.0000E+00  0.0000E+00  0.8000E+01
  -9.730  0.0000E+00  0.0000E+00  0.8000E+01
  -9.720  0.0000E+00  0.0000E+00  0.8000E+01
  -9.710  0.0000E+00  0.0000E+00  0.8000E+01
  -9.700  0.0000E+00  0.0000E+00  0.8000E+01
  -9.690  0.0000E+00  0.0000E+00  0.8000E+01
  -9.680  0.0000E+00  0.0000E+00  0.8000E+01
  -9.670  0.0000E+00  0.0000E+00  0.8000E+01
  -9.660  0.0000E+00  0.0000E+00  0.8000E+01
  -9.650  0.0000E+00  0.0000E+00  0.8000E+01
  -9.640  0.0000E+00  0.0000E+00  0.8000E+01
  -9.630  0.0000E+00  0.0000E+00  0.8000E+01
  -9.620  0.0000E+00  0.0000E+00  0.8000E+01
  -9.610  0.0000E+00  0.0000E+00  0.8000E+01
  -9.600  0.0000E+00  0.0000E+00  0.8000E+01
  -9.590  0.0000E+00  0.0000E+00  0.8000E+01
  -9.580  0.0000E+00  0.0000E+00  0.8000E+01
  -9.570  0.0000E+00  0.0000E+00  0.8000E+01
  -9.560  0.0000E+00  0.0000E+00  0.8000E+01
  -9.550  0.0000E+00  0.0000E+00  0.8000E+01
  -9.540  0.0000E+00  0.0000E+00  0.8000E+01
  -9.530  0.0000E+00  0.0000E+00  0.8000E+01
  -9.520  0.0000E+00  0.0000E+00  0.8000E+01
  -9.510  0.0000E+00  0.0000E+00  0.8000E+01
  -9.500  0.0000E+00  0.0000E+00  0.8000E+01
  -9.490  0.0000E+00  0.0000E+00  0.8000E+01
  -9.480  0.0000E+00  0.0000E+00  0.8000E+01
  -9.470  0.0000E+00  0.0000E+00  0.8000E+01
  -9.460  0.0000E+00  0.0000E+00  0.8000E+01
  -9.450  0.0000E+00  0.0000E+00  0.8000E+01
  -9.440  0.0000E+00  0.0000E+00  0.8000E+01
  -9.430  0.0000E+00  0.0000E+00  0.8000E+01
  -9.420  0.0000E+00  0.0000E+00  0.8000E+01
  -9.410  0.0000E+00  0.0000E+00  0.8000E+01
  -9.400  0.0000E+00  0.0000E+00  0.8000E+01
  -9.390  0.0000E+00  0.0000E+00  0.8000E+01
  -9.380  0.0000E+00  0.0000E+00  0.8000E+01
  -9.370  0.0000E+00  0.0000E+00  0.8000E+01
  -9.360  0.0000E+00  0.0000E+00  0.8000E+01
  -9.350  0.0000E+00  0.0000E+00  0.8000E+01
  -9.340  0.0000E+00  0.0000E+00  0.8000E+01
  -9.330  0.0000E+00  0.0000E+00  0.8000E+01
  -9.320  0.0000E+00  0.0000E+00  0.8000E+01
  -9.310  0.0000E+00  0.0000E+00  0.8000E+01
  -9.300  0.0000E+00  0.0000E+00  0.8000E+01
  -9.290  0.0000E+00  0.0000E+00  0.8000E+01
  -9.280  0.0000E+00  0.0000E+00  0.8000E+01
  -9.270  0.0000E+00  0.0000E+00  0.8000E+01
  -9.260  0.0000E+00  0.0000E+00  0.8000E+01
  -9.250  0.0000E+00  0.0000E+00  0.8000E+01
  -9.240  0.0000E+00  0.0000E+00  0.8000E+01
  -9.230  0.0000E+00  0.0000E+00  0.8000E+01
  -9.220  0.0000E+00  0.0000E+00  0.8000E+01
  -9.210  0.0000E+00  0.0000E+00  0.8000E+01
  -9.200  0.0000E+00  0.0000E+00  0.8000E+01
  -9.190  0.0000E+00  0.0000E+00  0.8000E+01
  -9.180  0.0000E+00  0.0000E+00  0.8000E+01
  -9.170  0.0000E+00  0.0000E+00  0.8000E+01
  -9.160  0.0000E+00  0.0000E+00  0.8000E+01
  -9.150  0.0000E+00  0.0000E+00  0.8000E+01
  -9.140  0.0000E+00  0.0000E+00  0.8000E+01
  -9.130  0.0000E+00  0.0000E+00  0.8000E+01
  -9.120  0.0000E+00  0.0000E+00  0.8000E+01
  -9.110  0.0000E+00  0.0000E+00  0.8000E+01
  -9.100  0.0000E+00  0.0000E+00  0.8000E+01
  -9.090  0.0000E+00  0.0000E+00  0.8000E+01
  -9.080  0.0000E+00  0.0000E+00  0.8000E+01
  -9.070  0.0000E+00  0.0000E+00  0.8000E+01
  -9.060  0.0000E+00  0.0000E+00  0.8000E+01
  -9.050  0.0000E+00  0.0000E+00  0.8000E+01
  -9.040  0.0000E+00  0.0000E+00  0.8000E+01
  -9.030  0.0000E+00  0.0000E+00  0.8000E+01
  -9.020  0.0000E+00  0.0000E+00  0.8000E+01
  -9.010  0.0000E+00  0.0000E+00  0.8000E+01
  -9.000  0.0000E+00  0.0000E+00  0.8000E+01
  -8.990  0.0000E+00  0.0000E+00  0.8000E+01
  -8.980  0.0000E+00  0.0000E+00  0.8000E+01
  -8.970  0.0000E+00  0.0000E+00  0.8000E+01
  -8.960  0.0000E+00  0.0000E+00  0.8000E+01
  -8.950  0.0000E+00  0.0000E+00  0.8000E+01
  -8.940  0.0000E+00  0.0000E+00  0.8000E+01
  -8.930  0.0000E+00  0.0000E+00  0.8000E+01
  -8.920  0.0000E+00  0.0000E+00  0.8000E+01
  -8.910  0.0000E+00  0.0000E+00  0.8000E+01
  -8.900  0.0000E+00  0.0000E+00  0.8000E+01
  -8.890  0.0000E+00  0.0000E+00  0.8000E+01
  -8.880  0.0000E+00  0.0000E+00  0.8000E+01
  -8.870  0.0000E+00  0.0000E+00  0.8000E+01
  -8.860  0.0000E+00  0.0000E+00  0.8000E+01
  -8.850  0.0000E+00  0.0000E+00  0.8000E+01
  -8.840  0.0000E+00  0.0000E+00  0.8000E+01
  -8.830  0.0000E+00  0.0000E+00  0.8000E+01
  -8.820  0.0000E+00  0.0000E+00  0.8000E+01
  -8.810  0.0000E+00  0.0000E+00  0.8000E+01
  -8.800  0.0000E+00  0.0000E+00  0.8000E+01
  -8.790  0.0000E+00  0.0000E+00  0.8000E+01
  -8.780  0.0000E+00  0.0000E+00  0.8000E+01
  -8.770  0.0000E+00  0.0000E+00  0.8000E+01
  -8.760  0.0000E+00  0.0000E+00  0.8000E+01
  -8.750  0.0000E+00  0.0000E+00  0.8000E+01
  -8.740  0.0000E+00  0.0000E+00  0.8000E+01
  -8.730  0.0000E+00  0.0000E+00  0.8000E+01
  -8.720  0.0000E+00  0.0000E+00  0.8000E+01
  -8.710  0.0000E+00  0.0000E+00  0.8000E+01
  -8.700  0.0000E+00  0.0000E+00  0.8000E+01
  -8.690  0.0000E+00  0.0000E+00  0.8000E+01
  -8.680  0.0000E+00  0.0000E+00  0.8000E+01
  -8.670  0.0000E+00  0.0000E+00  0.8000E+01
  -8.660  0.0000E+00  0.0000E+00  0.8000E+01
  -8.650  0.0000E+00  0.0000E+00  0.8000E+01
  -8.640  0.0000E+00  0.0000E+00  0.8000E+01
  -8.630  0.0000E+00  0.0000E+00  0.8000E+01
  -8.620  0.0000E+00  0.0000E+00  0.8000E+01
  -8.610  0.0000E+00  0.0000E+00  0.8000E+01
  -8.600  0.0000E+00  0.0000E+00  0.8000E+01
  -8.590  0.0000E+00  0.0000E+00  0.8000E+01
  -8.580  0.0000E+00  0.0000E+00  0.8000E+01
  -8.570  0.0000E+00  0.0000E+00  0.8000E+01
  -8.560  0.0000E+00  0.0000E+00  0.8000E+01
  -8.550  0.0000E+00  0.0000E+00  0.8000E+01
  -8.540  0.0000E+00  0.0000E+00  0.8000E+01
  -8.530  0.0000E+00  0.0000E+00  0.8000E+01
  -8.520  0.0000E+00  0.0000E+00  0.8000E+01
  -8.510  0.0000E+00  0.0000E+00  0.8000E+01
  -8.500  0.0000E+00  0.0000E+00  0.8000E+01
  -8.490  0.0000E+00  0.0000E+00  0.8000E+01
  -8.480  0.0000E+00  0.0000E+00  0.8000E+01
  -8.470  0.0000E+00  0.0000E+00  0.8000E+01
  -8.460  0.0000E+00  0.0000E+00  0.8000E+01
  -8.450  0.0000E+00  0.0000E+00  0.8000E+01
  -8.440  0.0000E+00  0.0000E+00  0.8000E+01
  -8.430  0.0000E+00  0.0000E+00  0.8000E+01
  -8.420  0.0000E+00  0.0000E+00  0.8000E+01
  -8.410  0.0000E+00  0.0000E+00  0.8000E+01
  -8.400  0.0000E+00  0.0000E+00  0.8000E+01
  -8.390  0.0000E+00  0.0000E+00  0.8000E+01
  -8.380  0.0000E+00  0.0000E+00  0.8000E+01
  -8.370  0.0000E+00  0.0000E+00  0.8000E+01
  -8.360  0.0000E+00  0.0000E+00  0.8000E+01
  -8.350  0.0000E+00  0.0000E+00  0.8000E+01
  -8.340  0.0000E+00  0.0000E+00  0.8000E+01
  -8.330  0.0000E+00  0.0000E+00  0.8000E+01
  -8.320  0.0000E+00  0.0000E+00  0.8000E+01
  -8.310  0.0000E+00  0.0000E+00  0.8000E+01
  -8.300  0.0000E+00  0.0000E+00  0.8000E+01
  -8.290  0.0000E+00  0.0000E+00  0.8000E+01
  -8.280  0.0000E+00  0.0000E+00  0.8000E+01
  -8.270  0.0000E+00  0.0000E+00  0.8000E+01
  -8.260  0.0000E+00  0.0000E+00  0.8000E+01
  -8.250  0.0000E+00  0.0000E+00  0.8000E+01
  -8.240  0.0000E+00  0.0000E+00  0.8000E+01
  -8.230  0.0000E+00  0.0000E+00  0.8000E+01
  -8.220  0.0000E+00  0.0000E+00  0.8000E+01
  -8.210  0.0000E+00  0.0000E+00  0.8000E+01
  -8.200  0.0000E+00  0.0000E+00  0.8000E+01
  -8.190  0.0000E+00  0.0000E+00  0.8000E+01
  -8.180  0.0000E+00  0.0000E+00  0.8000E+01
  -8.170  0.0000E+00  0.0000E+00  0.8000E+01
  -8.160  0.0000E+00  0.0000E+00  0.8000E+01
  -8.150  0.0000E+00  0.0000E+00  0.8000E+01
  -8.140  0.0000E+00  0.0000E+00  0.8000E+01
  -8.130  0.0000E+00  0.0000E+00  0.8000E+01
  -8.120  0.0000E+00  0.0000E+00  0.8000E+01
  -8.110  0.0000E+00  0.0000E+00  0.8000E+01
  -8.100  0.0000E+00  0.0000E+00  0.8000E+01
  -8.090  0.0000E+00  0.0000E+00  0.8000E+01
  -8.080  0.0000E+00  0.0000E+00  0.8000E+01
  -8.070  0.0000E+00  0.0000E+00  0.8000E+01
  -8.060  0.0000E+00  0.0000E+00  0.8000E+01
  -8.050  0.0000E+00  0.0000E+00  0.8000E+01
  -8.040  0.0000E+00  0.0000E+00  0.8000E+01
  -8.030  0.0000E+00  0.0000E+00  0.8000E+01
  -8.020  0.0000E+00  0.0000E+00  0.8000E+01
  -8.010  0.0000E+00  0.0000E+00  0.8000E+01
  -8.000  0.0000E+00  0.0000E+00  0.8000E+01
  -7.990  0.0000E+00  0.0000E+00  0.8000E+01
  -7.980  0.0000E+00  0.0000E+00  0.8000E+01
  -7.970  0.0000E+00  0.0000E+00  0.8000E+01
  -7.960  0.0000E+00  0.0000E+00  0.8000E+01
  -7.950  0.0000E+00  0.0000E+00  0.8000E+01
  -7.940  0.0000E+00  0.0000E+00  0.8000E+01
  -7.930  0.0000E+00  0.0000E+00  0.8000E+01
  -7.920  0.0000E+00  0.0000E+00  0.8000E+01
  -7.910  0.0000E+00  0.0000E+00  0.8000E+01
  -7.900  0.0000E+00  0.0000E+00  0.8000E+01
  -7.890  0.0000E+00  0.0000E+00  0.8000E+01
  -7.880  0.0000E+00  0.0000E+00  0.8000E+01
  -7.870  0.0000E+00  0.0000E+00  0.8000E+01
  -7.860  0.0000E+00  0.0000E+00  0.8000E+01
  -7.850  0.0000E+00  0.0000E+00  0.8000E+01
  -7.840  0.0000E+00  0.0000E+00  0.8000E+01
  -7.830  0.0000E+00  0.0000E+00  0.8000E+01
  -7.820  0.0000E+00  0.0000E+00  0.8000E+01
  -7.810  0.0000E+00  0.0000E+00  0.8000E+01
  -7.800  0.0000E+00  0.0000E+00  0.8000E+01
  -7.790  0.0000E+00  0.0000E+00  0.8000E+01
  -7.780  0.0000E+00  0.0000E+00  0.8000E+01
  -7.770  0.0000E+00  0.0000E+00  0.8000E+01
  -7.760  0.0000E+00  0.0000E+00  0.8000E+01
  -7.750  0.0000E+00  0.0000E+00  0.8000E+01
  -7.740  0.0000E+00  0.0000E+00  0.8000E+01
  -7.730  0.0000E+00  0.0000E+00  0.8000E+01
  -7.720  0.0000E+00  0.0000E+00  0.8000E+01
  -7.710  0.0000E+00  0.0000E+00  0.8000E+01
  -7.700  0.0000E+00  0.0000E+00  0.8000E+01
  -7.690  0.0000E+00  0.0000E+00  0.8000E+01
  -7.680  0.0000E+00  0.0000E+00  0.8000E+01
  -7.670  0.0000E+00  0.0000E+00  0.8000E+01
  -7.660  0.0000E+00  0.0000E+00  0.8000E+01
  -7.650  0.0000E+00  0.0000E+00  0.8000E+01
  -7.640  0.0000E+00  0.0000E+00  0.8000E+01
  -7.630  0.0000E+00  0.0000E+00  0.8000E+01
  -7.620  0.0000E+00  0.0000E+00  0.8000E+01
  -7.610  0.0000E+00  0.0000E+00  0.8000E+01
  -7.600  0.0000E+00  0.0000E+00  0.8000E+01
  -7.590  0.0000E+00  0.0000E+00  0.8000E+01
  -7.580  0.0000E+00  0.0000E+00  0.8000E+01
  -7.570  0.0000E+00  0.0000E+00  0.8000E+01
  -7.560  0.0000E+00  0.0000E+00  0.8000E+01
  -7.550  0.0000E+00  0.0000E+00  0.8000E+01
  -7.540  0.0000E+00  0.0000E+00  0.8000E+01
  -7.530  0.0000E+00  0.0000E+00  0.8000E+01
  -7.520  0.0000E+00  0.0000E+00  0.8000E+01
  -7.510  0.0000E+00  0.0000E+00  0.8000E+01
  -7.500  0.0000E+00  0.0000E+00  0.8000E+01
  -7.490  0.0000E+00  0.0000E+00  0.8000E+01
  -7.480  0.0000E+00  0.0000E+00  0.8000E+01
  -7.470  0.0000E+00  0.0000E+00  0.8000E+01
  -7.460  0.1400E-01  0.5938E-02  0.8000E+01
  -7.450  0.1681E+00  0.9404E-01  0.8001E+01
  -7.440  0.6282E+00  0.4682E+00  0.8007E+01
  -7.430  0.1394E+01  0.1152E+01  0.8025E+01
  -7.420  0.2147E+01  0.1962E+01  0.8059E+01
  -7.410  0.2610E+01  0.2515E+01  0.8105E+01
  -7.400  0.2870E+01  0.2829E+01  0.8160E+01
  -7.390  0.2998E+01  0.2981E+01  0.8218E+01
  -7.380  0.3171E+01  0.3145E+01  0.8280E+01
  -7.370  0.3339E+01  0.3340E+01  0.8345E+01
  -7.360  0.3588E+01  0.3555E+01  0.8414E+01
  -7.350  0.4036E+01  0.3957E+01  0.8489E+01
  -7.340  0.4663E+01  0.4599E+01  0.8575E+01
  -7.330  0.5338E+01  0.5239E+01  0.8674E+01
  -7.320  0.5977E+01  0.5956E+01  0.8787E+01
  -7.310  0.6126E+01  0.6185E+01  0.8909E+01
  -7.300  0.5780E+01  0.5908E+01  0.9030E+01
  -7.290  0.5169E+01  0.5300E+01  0.9141E+01
  -7.280  0.4741E+01  0.4804E+01  0.9240E+01
  -7.270  0.4687E+01  0.4640E+01  0.9334E+01
  -7.260  0.5061E+01  0.4915E+01  0.9431E+01
  -7.250  0.5631E+01  0.5257E+01  0.9534E+01
  -7.240  0.6617E+01  0.6193E+01  0.9652E+01
  -7.230  0.7666E+01  0.7248E+01  0.9791E+01
  -7.220  0.8530E+01  0.8259E+01  0.9950E+01
  -7.210  0.8443E+01  0.8478E+01  0.1012E+02
  -7.200  0.8164E+01  0.8252E+01  0.1029E+02
  -7.190  0.7873E+01  0.7966E+01  0.1045E+02
  -7.180  0.7710E+01  0.7799E+01  0.1060E+02
  -7.170  0.7735E+01  0.7809E+01  0.1076E+02
  -7.160  0.7814E+01  0.7896E+01  0.1092E+02
  -7.150  0.7897E+01  0.7962E+01  0.1107E+02
  -7.140  0.8074E+01  0.8122E+01  0.1123E+02
  -7.130  0.8127E+01  0.8188E+01  0.1140E+02
  -7.120  0.7977E+01  0.8070E+01  0.1156E+02
  -7.110  0.8495E+01  0.8095E+01  0.1172E+02
  -7.100  0.1020E+02  0.9751E+01  0.1190E+02
  -7.090  0.1124E+02  0.1079E+02  0.1211E+02
  -7.080  0.1232E+02  0.1159E+02  0.1234E+02
  -7.070  0.1258E+02  0.1282E+02  0.1259E+02
  -7.060  0.1231E+02  0.1244E+02  0.1284E+02
  -7.050  0.1250E+02  0.1266E+02  0.1309E+02
  -7.040  0.1274E+02  0.1290E+02  0.1334E+02
  -7.030  0.1244E+02  0.1269E+02  0.1360E+02
  -7.020  0.1205E+02  0.1221E+02  0.1384E+02
  -7.010  0.1082E+02  0.1105E+02  0.1408E+02
  -7.000  0.9266E+01  0.9516E+01  0.1428E+02
  -6.990  0.8091E+01  0.8384E+01  0.1445E+02
  -6.980  0.8577E+01  0.8406E+01  0.1462E+02
  -6.970  0.1162E+02  0.1141E+02  0.1482E+02
  -6.960  0.1108E+02  0.1149E+02  0.1505E+02
  -6.950  0.1087E+02  0.9938E+01  0.1526E+02
  -6.940  0.1244E+02  0.1195E+02  0.1549E+02
  -6.930  0.1323E+02  0.1330E+02  0.1574E+02
  -6.920  0.1325E+02  0.1341E+02  0.1601E+02
  -6.910  0.1387E+02  0.1346E+02  0.1628E+02
  -6.900  0.1629E+02  0.1550E+02  0.1657E+02
  -6.890  0.2013E+02  0.1905E+02  0.1692E+02
  -6.880  0.2364E+02  0.2258E+02  0.1735E+02
  -6.870  0.2684E+02  0.2585E+02  0.1784E+02
  -6.860  0.2858E+02  0.2858E+02  0.1840E+02
  -6.850  0.2838E+02  0.2761E+02  0.1896E+02
  -6.840  0.2458E+02  0.2639E+02  0.1951E+02
  -6.830  0.1883E+02  0.1997E+02  0.1995E+02
  -6.820  0.1492E+02  0.1521E+02  0.2029E+02
  -6.810  0.1254E+02  0.1257E+02  0.2057E+02
  -6.800  0.1117E+02  0.1092E+02  0.2080E+02
  -6.790  0.1199E+02  0.1143E+02  0.2103E+02
  -6.780  0.1439E+02  0.1333E+02  0.2128E+02
  -6.770  0.1866E+02  0.1719E+02  0.2159E+02
  -6.760  0.2112E+02  0.2055E+02  0.2199E+02
  -6.750  0.1960E+02  0.2070E+02  0.2240E+02
  -6.740  0.1777E+02  0.1870E+02  0.2278E+02
  -6.730  0.1678E+02  0.1740E+02  0.2314E+02
  -6.720  0.1666E+02  0.1704E+02  0.2347E+02
  -6.710  0.2566E+02  0.2210E+02  0.2384E+02
  -6.700  0.3688E+02  0.2683E+02  0.2434E+02
  -6.690  0.3086E+02  0.3577E+02  0.2506E+02
  -6.680  0.3228E+02  0.3116E+02  0.2564E+02
  -6.670  0.3074E+02  0.3073E+02  0.2628E+02
  -6.660  0.3087E+02  0.3046E+02  0.2689E+02
  -6.650  0.3270E+02  0.3191E+02  0.2752E+02
  -6.640  0.3550E+02  0.3510E+02  0.2820E+02
  -6.630  0.3461E+02  0.3486E+02  0.2890E+02
  -6.620  0.3467E+02  0.3315E+02  0.2958E+02
  -6.610  0.4281E+02  0.4066E+02  0.3032E+02
  -6.600  0.6815E+02  0.5787E+02  0.3132E+02
  -6.590  0.4678E+02  0.5137E+02  0.3258E+02
  -6.580  0.3850E+02  0.4099E+02  0.3345E+02
  -6.570  0.3000E+02  0.3146E+02  0.3416E+02
  -6.560  0.3572E+02  0.3440E+02  0.3479E+02
  -6.550  0.3287E+02  0.3163E+02  0.3547E+02
  -6.540  0.3787E+02  0.3566E+02  0.3616E+02
  -6.530  0.4254E+02  0.4136E+02  0.3695E+02
  -6.520  0.4544E+02  0.4480E+02  0.3782E+02
  -6.510  0.4697E+02  0.4603E+02  0.3874E+02
  -6.500  0.4700E+02  0.4579E+02  0.3967E+02
  -6.490  0.5204E+02  0.4788E+02  0.4062E+02
  -6.480  0.5829E+02  0.5993E+02  0.4172E+02
  -6.470  0.6339E+02  0.6489E+02  0.4295E+02
  -6.460  0.7372E+02  0.6948E+02  0.4429E+02
  -6.450  0.7170E+02  0.7105E+02  0.4577E+02
  -6.440  0.5873E+02  0.6254E+02  0.4710E+02
  -6.430  0.3760E+02  0.4676E+02  0.4822E+02
  -6.420  0.6302E+02  0.5999E+02  0.4901E+02
  -6.410  0.6066E+02  0.5839E+02  0.5018E+02
  -6.400  0.5147E+02  0.5327E+02  0.5130E+02
  -6.390  0.4404E+02  0.5355E+02  0.5235E+02
  -6.380  0.4226E+02  0.3236E+02  0.5314E+02
  -6.370  0.5274E+02  0.4588E+02  0.5399E+02
  -6.360  0.5676E+02  0.5694E+02  0.5509E+02
  -6.350  0.5575E+02  0.6555E+02  0.5623E+02
  -6.340  0.5807E+02  0.5858E+02  0.5751E+02
  -6.330  0.5361E+02  0.5085E+02  0.5870E+02
  -6.320  0.1087E+03  0.7122E+02  0.6014E+02
  -6.310  0.7532E+02  0.1091E+03  0.6206E+02
  -6.300  0.5864E+02  0.6713E+02  0.6352E+02
  -6.290  0.4075E+02  0.5152E+02  0.6471E+02
  -6.280  0.2944E+02  0.3236E+02  0.6548E+02
  -6.270  0.1149E+02  0.1245E+02  0.6588E+02
  -6.260  0.4679E+00  0.7878E+00  0.6600E+02
  -6.250  0.3902E+01  0.0000E+00  0.6601E+02
  -6.240  0.1833E+02  0.0000E+00  0.6615E+02
  -6.230  0.3059E+02  0.0000E+00  0.6645E+02
  -6.220  0.2929E+02  0.3262E+01  0.6675E+02
  -6.210  0.3462E+02  0.3180E+02  0.6722E+02
  -6.200  0.5502E+02  0.3347E+02  0.6797E+02
  -6.190  0.4390E+02  0.3189E+02  0.6878E+02
  -6.180  0.4349E+02  0.3898E+02  0.6959E+02
  -6.170  0.4561E+02  0.4676E+02  0.7052E+02
  -6.160  0.1891E+01  0.4505E+02  0.7122E+02
  -6.150  0.0000E+00  0.3605E+02  0.7166E+02
  -6.140  0.0000E+00  0.1123E+02  0.7199E+02
  -6.130  0.0000E+00  0.0000E+00  0.7200E+02
  -6.120  0.0000E+00  0.0000E+00  0.7200E+02
  -6.110  0.0000E+00  0.0000E+00  0.7200E+02
  -6.100  0.0000E+00  0.0000E+00  0.7200E+02
  -6.090  0.0000E+00  0.0000E+00  0.7200E+02
  -6.080  0.0000E+00  0.0000E+00  0.7200E+02
  -6.070  0.0000E+00  0.0000E+00  0.7200E+02
  -6.060  0.0000E+00  0.0000E+00  0.7200E+02
  -6.050  0.0000E+00  0.0000E+00  0.7200E+02
  -6.040  0.0000E+00  0.0000E+00  0.7200E+02
  -6.030  0.0000E+00  0.0000E+00  0.7200E+02
  -6.020  0.0000E+00  0.0000E+00  0.7200E+02
  -6.010  0.0000E+00  0.0000E+00  0.7200E+02
  -6.000  0.0000E+00  0.0000E+00  0.7200E+02
  -5.990  0.0000E+00  0.0000E+00  0.7200E+02
  -5.980  0.0000E+00  0.0000E+00  0.7200E+02
  -5.970  0.0000E+00  0.0000E+00  0.7200E+02
  -5.960  0.0000E+00  0.0000E+00  0.7200E+02
  -5.950  0.0000E+00  0.0000E+00  0.7200E+02
  -5.940  0.0000E+00  0.0000E+00  0.7200E+02
  -5.930  0.0000E+00  0.0000E+00  0.7200E+02
  -5.920  0.0000E+00  0.0000E+00  0.7200E+02
  -5.910  0.0000E+00  0.0000E+00  0.7200E+02
  -5.900  0.0000E+00  0.0000E+00  0.7200E+02
  -5.890  0.0000E+00  0.0000E+00  0.7200E+02
  -5.880  0.0000E+00  0.0000E+00  0.7200E+02
  -5.870  0.0000E+00  0.0000E+00  0.7200E+02
  -5.860  0.0000E+00  0.0000E+00  0.7200E+02
  -5.850  0.0000E+00  0.0000E+00  0.7200E+02
  -5.840  0.0000E+00  0.0000E+00  0.7200E+02
  -5.830  0.0000E+00  0.0000E+00  0.7200E+02
  -5.820  0.0000E+00  0.0000E+00  0.7200E+02
  -5.810  0.0000E+00  0.0000E+00  0.7200E+02
  -5.800  0.0000E+00  0.0000E+00  0.7200E+02
  -5.790  0.0000E+00  0.0000E+00  0.7200E+02
  -5.780  0.0000E+00  0.0000E+00  0.7200E+02
  -5.770  0.0000E+00  0.0000E+00  0.7200E+02
  -5.760  0.0000E+00  0.0000E+00  0.7200E+02
  -5.750  0.0000E+00  0.0000E+00  0.7200E+02
  -5.740  0.0000E+00  0.0000E+00  0.7200E+02
  -5.730  0.0000E+00  0.0000E+00  0.7200E+02
  -5.720  0.0000E+00  0.0000E+00  0.7200E+02
  -5.710  0.0000E+00  0.0000E+00  0.7200E+02
  -5.700  0.0000E+00  0.0000E+00  0.7200E+02
  -5.690  0.0000E+00  0.0000E+00  0.7200E+02
  -5.680  0.0000E+00  0.0000E+00  0.7200E+02
  -5.670  0.0000E+00  0.0000E+00  0.7200E+02
  -5.660  0.0000E+00  0.0000E+00  0.7200E+02
  -5.650  0.0000E+00  0.0000E+00  0.7200E+02
  -5.640  0.0000E+00  0.0000E+00  0.7200E+02
  -5.630  0.0000E+00  0.0000E+00  0.7200E+02
  -5.620  0.0000E+00  0.0000E+00  0.7200E+02
  -5.610  0.0000E+00  0.0000E+00  0.7200E+02
  -5.600  0.0000E+00  0.0000E+00  0.7200E+02
  -5.590  0.0000E+00  0.0000E+00  0.7200E+02
  -5.580  0.0000E+00  0.0000E+00  0.7200E+02
  -5.570  0.0000E+00  0.0000E+00  0.7200E+02
  -5.560  0.0000E+00  0.0000E+00  0.7200E+02
  -5.550  0.0000E+00  0.0000E+00  0.7200E+02
  -5.540  0.0000E+00  0.0000E+00  0.7200E+02
  -5.530  0.0000E+00  0.0000E+00  0.7200E+02
  -5.520  0.0000E+00  0.0000E+00  0.7200E+02
  -5.510  0.0000E+00  0.0000E+00  0.7200E+02
  -5.500  0.0000E+00  0.0000E+00  0.7200E+02
  -5.490  0.0000E+00  0.0000E+00  0.7200E+02
  -5.480  0.0000E+00  0.0000E+00  0.7200E+02
  -5.470  0.0000E+00  0.0000E+00  0.7200E+02
  -5.460  0.0000E+00  0.0000E+00  0.7200E+02
  -5.450  0.0000E+00  0.0000E+00  0.7200E+02
  -5.440  0.0000E+00  0.0000E+00  0.7200E+02
  -5.430  0.0000E+00  0.0000E+00  0.7200E+02
  -5.420  0.0000E+00  0.0000E+00  0.7200E+02
  -5.410  0.0000E+00  0.0000E+00  0.7200E+02
  -5.400  0.0000E+00  0.0000E+00  0.7200E+02
  -5.390  0.0000E+00  0.0000E+00  0.7200E+02
  -5.380  0.0000E+00  0.0000E+00  0.7200E+02
  -5.370  0.0000E+00  0.0000E+00  0.7200E+02
  -5.360  0.0000E+00  0.0000E+00  0.7200E+02
  -5.350  0.0000E+00  0.0000E+00  0.7200E+02
  -5.340  0.0000E+00  0.0000E+00  0.7200E+02
  -5.330  0.0000E+00  0.0000E+00  0.7200E+02
  -5.320  0.0000E+00  0.0000E+00  0.7200E+02
  -5.310  0.0000E+00  0.0000E+00  0.7200E+02
  -5.300  0.0000E+00  0.0000E+00  0.7200E+02
  -5.290  0.0000E+00  0.0000E+00  0.7200E+02
  -5.280  0.0000E+00  0.0000E+00  0.7200E+02
  -5.270  0.0000E+00  0.0000E+00  0.7200E+02
  -5.260  0.0000E+00  0.0000E+00  0.7200E+02
  -5.250  0.0000E+00  0.0000E+00  0.7200E+02
  -5.240  0.0000E+00  0.0000E+00  0.7200E+02
  -5.230  0.0000E+00  0.0000E+00  0.7200E+02
  -5.220  0.0000E+00  0.0000E+00  0.7200E+02
  -5.210  0.0000E+00  0.0000E+00  0.7200E+02
  -5.200  0.0000E+00  0.0000E+00  0.7200E+02
  -5.190  0.0000E+00  0.0000E+00  0.7200E+02
  -5.180  0.0000E+00  0.0000E+00  0.7200E+02
  -5.170  0.0000E+00  0.0000E+00  0.7200E+02
  -5.160  0.0000E+00  0.0000E+00  0.7200E+02
  -5.150  0.0000E+00  0.0000E+00  0.7200E+02
  -5.140  0.0000E+00  0.0000E+00  0.7200E+02
  -5.130  0.0000E+00  0.0000E+00  0.7200E+02
  -5.120  0.0000E+00  0.0000E+00  0.7200E+02
  -5.110  0.0000E+00  0.0000E+00  0.7200E+02
  -5.100  0.0000E+00  0.0000E+00  0.7200E+02
  -5.090  0.0000E+00  0.0000E+00  0.7200E+02
  -5.080  0.0000E+00  0.0000E+00  0.7200E+02
  -5.070  0.0000E+00  0.0000E+00  0.7200E+02
  -5.060  0.0000E+00  0.0000E+00  0.7200E+02
  -5.050  0.0000E+00  0.0000E+00  0.7200E+02
  -5.040  0.0000E+00  0.0000E+00  0.7200E+02
  -5.030  0.0000E+00  0.0000E+00  0.7200E+02
  -5.020  0.0000E+00  0.0000E+00  0.7200E+02
  -5.010  0.0000E+00  0.0000E+00  0.7200E+02
  -5.000  0.0000E+00  0.0000E+00  0.7200E+02
  -4.990  0.0000E+00  0.0000E+00  0.7200E+02
  -4.980  0.0000E+00  0.0000E+00  0.7200E+02
  -4.970  0.0000E+00  0.0000E+00  0.7200E+02
  -4.960  0.0000E+00  0.0000E+00  0.7200E+02
  -4.950  0.0000E+00  0.0000E+00  0.7200E+02
  -4.940  0.0000E+00  0.0000E+00  0.7200E+02
  -4.930  0.0000E+00  0.0000E+00  0.7200E+02
  -4.920  0.0000E+00  0.0000E+00  0.7200E+02
  -4.910  0.0000E+00  0.0000E+00  0.7200E+02
  -4.900  0.0000E+00  0.0000E+00  0.7200E+02
  -4.890  0.0000E+00  0.0000E+00  0.7200E+02
  -4.880  0.0000E+00  0.0000E+00  0.7200E+02
  -4.870  0.0000E+00  0.0000E+00  0.7200E+02
  -4.860  0.0000E+00  0.0000E+00  0.7200E+02
  -4.850  0.0000E+00  0.0000E+00  0.7200E+02
  -4.840  0.0000E+00  0.0000E+00  0.7200E+02
  -4.830  0.0000E+00  0.0000E+00  0.7200E+02
  -4.820  0.0000E+00  0.0000E+00  0.7200E+02
  -4.810  0.0000E+00  0.0000E+00  0.7200E+02
  -4.800  0.0000E+00  0.0000E+00  0.7200E+02
  -4.790  0.0000E+00  0.0000E+00  0.7200E+02
  -4.780  0.0000E+00  0.0000E+00  0.7200E+02
  -4.770  0.0000E+00  0.0000E+00  0.7200E+02
  -4.760  0.0000E+00  0.0000E+00  0.7200E+02
  -4.750  0.0000E+00  0.0000E+00  0.7200E+02
  -4.740  0.0000E+00  0.0000E+00  0.7200E+02
  -4.730  0.0000E+00  0.0000E+00  0.7200E+02
  -4.720  0.0000E+00  0.0000E+00  0.7200E+02
  -4.710  0.0000E+00  0.0000E+00  0.7200E+02
  -4.700  0.0000E+00  0.0000E+00  0.7200E+02
  -4.690  0.0000E+00  0.0000E+00  0.7200E+02
  -4.680  0.0000E+00  0.0000E+00  0.7200E+02
  -4.670  0.0000E+00  0.0000E+00  0.7200E+02
  -4.660  0.0000E+00  0.0000E+00  0.7200E+02
  -4.650  0.0000E+00  0.0000E+00  0.7200E+02
  -4.640  0.0000E+00  0.0000E+00  0.7200E+02
  -4.630  0.0000E+00  0.0000E+00  0.7200E+02
  -4.620  0.0000E+00  0.0000E+00  0.7200E+02
  -4.610  0.0000E+00  0.0000E+00  0.7200E+02
  -4.600  0.0000E+00  0.0000E+00  0.7200E+02
  -4.590  0.0000E+00  0.0000E+00  0.7200E+02
  -4.580  0.0000E+00  0.0000E+00  0.7200E+02
  -4.570  0.0000E+00  0.0000E+00  0.7200E+02
  -4.560  0.0000E+00  0.0000E+00  0.7200E+02
  -4.550  0.0000E+00  0.0000E+00  0.7200E+02
  -4.540  0.0000E+00  0.0000E+00  0.7200E+02
  -4.530  0.0000E+00  0.0000E+00  0.7200E+02
  -4.520  0.0000E+00  0.0000E+00  0.7200E+02
  -4.510  0.0000E+00  0.0000E+00  0.7200E+02
  -4.500  0.0000E+00  0.0000E+00  0.7200E+02
  -4.490  0.0000E+00  0.0000E+00  0.7200E+02
  -4.480  0.0000E+00  0.0000E+00  0.7200E+02
  -4.470  0.0000E+00  0.0000E+00  0.7200E+02
  -4.460  0.0000E+00  0.0000E+00  0.7200E+02
  -4.450  0.0000E+00  0.0000E+00  0.7200E+02
  -4.440  0.0000E+00  0.0000E+00  0.7200E+02
  -4.430  0.0000E+00  0.0000E+00  0.7200E+02
  -4.420  0.0000E+00  0.0000E+00  0.7200E+02
  -4.410  0.0000E+00  0.0000E+00  0.7200E+02
  -4.400  0.0000E+00  0.0000E+00  0.7200E+02
  -4.390  0.0000E+00  0.0000E+00  0.7200E+02
  -4.380  0.0000E+00  0.0000E+00  0.7200E+02
  -4.370  0.0000E+00  0.0000E+00  0.7200E+02
  -4.360  0.0000E+00  0.0000E+00  0.7200E+02
  -4.350  0.0000E+00  0.0000E+00  0.7200E+02
  -4.340  0.0000E+00  0.0000E+00  0.7200E+02
  -4.330  0.0000E+00  0.0000E+00  0.7200E+02
  -4.320  0.0000E+00  0.0000E+00  0.7200E+02
  -4.310  0.0000E+00  0.0000E+00  0.7200E+02
  -4.300  0.0000E+00  0.0000E+00  0.7200E+02
  -4.290  0.0000E+00  0.0000E+00  0.7200E+02
  -4.280  0.0000E+00  0.0000E+00  0.7200E+02
  -4.270  0.0000E+00  0.0000E+00  0.7200E+02
  -4.260  0.0000E+00  0.0000E+00  0.7200E+02
  -4.250  0.0000E+00  0.0000E+00  0.7200E+02
  -4.240  0.0000E+00  0.0000E+00  0.7200E+02
  -4.230  0.0000E+00  0.0000E+00  0.7200E+02
  -4.220  0.0000E+00  0.0000E+00  0.7200E+02
  -4.210  0.0000E+00  0.0000E+00  0.7200E+02
  -4.200  0.0000E+00  0.0000E+00  0.7200E+02
  -4.190  0.0000E+00  0.0000E+00  0.7200E+02
  -4.180  0.0000E+00  0.0000E+00  0.7200E+02
  -4.170  0.0000E+00  0.0000E+00  0.7200E+02
  -4.160  0.0000E+00  0.0000E+00  0.7200E+02
  -4.150  0.0000E+00  0.0000E+00  0.7200E+02
  -4.140  0.0000E+00  0.0000E+00  0.7200E+02
  -4.130  0.0000E+00  0.0000E+00  0.7200E+02
  -4.120  0.0000E+00  0.0000E+00  0.7200E+02
  -4.110  0.0000E+00  0.0000E+00  0.7200E+02
  -4.100  0.0000E+00  0.0000E+00  0.7200E+02
  -4.090  0.0000E+00  0.0000E+00  0.7200E+02
  -4.080  0.0000E+00  0.0000E+00  0.7200E+02
  -4.070  0.0000E+00  0.0000E+00  0.7200E+02
  -4.060  0.0000E+00  0.0000E+00  0.7200E+02
  -4.050  0.0000E+00  0.0000E+00  0.7200E+02
  -4.040  0.0000E+00  0.0000E+00  0.7200E+02
  -4.030  0.0000E+00  0.0000E+00  0.7200E+02
  -4.020  0.0000E+00  0.0000E+00  0.7200E+02
  -4.010  0.0000E+00  0.0000E+00  0.7200E+02
  -4.000  0.0000E+00  0.0000E+00  0.7200E+02
  -3.990  0.0000E+00  0.0000E+00  0.7200E+02
  -3.980  0.0000E+00  0.0000E+00  0.7200E+02
  -3.970  0.0000E+00  0.0000E+00  0.7200E+02
  -3.960  0.0000E+00  0.0000E+00  0.7200E+02
  -3.950  0.0000E+00  0.0000E+00  0.7200E+02
  -3.940  0.0000E+00  0.0000E+00  0.7200E+02
  -3.930  0.0000E+00  0.0000E+00  0.7200E+02
  -3.920  0.0000E+00  0.0000E+00  0.7200E+02
  -3.910  0.0000E+00  0.0000E+00  0.7200E+02
  -3.900  0.0000E+00  0.0000E+00  0.7200E+02
  -3.890  0.0000E+00  0.0000E+00  0.7200E+02
  -3.880  0.0000E+00  0.0000E+00  0.7200E+02
  -3.870  0.0000E+00  0.0000E+00  0.7200E+02
  -3.860  0.0000E+00  0.0000E+00  0.7200E+02
  -3.850  0.0000E+00  0.0000E+00  0.7200E+02
  -3.840  0.0000E+00  0.0000E+00  0.7200E+02
  -3.830  0.0000E+00  0.0000E+00  0.7200E+02
  -3.820  0.0000E+00  0.0000E+00  0.7200E+02
  -3.810  0.0000E+00  0.0000E+00  0.7200E+02
  -3.800  0.0000E+00  0.0000E+00  0.7200E+02
  -3.790  0.0000E+00  0.0000E+00  0.7200E+02
  -3.780  0.0000E+00  0.0000E+00  0.7200E+02
  -3.770  0.0000E+00  0.0000E+00  0.7200E+02
  -3.760  0.0000E+00  0.0000E+00  0.7200E+02
  -3.750  0.0000E+00  0.0000E+00  0.7200E+02
  -3.740  0.0000E+00  0.0000E+00  0.7200E+02
  -3.730  0.0000E+00  0.0000E+00  0.7200E+02
  -3.720  0.0000E+00  0.0000E+00  0.7200E+02
  -3.710  0.0000E+00  0.0000E+00  0.7200E+02
  -3.700  0.0000E+00  0.0000E+00  0.7200E+02
  -3.690  0.0000E+00  0.0000E+00  0.7200E+02
  -3.680  0.0000E+00  0.0000E+00  0.7200E+02
  -3.670  0.0000E+00  0.0000E+00  0.7200E+02
  -3.660  0.0000E+00  0.0000E+00  0.7200E+02
  -3.650  0.0000E+00  0.0000E+00  0.7200E+02
  -3.640  0.0000E+00  0.0000E+00  0.7200E+02
  -3.630  0.0000E+00  0.0000E+00  0.7200E+02
  -3.620  0.0000E+00  0.0000E+00  0.7200E+02
  -3.610  0.0000E+00  0.0000E+00  0.7200E+02
  -3.600  0.0000E+00  0.0000E+00  0.7200E+02
  -3.590  0.0000E+00  0.0000E+00  0.7200E+02
  -3.580  0.0000E+00  0.0000E+00  0.7200E+02
  -3.570  0.0000E+00  0.0000E+00  0.7200E+02
  -3.560  0.0000E+00  0.0000E+00  0.7200E+02
  -3.550  0.0000E+00  0.0000E+00  0.7200E+02
  -3.540  0.0000E+00  0.0000E+00  0.7200E+02
  -3.530  0.0000E+00  0.0000E+00  0.7200E+02
  -3.520  0.0000E+00  0.0000E+00  0.7200E+02
  -3.510  0.0000E+00  0.0000E+00  0.7200E+02
  -3.500  0.0000E+00  0.0000E+00  0.7200E+02
  -3.490  0.0000E+00  0.0000E+00  0.7200E+02
  -3.480  0.0000E+00  0.0000E+00  0.7200E+02
  -3.470  0.0000E+00  0.0000E+00  0.7200E+02
  -3.460  0.0000E+00  0.0000E+00  0.7200E+02
  -3.450  0.0000E+00  0.0000E+00  0.7200E+02
  -3.440  0.0000E+00  0.0000E+00  0.7200E+02
  -3.430  0.0000E+00  0.0000E+00  0.7200E+02
  -3.420  0.0000E+00  0.0000E+00  0.7200E+02
  -3.410  0.0000E+00  0.0000E+00  0.7200E+02
  -3.400  0.0000E+00  0.0000E+00  0.7200E+02
  -3.390  0.0000E+00  0.0000E+00  0.7200E+02
  -3.380  0.0000E+00  0.0000E+00  0.7200E+02
  -3.370  0.0000E+00  0.0000E+00  0.7200E+02
  -3.360  0.0000E+00  0.0000E+00  0.7200E+02
  -3.350  0.0000E+00  0.0000E+00  0.7200E+02
  -3.340  0.0000E+00  0.0000E+00  0.7200E+02
  -3.330  0.0000E+00  0.0000E+00  0.7200E+02
  -3.320  0.0000E+00  0.0000E+00  0.7200E+02
  -3.310  0.0000E+00  0.0000E+00  0.7200E+02
  -3.300  0.0000E+00  0.0000E+00  0.7200E+02
  -3.290  0.0000E+00  0.0000E+00  0.7200E+02
  -3.280  0.0000E+00  0.0000E+00  0.7200E+02
  -3.270  0.0000E+00  0.0000E+00  0.7200E+02
  -3.260  0.0000E+00  0.0000E+00  0.7200E+02
  -3.250  0.0000E+00  0.0000E+00  0.7200E+02
  -3.240  0.0000E+00  0.0000E+00  0.7200E+02
  -3.230  0.0000E+00  0.0000E+00  0.7200E+02
  -3.220  0.0000E+00  0.0000E+00  0.7200E+02
  -3.210  0.0000E+00  0.0000E+00  0.7200E+02
  -3.200  0.0000E+00  0.0000E+00  0.7200E+02
  -3.190  0.0000E+00  0.0000E+00  0.7200E+02
  -3.180  0.0000E+00  0.0000E+00  0.7200E+02
  -3.170  0.0000E+00  0.0000E+00  0.7200E+02
  -3.160  0.0000E+00  0.0000E+00  0.7200E+02
  -3.150  0.0000E+00  0.0000E+00  0.7200E+02
  -3.140  0.0000E+00  0.0000E+00  0.7200E+02
  -3.130  0.0000E+00  0.0000E+00  0.7200E+02
  -3.120  0.0000E+00  0.0000E+00  0.7200E+02
  -3.110  0.0000E+00  0.0000E+00  0.7200E+02
  -3.100  0.0000E+00  0.0000E+00  0.7200E+02
  -3.090  0.0000E+00  0.0000E+00  0.7200E+02
  -3.080  0.0000E+00  0.0000E+00  0.7200E+02
  -3.070  0.0000E+00  0.0000E+00  0.7200E+02
  -3.060  0.0000E+00  0.0000E+00  0.7200E+02
  -3.050  0.0000E+00  0.0000E+00  0.7200E+02
  -3.040  0.0000E+00  0.0000E+00  0.7200E+02
  -3.030  0.0000E+00  0.0000E+00  0.7200E+02
  -3.020  0.0000E+00  0.0000E+00  0.7200E+02
  -3.010  0.0000E+00  0.0000E+00  0.7200E+02
  -3.000  0.0000E+00  0.0000E+00  0.7200E+02
  -2.990  0.0000E+00  0.0000E+00  0.7200E+02
  -2.980  0.0000E+00  0.0000E+00  0.7200E+02
  -2.970  0.0000E+00  0.0000E+00  0.7200E+02
  -2.960  0.0000E+00  0.0000E+00  0.7200E+02
  -2.950  0.0000E+00  0.0000E+00  0.7200E+02
  -2.940  0.0000E+00  0.0000E+00  0.7200E+02
  -2.930  0.0000E+00  0.0000E+00  0.7200E+02
  -2.920  0.0000E+00  0.0000E+00  0.7200E+02
  -2.910  0.0000E+00  0.0000E+00  0.7200E+02
  -2.900  0.0000E+00  0.0000E+00  0.7200E+02
  -2.890  0.0000E+00  0.0000E+00  0.7200E+02
  -2.880  0.0000E+00  0.0000E+00  0.7200E+02
  -2.870  0.0000E+00  0.0000E+00  0.7200E+02
  -2.860  0.0000E+00  0.0000E+00  0.7200E+02
  -2.850  0.0000E+00  0.0000E+00  0.7200E+02
  -2.840  0.0000E+00  0.0000E+00  0.7200E+02
  -2.830  0.0000E+00  0.0000E+00  0.7200E+02
  -2.820  0.0000E+00  0.0000E+00  0.7200E+02
  -2.810  0.0000E+00  0.0000E+00  0.7200E+02
  -2.800  0.0000E+00  0.0000E+00  0.7200E+02
  -2.790  0.0000E+00  0.0000E+00  0.7200E+02
  -2.780  0.0000E+00  0.0000E+00  0.7200E+02
  -2.770  0.0000E+00  0.0000E+00  0.7200E+02
  -2.760  0.0000E+00  0.0000E+00  0.7200E+02
  -2.750  0.0000E+00  0.0000E+00  0.7200E+02
  -2.740  0.0000E+00  0.0000E+00  0.7200E+02
  -2.730  0.0000E+00  0.0000E+00  0.7200E+02
  -2.720  0.0000E+00  0.0000E+00  0.7200E+02
  -2.710  0.0000E+00  0.0000E+00  0.7200E+02
  -2.700  0.0000E+00  0.0000E+00  0.7200E+02
  -2.690  0.0000E+00  0.0000E+00  0.7200E+02
  -2.680  0.0000E+00  0.0000E+00  0.7200E+02
  -2.670  0.0000E+00  0.0000E+00  0.7200E+02
  -2.660  0.0000E+00  0.0000E+00  0.7200E+02
  -2.650  0.0000E+00  0.0000E+00  0.7200E+02
  -2.640  0.0000E+00  0.0000E+00  0.7200E+02
  -2.630  0.0000E+00  0.0000E+00  0.7200E+02
  -2.620  0.0000E+00  0.0000E+00  0.7200E+02
  -2.610  0.0000E+00  0.0000E+00  0.7200E+02
  -2.600  0.0000E+00  0.0000E+00  0.7200E+02
  -2.590  0.0000E+00  0.0000E+00  0.7200E+02
  -2.580  0.0000E+00  0.0000E+00  0.7200E+02
  -2.570  0.0000E+00  0.0000E+00  0.7200E+02
  -2.560  0.0000E+00  0.0000E+00  0.7200E+02
  -2.550  0.0000E+00  0.0000E+00  0.7200E+02
  -2.540  0.0000E+00  0.0000E+00  0.7200E+02
  -2.530  0.0000E+00  0.0000E+00  0.7200E+02
  -2.520  0.0000E+00  0.0000E+00  0.7200E+02
  -2.510  0.0000E+00  0.0000E+00  0.7200E+02
  -2.500  0.0000E+00  0.0000E+00  0.7200E+02
  -2.490  0.0000E+00  0.0000E+00  0.7200E+02
  -2.480  0.0000E+00  0.0000E+00  0.7200E+02
  -2.470  0.0000E+00  0.0000E+00  0.7200E+02
  -2.460  0.0000E+00  0.0000E+00  0.7200E+02
  -2.450  0.0000E+00  0.0000E+00  0.7200E+02
  -2.440  0.0000E+00  0.0000E+00  0.7200E+02
  -2.430  0.0000E+00  0.0000E+00  0.7200E+02
  -2.420  0.0000E+00  0.0000E+00  0.7200E+02
  -2.410  0.0000E+00  0.0000E+00  0.7200E+02
  -2.400  0.0000E+00  0.0000E+00  0.7200E+02
  -2.390  0.0000E+00  0.0000E+00  0.7200E+02
  -2.380  0.0000E+00  0.0000E+00  0.7200E+02
  -2.370  0.0000E+00  0.0000E+00  0.7200E+02
  -2.360  0.0000E+00  0.0000E+00  0.7200E+02
  -2.350  0.0000E+00  0.0000E+00  0.7200E+02
  -2.340  0.0000E+00  0.0000E+00  0.7200E+02
  -2.330  0.0000E+00  0.0000E+00  0.7200E+02
  -2.320  0.0000E+00  0.0000E+00  0.7200E+02
  -2.310  0.0000E+00  0.0000E+00  0.7200E+02
  -2.300  0.0000E+00  0.0000E+00  0.7200E+02
  -2.290  0.0000E+00  0.0000E+00  0.7200E+02
  -2.280  0.0000E+00  0.0000E+00  0.7200E+02
  -2.270  0.0000E+00  0.0000E+00  0.7200E+02
  -2.260  0.0000E+00  0.0000E+00  0.7200E+02
  -2.250  0.0000E+00  0.0000E+00  0.7200E+02
  -2.240  0.0000E+00  0.0000E+00  0.7200E+02
  -2.230  0.0000E+00  0.0000E+00  0.7200E+02
  -2.220  0.0000E+00  0.0000E+00  0.7200E+02
  -2.210  0.0000E+00  0.0000E+00  0.7200E+02
  -2.200  0.0000E+00  0.0000E+00  0.7200E+02
  -2.190  0.0000E+00  0.0000E+00  0.7200E+02
  -2.180  0.0000E+00  0.0000E+00  0.7200E+02
  -2.170  0.0000E+00  0.0000E+00  0.7200E+02
  -2.160  0.0000E+00  0.0000E+00  0.7200E+02
  -2.150  0.0000E+00  0.0000E+00  0.7200E+02
  -2.140  0.0000E+00  0.0000E+00  0.7200E+02
  -2.130  0.0000E+00  0.0000E+00  0.7200E+02
  -2.120  0.0000E+00  0.0000E+00  0.7200E+02
  -2.110  0.0000E+00  0.0000E+00  0.7200E+02
  -2.100  0.0000E+00  0.0000E+00  0.7200E+02
  -2.090  0.0000E+00  0.0000E+00  0.7200E+02
  -2.080  0.0000E+00  0.0000E+00  0.7200E+02
  -2.070  0.0000E+00  0.0000E+00  0.7200E+02
  -2.060  0.0000E+00  0.0000E+00  0.7200E+02
  -2.050  0.0000E+00  0.0000E+00  0.7200E+02
  -2.040  0.0000E+00  0.0000E+00  0.7200E+02
  -2.030  0.0000E+00  0.0000E+00  0.7200E+02
  -2.020  0.0000E+00  0.0000E+00  0.7200E+02
  -2.010  0.0000E+00  0.0000E+00  0.7200E+02
  -2.000  0.0000E+00  0.0000E+00  0.7200E+02
  -1.990  0.0000E+00  0.0000E+00  0.7200E+02
  -1.980  0.0000E+00  0.0000E+00  0.7200E+02
  -1.970  0.0000E+00  0.0000E+00  0.7200E+02
  -1.960  0.0000E+00  0.0000E+00  0.7200E+02
  -1.950  0.0000E+00  0.0000E+00  0.7200E+02
  -1.940  0.0000E+00  0.0000E+00  0.7200E+02
  -1.930  0.0000E+00  0.0000E+00  0.7200E+02
  -1.920  0.0000E+00  0.0000E+00  0.7200E+02
  -1.910  0.0000E+00  0.0000E+00  0.7200E+02
  -1.900  0.0000E+00  0.0000E+00  0.7200E+02
  -1.890  0.0000E+00  0.0000E+00  0.7200E+02
  -1.880  0.0000E+00  0.0000E+00  0.7200E+02
  -1.870  0.0000E+00  0.0000E+00  0.7200E+02
  -1.860  0.0000E+00  0.0000E+00  0.7200E+02
  -1.850  0.0000E+00  0.0000E+00  0.7200E+02
  -1.840  0.0000E+00  0.0000E+00  0.7200E+02
  -1.830  0.0000E+00  0.0000E+00  0.7200E+02
  -1.820  0.0000E+00  0.0000E+00  0.7200E+02
  -1.810  0.0000E+00  0.0000E+00  0.7200E+02
  -1.800  0.0000E+00  0.0000E+00  0.7200E+02
  -1.790  0.0000E+00  0.0000E+00  0.7200E+02
  -1.780  0.0000E+00  0.0000E+00  0.7200E+02
  -1.770  0.0000E+00  0.0000E+00  0.7200E+02
  -1.760  0.0000E+00  0.0000E+00  0.7200E+02
  -1.750  0.0000E+00  0.0000E+00  0.7200E+02
  -1.740  0.0000E+00  0.0000E+00  0.7200E+02
  -1.730  0.0000E+00  0.0000E+00  0.7200E+02
  -1.720  0.0000E+00  0.0000E+00  0.7200E+02
  -1.710  0.0000E+00  0.0000E+00  0.7200E+02
  -1.700  0.0000E+00  0.0000E+00  0.7200E+02
  -1.690  0.0000E+00  0.0000E+00  0.7200E+02
  -1.680  0.0000E+00  0.0000E+00  0.7200E+02
  -1.670  0.0000E+00  0.0000E+00  0.7200E+02
  -1.660  0.0000E+00  0.0000E+00  0.7200E+02
  -1.650  0.0000E+00  0.0000E+00  0.7200E+02
  -1.640  0.0000E+00  0.0000E+00  0.7200E+02
  -1.630  0.0000E+00  0.0000E+00  0.7200E+02
  -1.620  0.0000E+00  0.0000E+00  0.7200E+02
  -1.610  0.0000E+00  0.0000E+00  0.7200E+02
  -1.600  0.0000E+00  0.0000E+00  0.7200E+02
  -1.590  0.0000E+00  0.0000E+00  0.7200E+02
  -1.580  0.0000E+00  0.0000E+00  0.7200E+02
  -1.570  0.0000E+00  0.0000E+00  0.7200E+02
  -1.560  0.0000E+00  0.0000E+00  0.7200E+02
  -1.550  0.0000E+00  0.0000E+00  0.7200E+02
  -1.540  0.0000E+00  0.0000E+00  0.7200E+02
  -1.530  0.0000E+00  0.0000E+00  0.7200E+02
  -1.520  0.0000E+00  0.0000E+00  0.7200E+02
  -1.510  0.0000E+00  0.0000E+00  0.7200E+02
  -1.500  0.0000E+00  0.0000E+00  0.7200E+02
  -1.490  0.0000E+00  0.0000E+00  0.7200E+02
  -1.480  0.0000E+00  0.0000E+00  0.7200E+02
  -1.470  0.0000E+00  0.0000E+00  0.7200E+02
  -1.460  0.0000E+00  0.0000E+00  0.7200E+02
  -1.450  0.0000E+00  0.0000E+00  0.7200E+02
  -1.440  0.0000E+00  0.0000E+00  0.7200E+02
  -1.430  0.0000E+00  0.0000E+00  0.7200E+02
  -1.420  0.0000E+00  0.0000E+00  0.7200E+02
  -1.410  0.0000E+00  0.0000E+00  0.7200E+02
  -1.400  0.0000E+00  0.0000E+00  0.7200E+02
  -1.390  0.0000E+00  0.0000E+00  0.7200E+02
  -1.380  0.0000E+00  0.0000E+00  0.7200E+02
  -1.370  0.0000E+00  0.0000E+00  0.7200E+02
  -1.360  0.0000E+00  0.0000E+00  0.7200E+02
  -1.350  0.0000E+00  0.0000E+00  0.7200E+02
  -1.340  0.0000E+00  0.0000E+00  0.7200E+02
  -1.330  0.0000E+00  0.0000E+00  0.7200E+02
  -1.320  0.0000E+00  0.0000E+00  0.7200E+02
  -1.310  0.0000E+00  0.0000E+00  0.7200E+02
  -1.300  0.0000E+00  0.0000E+00  0.7200E+02
  -1.290  0.0000E+00  0.0000E+00  0.7200E+02
  -1.280  0.0000E+00  0.0000E+00  0.7200E+02
  -1.270  0.0000E+00  0.0000E+00  0.7200E+02
  -1.260  0.0000E+00  0.0000E+00  0.7200E+02
  -1.250  0.0000E+00  0.0000E+00  0.7200E+02
  -1.240  0.0000E+00  0.0000E+00  0.7200E+02
  -1.230  0.0000E+00  0.0000E+00  0.7200E+02
  -1.220  0.0000E+00  0.0000E+00  0.7200E+02
  -1.210  0.0000E+00  0.0000E+00  0.7200E+02
  -1.200  0.0000E+00  0.0000E+00  0.7200E+02
  -1.190  0.0000E+00  0.0000E+00  0.7200E+02
  -1.180  0.0000E+00  0.0000E+00  0.7200E+02
  -1.170  0.0000E+00  0.0000E+00  0.7200E+02
  -1.160  0.0000E+00  0.0000E+00  0.7200E+02
  -1.150  0.0000E+00  0.0000E+00  0.7200E+02
  -1.140  0.0000E+00  0.0000E+00  0.7200E+02
  -1.130  0.0000E+00  0.0000E+00  0.7200E+02
  -1.120  0.0000E+00  0.0000E+00  0.7200E+02
  -1.110  0.0000E+00  0.0000E+00  0.7200E+02
  -1.100  0.0000E+00  0.0000E+00  0.7200E+02
  -1.090  0.0000E+00  0.0000E+00  0.7200E+02
  -1.080  0.0000E+00  0.0000E+00  0.7200E+02
  -1.070  0.0000E+00  0.0000E+00  0.7200E+02
  -1.060  0.0000E+00  0.0000E+00  0.7200E+02
  -1.050  0.0000E+00  0.0000E+00  0.7200E+02
  -1.040  0.0000E+00  0.0000E+00  0.7200E+02
  -1.030  0.0000E+00  0.0000E+00  0.7200E+02
  -1.020  0.0000E+00  0.0000E+00  0.7200E+02
  -1.010  0.0000E+00  0.0000E+00  0.7200E+02
  -1.000  0.0000E+00  0.0000E+00  0.7200E+02
  -0.990  0.0000E+00  0.0000E+00  0.7200E+02
  -0.980  0.0000E+00  0.0000E+00  0.7200E+02
  -0.970  0.0000E+00  0.0000E+00  0.7200E+02
  -0.960  0.0000E+00  0.0000E+00  0.7200E+02
  -0.950  0.0000E+00  0.0000E+00  0.7200E+02
  -0.940  0.0000E+00  0.0000E+00  0.7200E+02
  -0.930  0.0000E+00  0.0000E+00  0.7200E+02
  -0.920  0.0000E+00  0.0000E+00  0.7200E+02
  -0.910  0.0000E+00  0.0000E+00  0.7200E+02
  -0.900  0.0000E+00  0.0000E+00  0.7200E+02
  -0.890  0.0000E+00  0.0000E+00  0.7200E+02
  -0.880  0.0000E+00  0.0000E+00  0.7200E+02
  -0.870  0.0000E+00  0.0000E+00  0.7200E+02
  -0.860  0.0000E+00  0.0000E+00  0.7200E+02
  -0.850  0.0000E+00  0.0000E+00  0.7200E+02
  -0.840  0.0000E+00  0.0000E+00  0.7200E+02
  -0.830  0.0000E+00  0.0000E+00  0.7200E+02
  -0.820  0.0000E+00  0.0000E+00  0.7200E+02
  -0.810  0.0000E+00  0.0000E+00  0.7200E+02
  -0.800  0.0000E+00  0.0000E+00  0.7200E+02
  -0.790  0.0000E+00  0.0000E+00  0.7200E+02
  -0.780  0.0000E+00  0.0000E+00  0.7200E+02
  -0.770  0.0000E+00  0.0000E+00  0.7200E+02
  -0.760  0.0000E+00  0.0000E+00  0.7200E+02
  -0.750  0.0000E+00  0.0000E+00  0.7200E+02
  -0.740  0.2368E-02  0.1014E-02  0.7200E+02
  -0.730  0.2124E+02  0.2044E+02  0.7214E+02
  -0.720  0.7937E+02  0.7872E+02  0.7320E+02
  -0.710  0.9456E+02  0.9421E+02  0.7505E+02
  -0.700  0.1217E+03  0.1213E+03  0.7714E+02
  -0.690  0.1111E+03  0.1110E+03  0.7954E+02
  -0.680  0.1100E+03  0.1095E+03  0.8185E+02
  -0.670  0.1746E+03  0.1788E+03  0.8457E+02
  -0.660  0.1865E+03  0.1866E+03  0.8831E+02
  -0.650  0.1852E+03  0.1898E+03  0.9220E+02
  -0.640  0.1540E+03  0.1534E+03  0.9541E+02
  -0.630  0.2012E+03  0.2056E+03  0.9977E+02
  -0.620  0.2731E+03  0.2742E+03  0.1062E+03
  -0.610  0.2933E+03  0.2869E+03  0.1116E+03
  -0.600  0.3211E+03  0.3268E+03  0.1188E+03
  -0.590  0.3101E+03  0.3063E+03  0.1250E+03
  -0.580  0.3015E+03  0.2991E+03  0.1310E+03
  -0.570  0.3756E+03  0.3723E+03  0.1375E+03
  -0.560  0.3125E+03  0.3127E+03  0.1454E+03
  -0.550  0.2434E+03  0.2654E+03  0.1519E+03
  -0.540  0.3135E+03  0.1734E+03  0.1557E+03
  -0.530  0.3524E+03  0.4322E+03  0.1615E+03
  -0.520  0.1454E+03  0.1515E+03  0.1655E+03
  -0.510  0.3754E+03  0.1899E+03  0.1691E+03
  -0.500  0.1354E+03  0.1351E+03  0.1732E+03
  -0.490  0.2627E+03  0.2390E+03  0.1769E+03
  -0.480  0.3902E+03  0.2783E+03  0.1814E+03
  -0.470  0.1492E+03  0.1197E+03  0.1862E+03
  -0.460  0.2556E+03  0.2129E+03  0.1900E+03
  -0.450  0.1534E+03  0.1572E+03  0.1941E+03
  -0.440  0.1598E+03  0.1487E+03  0.1979E+03
  -0.430  0.2120E+03  0.2812E+03  0.2028E+03
  -0.420  0.1431E+03  0.1561E+03  0.2066E+03
  -0.410  0.2295E+03  0.2591E+03  0.2102E+03
  -0.400  0.1718E+03  0.1908E+03  0.2143E+03
  -0.390  0.9051E+02  0.8980E+02  0.2166E+03
  -0.380  0.1540E+03  0.1715E+03  0.2187E+03
  -0.370  0.1127E+03  0.1141E+03  0.2212E+03
  -0.360  0.1115E+03  0.1121E+03  0.2234E+03
  -0.350  0.1120E+03  0.1144E+03  0.2257E+03
  -0.340  0.1165E+03  0.1165E+03  0.2279E+03
  -0.330  0.1134E+03  0.1125E+03  0.2302E+03
  -0.320  0.1729E+03  0.1668E+03  0.2328E+03
  -0.310  0.1608E+03  0.1570E+03  0.2361E+03
  -0.300  0.1723E+03  0.1782E+03  0.2397E+03
  -0.290  0.1411E+03  0.1441E+03  0.2427E+03
  -0.280  0.2536E+03  0.2421E+03  0.2464E+03
  -0.270  0.2376E+03  0.2284E+03  0.2503E+03
  -0.260  0.1244E+03  0.1260E+03  0.2550E+03
  -0.250  0.1707E+03  0.1698E+03  0.2585E+03
  -0.240  0.3100E+03  0.3071E+03  0.2628E+03
  -0.230  0.3103E+03  0.3247E+03  0.2716E+03
  -0.220  0.3626E+03  0.3115E+03  0.2797E+03
  -0.210  0.5008E+03  0.4994E+03  0.2879E+03
  -0.200  0.3581E+03  0.3631E+03  0.2958E+03
  -0.190  0.9217E+02  0.9859E+02  0.3000E+03
  -0.180  0.1965E+03  0.1998E+03  0.3032E+03
  -0.170  0.2201E+03  0.2225E+03  0.3064E+03
  -0.160  0.1269E+03  0.1201E+03  0.3119E+03
  -0.150  0.1558E+03  0.1659E+03  0.3157E+03
  -0.140  0.2655E+03  0.2731E+03  0.3201E+03
  -0.130  0.3242E+03  0.2906E+03  0.3252E+03
  -0.120  0.3058E+03  0.3185E+03  0.3331E+03
  -0.110  0.2081E+03  0.2159E+03  0.3381E+03
  -0.100  0.2745E+03  0.2733E+03  0.3441E+03
  -0.090  0.1855E+03  0.1867E+03  0.3487E+03
  -0.080  0.9157E+02  0.9309E+02  0.3509E+03
  -0.070  0.1029E+03  0.1005E+03  0.3528E+03
  -0.060  0.9055E+02  0.9123E+02  0.3547E+03
  -0.050  0.7098E+02  0.7301E+02  0.3563E+03
  -0.040  0.7017E+02  0.7004E+02  0.3577E+03
  -0.030  0.5354E+02  0.5401E+02  0.3590E+03
  -0.020  0.7082E+02  0.7006E+02  0.3603E+03
  -0.010  0.7035E+02  0.7215E+02  0.3618E+03
   0.000  0.5624E+02  0.5605E+02  0.3630E+03
   0.010  0.5885E+02  0.5829E+02  0.3642E+03
   0.020  0.1019E+03  0.8519E+02  0.3655E+03
   0.030  0.1101E+03  0.1143E+03  0.3681E+03
   0.040  0.7525E+02  0.8151E+02  0.3698E+03
   0.050  0.5232E+02  0.5228E+02  0.3711E+03
   0.060  0.5557E+02  0.5492E+02  0.3722E+03
   0.070  0.4334E+02  0.4589E+02  0.3732E+03
   0.080  0.4492E+02  0.4424E+02  0.3740E+03
   0.090  0.7723E+02  0.7295E+02  0.3751E+03
   0.100  0.1123E+03  0.1145E+03  0.3770E+03
   0.110  0.7606E+02  0.7947E+02  0.3790E+03
   0.120  0.4322E+02  0.4532E+02  0.3802E+03
   0.130  0.2555E+02  0.2697E+02  0.3809E+03
   0.140  0.1629E+02  0.1695E+02  0.3813E+03
   0.150  0.1272E+02  0.1298E+02  0.3816E+03
   0.160  0.6846E+01  0.6916E+01  0.3819E+03
   0.170  0.3094E+01  0.3243E+01  0.3820E+03
   0.180  0.7398E+00  0.8069E+00  0.3820E+03
   0.190  0.7989E-02  0.1107E-01  0.3820E+03
   0.200  0.0000E+00  0.0000E+00  0.3820E+03
   0.210  0.0000E+00  0.0000E+00  0.3820E+03
   0.220  0.0000E+00  0.0000E+00  0.3820E+03
   0.230  0.0000E+00  0.0000E+00  0.3820E+03
   0.240  0.0000E+00  0.0000E+00  0.3820E+03
   0.250  0.0000E+00  0.0000E+00  0.3820E+03
   0.260  0.0000E+00  0.0000E+00  0.3820E+03
   0.270  0.0000E+00  0.0000E+00  0.3820E+03
   0.280  0.0000E+00  0.0000E+00  0.3820E+03
   0.290  0.0000E+00  0.0000E+00  0.3820E+03
   0.300  0.0000E+00  0.0000E+00  0.3820E+03
   0.310  0.0000E+00  0.0000E+00  0.3820E+03
   0.320  0.0000E+00  0.0000E+00  0.3820E+03
   0.330  0.0000E+00  0.0000E+00  0.3820E+03
   0.340  0.0000E+00  0.0000E+00  0.3820E+03
   0.350  0.4523E-03  0.1810E-03  0.3820E+03
   0.360  0.5405E-02  0.3746E-02  0.3820E+03
   0.370  0.2103E-01  0.1699E-01  0.3820E+03
   0.380  0.4855E-01  0.4209E-01  0.3820E+03
   0.390  0.8821E-01  0.7909E-01  0.3820E+03
   0.400  0.1409E+00  0.1287E+00  0.3820E+03
   0.410  0.2068E+00  0.1915E+00  0.3820E+03
   0.420  0.2860E+00  0.2676E+00  0.3820E+03
   0.430  0.3784E+00  0.3568E+00  0.3820E+03
   0.440  0.4840E+00  0.4592E+00  0.3820E+03
   0.450  0.6029E+00  0.5748E+00  0.3820E+03
   0.460  0.7350E+00  0.7036E+00  0.3821E+03
   0.470  0.8807E+00  0.8456E+00  0.3821E+03
   0.480  0.1107E+01  0.1037E+01  0.3821E+03
   0.490  0.1639E+01  0.1499E+01  0.3821E+03
   0.500  0.2435E+01  0.2222E+01  0.3822E+03
   0.510  0.3349E+01  0.3154E+01  0.3822E+03
   0.520  0.3995E+01  0.3871E+01  0.3823E+03
   0.530  0.4365E+01  0.4307E+01  0.3824E+03
   0.540  0.4464E+01  0.4469E+01  0.3824E+03
   0.550  0.4294E+01  0.4360E+01  0.3825E+03
   0.560  0.3905E+01  0.4002E+01  0.3826E+03
   0.570  0.3773E+01  0.3760E+01  0.3827E+03
   0.580  0.4000E+01  0.3948E+01  0.3828E+03
   0.590  0.4260E+01  0.4205E+01  0.3829E+03
   0.600  0.4536E+01  0.4479E+01  0.3829E+03
   0.610  0.4828E+01  0.4768E+01  0.3830E+03
   0.620  0.5137E+01  0.5073E+01  0.3831E+03
   0.630  0.5463E+01  0.5396E+01  0.3832E+03
   0.640  0.5807E+01  0.5737E+01  0.3834E+03
   0.650  0.6168E+01  0.6096E+01  0.3835E+03
   0.660  0.6539E+01  0.6467E+01  0.3836E+03
   0.670  0.6871E+01  0.6812E+01  0.3837E+03
   0.680  0.7466E+01  0.7252E+01  0.3839E+03
   0.690  0.9343E+01  0.8952E+01  0.3840E+03
   0.700  0.1064E+02  0.1055E+02  0.3842E+03
   0.710  0.1121E+02  0.1111E+02  0.3845E+03
   0.720  0.1178E+02  0.1165E+02  0.3847E+03
   0.730  0.1220E+02  0.1210E+02  0.3849E+03
   0.740  0.1256E+02  0.1244E+02  0.3852E+03
   0.750  0.1207E+02  0.1258E+02  0.3854E+03
   0.760  0.1174E+02  0.1224E+02  0.3857E+03
   0.770  0.1044E+02  0.1049E+02  0.3859E+03
   0.780  0.1129E+02  0.1101E+02  0.3861E+03
   0.790  0.1205E+02  0.1192E+02  0.3863E+03
   0.800  0.1245E+02  0.1231E+02  0.3866E+03
   0.810  0.1283E+02  0.1270E+02  0.3868E+03
   0.820  0.1312E+02  0.1302E+02  0.3871E+03
   0.830  0.1336E+02  0.1328E+02  0.3874E+03
   0.840  0.1352E+02  0.1346E+02  0.3876E+03
   0.850  0.1362E+02  0.1358E+02  0.3879E+03
   0.860  0.1366E+02  0.1364E+02  0.3882E+03
   0.870  0.1365E+02  0.1365E+02  0.3884E+03
   0.880  0.1363E+02  0.1364E+02  0.3887E+03
   0.890  0.1389E+02  0.1374E+02  0.3890E+03
   0.900  0.1586E+02  0.1546E+02  0.3893E+03
   0.910  0.1724E+02  0.1711E+02  0.3896E+03
   0.920  0.1779E+02  0.1774E+02  0.3900E+03
   0.930  0.1790E+02  0.1790E+02  0.3903E+03
   0.940  0.1742E+02  0.1753E+02  0.3907E+03
   0.950  0.1771E+02  0.1776E+02  0.3910E+03
   0.960  0.1891E+02  0.1834E+02  0.3914E+03
   0.970  0.2336E+02  0.2226E+02  0.3918E+03
   0.980  0.2959E+02  0.2859E+02  0.3923E+03
   0.990  0.3681E+02  0.3618E+02  0.3930E+03
   1.000  0.3861E+02  0.3760E+02  0.3937E+03
   1.010  0.4359E+02  0.4199E+02  0.3945E+03
   1.020  0.5010E+02  0.5119E+02  0.3954E+03
   1.030  0.5184E+02  0.4969E+02  0.3965E+03
   1.040  0.6475E+02  0.6277E+02  0.3977E+03
   1.050  0.5114E+02  0.5185E+02  0.3988E+03
   1.060  0.5164E+02  0.5111E+02  0.3998E+03
   1.070  0.4941E+02  0.5001E+02  0.4008E+03
   1.080  0.7272E+02  0.6624E+02  0.4019E+03
   1.090  0.3828E+02  0.4139E+02  0.4030E+03
   1.100  0.2949E+02  0.2931E+02  0.4036E+03
   1.110  0.3046E+02  0.2754E+02  0.4042E+03
   1.120  0.2895E+02  0.2858E+02  0.4048E+03
   1.130  0.2375E+02  0.2730E+02  0.4053E+03
   1.140  0.1465E+02  0.1736E+02  0.4057E+03
   1.150  0.1278E+02  0.1221E+02  0.4060E+03
   1.160  0.1658E+02  0.1689E+02  0.4063E+03
   1.170  0.2049E+02  0.1949E+02  0.4067E+03
   1.180  0.2318E+02  0.2242E+02  0.4071E+03
   1.190  0.2418E+02  0.2350E+02  0.4076E+03
   1.200  0.2475E+02  0.2410E+02  0.4080E+03
   1.210  0.2603E+02  0.2505E+02  0.4085E+03
   1.220  0.2701E+02  0.2617E+02  0.4091E+03
   1.230  0.2768E+02  0.2696E+02  0.4096E+03
   1.240  0.2816E+02  0.2758E+02  0.4102E+03
   1.250  0.2865E+02  0.2825E+02  0.4107E+03
   1.260  0.2842E+02  0.2833E+02  0.4113E+03
   1.270  0.2785E+02  0.2790E+02  0.4119E+03
   1.280  0.2658E+02  0.2700E+02  0.4124E+03
   1.290  0.2471E+02  0.2552E+02  0.4129E+03
   1.300  0.2236E+02  0.2345E+02  0.4134E+03
   1.310  0.2076E+02  0.2122E+02  0.4138E+03
   1.320  0.1925E+02  0.1972E+02  0.4142E+03
   1.330  0.1783E+02  0.1816E+02  0.4146E+03
   1.340  0.1742E+02  0.1739E+02  0.4150E+03
   1.350  0.1753E+02  0.1704E+02  0.4153E+03
   1.360  0.1829E+02  0.1720E+02  0.4157E+03
   1.370  0.1950E+02  0.1778E+02  0.4160E+03
   1.380  0.2072E+02  0.1874E+02  0.4164E+03
   1.390  0.2077E+02  0.2087E+02  0.4168E+03
   1.400  0.1934E+02  0.2093E+02  0.4172E+03
   1.410  0.1745E+02  0.1881E+02  0.4176E+03
   1.420  0.1120E+02  0.1973E+02  0.4180E+03
   1.430  0.1104E+02  0.1097E+02  0.4182E+03
   1.440  0.1181E+02  0.1136E+02  0.4185E+03
   1.450  0.1285E+02  0.1204E+02  0.4187E+03
   1.460  0.1360E+02  0.1281E+02  0.4190E+03
   1.470  0.1399E+02  0.1358E+02  0.4192E+03
   1.480  0.1427E+02  0.1400E+02  0.4195E+03
   1.490  0.1442E+02  0.1417E+02  0.4198E+03
   1.500  0.1443E+02  0.1426E+02  0.4201E+03
   1.510  0.1430E+02  0.1421E+02  0.4204E+03
   1.520  0.1402E+02  0.1402E+02  0.4207E+03
   1.530  0.1360E+02  0.1370E+02  0.4209E+03
   1.540  0.1303E+02  0.1325E+02  0.4212E+03
   1.550  0.1230E+02  0.1264E+02  0.4215E+03
   1.560  0.1169E+02  0.1193E+02  0.4217E+03
   1.570  0.1127E+02  0.1147E+02  0.4219E+03
   1.580  0.1095E+02  0.1110E+02  0.4222E+03
   1.590  0.1068E+02  0.1080E+02  0.4224E+03
   1.600  0.1046E+02  0.1052E+02  0.4226E+03
   1.610  0.1056E+02  0.1025E+02  0.4228E+03
   1.620  0.1092E+02  0.1001E+02  0.4230E+03
   1.630  0.1167E+02  0.1069E+02  0.4232E+03
   1.640  0.1236E+02  0.1157E+02  0.4234E+03
   1.650  0.1272E+02  0.1233E+02  0.4237E+03
   1.660  0.1228E+02  0.1231E+02  0.4239E+03
   1.670  0.1124E+02  0.1154E+02  0.4242E+03
   1.680  0.9949E+01  0.1045E+02  0.4244E+03
   1.690  0.8798E+01  0.9350E+01  0.4246E+03
   1.700  0.8296E+01  0.8510E+01  0.4248E+03
   1.710  0.8536E+01  0.8133E+01  0.4249E+03
   1.720  0.8659E+01  0.8395E+01  0.4251E+03
   1.730  0.9469E+01  0.9154E+01  0.4253E+03
   1.740  0.1546E+02  0.1184E+02  0.4255E+03
   1.750  0.7948E+01  0.1254E+02  0.4258E+03
   1.760  0.7225E+01  0.7665E+01  0.4259E+03
   1.770  0.7490E+01  0.7024E+01  0.4261E+03
   1.780  0.7106E+01  0.7401E+01  0.4262E+03
   1.790  0.6803E+01  0.7157E+01  0.4264E+03
   1.800  0.6737E+01  0.6988E+01  0.4265E+03
   1.810  0.6886E+01  0.7015E+01  0.4266E+03
   1.820  0.7194E+01  0.7193E+01  0.4268E+03
   1.830  0.7535E+01  0.7448E+01  0.4269E+03
   1.840  0.7834E+01  0.7736E+01  0.4271E+03
   1.850  0.8095E+01  0.7985E+01  0.4272E+03
   1.860  0.8315E+01  0.8197E+01  0.4274E+03
   1.870  0.8493E+01  0.8367E+01  0.4276E+03
   1.880  0.8630E+01  0.8497E+01  0.4277E+03
   1.890  0.8725E+01  0.8585E+01  0.4279E+03
   1.900  0.8779E+01  0.8632E+01  0.4281E+03
   1.910  0.8791E+01  0.8637E+01  0.4283E+03
   1.920  0.8760E+01  0.8601E+01  0.4284E+03
   1.930  0.8841E+01  0.8519E+01  0.4286E+03
   1.940  0.9119E+01  0.8430E+01  0.4288E+03
   1.950  0.9237E+01  0.8667E+01  0.4290E+03
   1.960  0.9248E+01  0.8960E+01  0.4291E+03
   1.970  0.9217E+01  0.9101E+01  0.4293E+03
   1.980  0.9061E+01  0.9053E+01  0.4295E+03
   1.990  0.8765E+01  0.8846E+01  0.4297E+03
   2.000  0.8369E+01  0.8563E+01  0.4299E+03
   2.010  0.7961E+01  0.8120E+01  0.4300E+03
   2.020  0.7641E+01  0.7605E+01  0.4302E+03
   2.030  0.7410E+01  0.7213E+01  0.4303E+03
   2.040  0.7247E+01  0.6941E+01  0.4305E+03
   2.050  0.7131E+01  0.6767E+01  0.4306E+03
   2.060  0.7127E+01  0.6691E+01  0.4307E+03
   2.070  0.7218E+01  0.6789E+01  0.4309E+03
   2.080  0.7317E+01  0.6976E+01  0.4310E+03
   2.090  0.7431E+01  0.7194E+01  0.4312E+03
   2.100  0.7546E+01  0.7369E+01  0.4313E+03
   2.110  0.7662E+01  0.7510E+01  0.4315E+03
   2.120  0.7782E+01  0.7649E+01  0.4316E+03
   2.130  0.7905E+01  0.7791E+01  0.4318E+03
   2.140  0.8010E+01  0.7934E+01  0.4319E+03
   2.150  0.8123E+01  0.8077E+01  0.4321E+03
   2.160  0.8241E+01  0.8195E+01  0.4323E+03
   2.170  0.8275E+01  0.8331E+01  0.4324E+03
   2.180  0.8217E+01  0.8439E+01  0.4326E+03
   2.190  0.7959E+01  0.8422E+01  0.4328E+03
   2.200  0.7251E+01  0.8025E+01  0.4329E+03
   2.210  0.6603E+01  0.7353E+01  0.4331E+03
   2.220  0.6362E+01  0.6665E+01  0.4332E+03
   2.230  0.6380E+01  0.6318E+01  0.4333E+03
   2.240  0.6261E+01  0.6134E+01  0.4335E+03
   2.250  0.6143E+01  0.6025E+01  0.4336E+03
   2.260  0.6149E+01  0.6099E+01  0.4337E+03
   2.270  0.6148E+01  0.6113E+01  0.4338E+03
   2.280  0.6146E+01  0.6158E+01  0.4339E+03
   2.290  0.6116E+01  0.6155E+01  0.4341E+03
   2.300  0.6051E+01  0.6124E+01  0.4342E+03
   2.310  0.5959E+01  0.6060E+01  0.4343E+03
   2.320  0.5836E+01  0.5961E+01  0.4344E+03
   2.330  0.5734E+01  0.5819E+01  0.4345E+03
   2.340  0.5676E+01  0.5642E+01  0.4347E+03
   2.350  0.5658E+01  0.5472E+01  0.4348E+03
   2.360  0.5724E+01  0.5398E+01  0.4349E+03
   2.370  0.5863E+01  0.5426E+01  0.4350E+03
   2.380  0.5983E+01  0.5608E+01  0.4351E+03
   2.390  0.6085E+01  0.5773E+01  0.4352E+03
   2.400  0.6172E+01  0.5919E+01  0.4353E+03
   2.410  0.6240E+01  0.6046E+01  0.4355E+03
   2.420  0.6288E+01  0.6154E+01  0.4356E+03
   2.430  0.6313E+01  0.6242E+01  0.4357E+03
   2.440  0.6319E+01  0.6307E+01  0.4358E+03
   2.450  0.6355E+01  0.6363E+01  0.4360E+03
   2.460  0.7416E+01  0.7274E+01  0.4361E+03
   2.470  0.7722E+01  0.7581E+01  0.4363E+03
   2.480  0.8027E+01  0.7888E+01  0.4364E+03
   2.490  0.8461E+01  0.8323E+01  0.4366E+03
   2.500  0.8947E+01  0.8842E+01  0.4367E+03
   2.510  0.9406E+01  0.9317E+01  0.4369E+03
   2.520  0.9920E+01  0.9844E+01  0.4371E+03
   2.530  0.1046E+02  0.1040E+02  0.4373E+03
   2.540  0.1093E+02  0.1091E+02  0.4375E+03
   2.550  0.1136E+02  0.1136E+02  0.4378E+03
   2.560  0.1170E+02  0.1179E+02  0.4380E+03
   2.570  0.1202E+02  0.1213E+02  0.4382E+03
   2.580  0.1234E+02  0.1248E+02  0.4385E+03
   2.590  0.1263E+02  0.1281E+02  0.4387E+03
   2.600  0.1290E+02  0.1310E+02  0.4390E+03
   2.610  0.1320E+02  0.1336E+02  0.4393E+03
   2.620  0.1363E+02  0.1369E+02  0.4395E+03
   2.630  0.1408E+02  0.1404E+02  0.4398E+03
   2.640  0.1495E+02  0.1463E+02  0.4401E+03
   2.650  0.1581E+02  0.1541E+02  0.4404E+03
   2.660  0.1673E+02  0.1626E+02  0.4407E+03
   2.670  0.1814E+02  0.1721E+02  0.4410E+03
   2.680  0.2018E+02  0.1855E+02  0.4414E+03
   2.690  0.2341E+02  0.2075E+02  0.4418E+03
   2.700  0.2776E+02  0.2453E+02  0.4423E+03
   2.710  0.3127E+02  0.2915E+02  0.4429E+03
   2.720  0.3316E+02  0.3294E+02  0.4435E+03
   2.730  0.3559E+02  0.3451E+02  0.4442E+03
   2.740  0.5163E+02  0.3919E+02  0.4450E+03
   2.750  0.4799E+02  0.5197E+02  0.4459E+03
   2.760  0.3203E+02  0.3955E+02  0.4468E+03
   2.770  0.1980E+02  0.2429E+02  0.4474E+03
   2.780  0.1699E+02  0.1710E+02  0.4478E+03
   2.790  0.1605E+02  0.1616E+02  0.4481E+03
   2.800  0.1532E+02  0.1528E+02  0.4484E+03
   2.810  0.1590E+02  0.1545E+02  0.4487E+03
   2.820  0.2045E+02  0.1882E+02  0.4491E+03
   2.830  0.2479E+02  0.2337E+02  0.4495E+03
   2.840  0.2711E+02  0.2510E+02  0.4500E+03
   2.850  0.3106E+02  0.3258E+02  0.4506E+03
   2.860  0.2549E+02  0.2948E+02  0.4512E+03
   2.870  0.1579E+02  0.2014E+02  0.4517E+03
   2.880  0.1227E+02  0.1169E+02  0.4519E+03
   2.890  0.1304E+02  0.1239E+02  0.4522E+03
   2.900  0.1347E+02  0.1211E+02  0.4524E+03
   2.910  0.1459E+02  0.1295E+02  0.4527E+03
   2.920  0.1578E+02  0.1382E+02  0.4530E+03
   2.930  0.1663E+02  0.1468E+02  0.4533E+03
   2.940  0.1735E+02  0.1514E+02  0.4536E+03
   2.950  0.1772E+02  0.1635E+02  0.4539E+03
   2.960  0.1888E+02  0.1692E+02  0.4543E+03
   2.970  0.2126E+02  0.1856E+02  0.4547E+03
   2.980  0.2311E+02  0.2015E+02  0.4551E+03
   2.990  0.2474E+02  0.2152E+02  0.4555E+03
   3.000  0.2578E+02  0.2318E+02  0.4560E+03
   3.010  0.2643E+02  0.2555E+02  0.4565E+03
   3.020  0.2668E+02  0.2649E+02  0.4570E+03
   3.030  0.2705E+02  0.2675E+02  0.4576E+03
   3.040  0.2739E+02  0.2701E+02  0.4581E+03
   3.050  0.2798E+02  0.2757E+02  0.4587E+03
   3.060  0.2848E+02  0.2842E+02  0.4592E+03
   3.070  0.2908E+02  0.2942E+02  0.4598E+03
   3.080  0.2979E+02  0.3052E+02  0.4604E+03
   3.090  0.2978E+02  0.3140E+02  0.4610E+03
   3.100  0.3020E+02  0.3272E+02  0.4616E+03
   3.110  0.2934E+02  0.3136E+02  0.4622E+03
   3.120  0.2642E+02  0.2855E+02  0.4628E+03
   3.130  0.2537E+02  0.2642E+02  0.4634E+03
   3.140  0.1957E+02  0.2436E+02  0.4638E+03
   3.150  0.1559E+02  0.2438E+02  0.4642E+03
   3.160  0.1500E+02  0.1763E+02  0.4646E+03
   3.170  0.1476E+02  0.1694E+02  0.4649E+03
   3.180  0.1461E+02  0.1629E+02  0.4652E+03
   3.190  0.1434E+02  0.1547E+02  0.4655E+03
   3.200  0.1401E+02  0.1464E+02  0.4658E+03
   3.210  0.1373E+02  0.1391E+02  0.4661E+03
   3.220  0.1377E+02  0.1349E+02  0.4664E+03
   3.230  0.1473E+02  0.1403E+02  0.4667E+03
   3.240  0.1613E+02  0.1485E+02  0.4670E+03
   3.250  0.1791E+02  0.1527E+02  0.4673E+03
   3.260  0.2142E+02  0.1634E+02  0.4676E+03
   3.270  0.2603E+02  0.2084E+02  0.4681E+03
   3.280  0.2764E+02  0.2523E+02  0.4686E+03
   3.290  0.2918E+02  0.2605E+02  0.4691E+03
   3.300  0.3194E+02  0.2688E+02  0.4697E+03
   3.310  0.3404E+02  0.2864E+02  0.4703E+03
   3.320  0.3481E+02  0.3048E+02  0.4709E+03
   3.330  0.3347E+02  0.3182E+02  0.4716E+03
   3.340  0.3303E+02  0.3258E+02  0.4722E+03
   3.350  0.3277E+02  0.3222E+02  0.4729E+03
   3.360  0.3123E+02  0.3240E+02  0.4735E+03
   3.370  0.2980E+02  0.3170E+02  0.4742E+03
   3.380  0.2905E+02  0.3028E+02  0.4748E+03
   3.390  0.3172E+02  0.2938E+02  0.4754E+03
   3.400  0.3015E+02  0.2948E+02  0.4760E+03
   3.410  0.3120E+02  0.2964E+02  0.4766E+03
   3.420  0.3188E+02  0.2950E+02  0.4772E+03
   3.430  0.3284E+02  0.2942E+02  0.4778E+03
   3.440  0.3373E+02  0.3057E+02  0.4784E+03
   3.450  0.3449E+02  0.3158E+02  0.4791E+03
   3.460  0.3442E+02  0.3269E+02  0.4798E+03
   3.470  0.3347E+02  0.3369E+02  0.4804E+03
   3.480  0.3402E+02  0.3423E+02  0.4811E+03
   3.490  0.3396E+02  0.3431E+02  0.4818E+03
   3.500  0.3402E+02  0.3397E+02  0.4825E+03
   3.510  0.3374E+02  0.3320E+02  0.4831E+03
   3.520  0.3237E+02  0.3273E+02  0.4838E+03
   3.530  0.3181E+02  0.3288E+02  0.4844E+03
   3.540  0.3205E+02  0.3337E+02  0.4851E+03
   3.550  0.3138E+02  0.3404E+02  0.4858E+03
   3.560  0.3150E+02  0.3379E+02  0.4864E+03
   3.570  0.3077E+02  0.3333E+02  0.4871E+03
   3.580  0.3044E+02  0.3270E+02  0.4877E+03
   3.590  0.3162E+02  0.3147E+02  0.4883E+03
   3.600  0.2952E+02  0.3029E+02  0.4889E+03
   3.610  0.2916E+02  0.3081E+02  0.4895E+03
   3.620  0.2973E+02  0.2836E+02  0.4901E+03
   3.630  0.3206E+02  0.2832E+02  0.4907E+03
   3.640  0.3015E+02  0.3144E+02  0.4913E+03
   3.650  0.3366E+02  0.2860E+02  0.4920E+03
   3.660  0.3076E+02  0.2939E+02  0.4926E+03
   3.670  0.3025E+02  0.2899E+02  0.4932E+03
   3.680  0.3263E+02  0.3008E+02  0.4938E+03
   3.690  0.2947E+02  0.2948E+02  0.4944E+03
   3.700  0.2800E+02  0.2877E+02  0.4950E+03
   3.710  0.2643E+02  0.2798E+02  0.4955E+03
   3.720  0.2484E+02  0.2782E+02  0.4961E+03
   3.730  0.2651E+02  0.2657E+02  0.4966E+03
   3.740  0.2149E+02  0.2717E+02  0.4971E+03
   3.750  0.2166E+02  0.2433E+02  0.4975E+03
   3.760  0.2422E+02  0.2255E+02  0.4980E+03
   3.770  0.2391E+02  0.2432E+02  0.4985E+03
   3.780  0.3060E+02  0.2630E+02  0.4990E+03
   3.790  0.4064E+02  0.3085E+02  0.4997E+03
   3.800  0.4615E+02  0.3258E+02  0.5004E+03
   3.810  0.4348E+02  0.3915E+02  0.5012E+03
   3.820  0.3734E+02  0.4653E+02  0.5021E+03
   3.830  0.3281E+02  0.4740E+02  0.5029E+03
   3.840  0.3225E+02  0.4055E+02  0.5037E+03
   3.850  0.3213E+02  0.3805E+02  0.5044E+03
   3.860  0.3079E+02  0.3642E+02  0.5051E+03
   3.870  0.3174E+02  0.3338E+02  0.5057E+03
   3.880  0.3381E+02  0.3219E+02  0.5064E+03
   3.890  0.3601E+02  0.3206E+02  0.5071E+03
   3.900  0.3840E+02  0.3147E+02  0.5078E+03
   3.910  0.3594E+02  0.3221E+02  0.5085E+03
   3.920  0.2729E+02  0.3195E+02  0.5091E+03
   3.930  0.2626E+02  0.2817E+02  0.5097E+03
   3.940  0.2626E+02  0.2639E+02  0.5102E+03
   3.950  0.2486E+02  0.2537E+02  0.5107E+03
   3.960  0.2463E+02  0.2438E+02  0.5112E+03
   3.970  0.2411E+02  0.2347E+02  0.5117E+03
   3.980  0.2483E+02  0.2359E+02  0.5122E+03
   3.990  0.2551E+02  0.2441E+02  0.5127E+03
   4.000  0.2527E+02  0.2505E+02  0.5132E+03
   4.010  0.2491E+02  0.2550E+02  0.5137E+03
   4.020  0.2554E+02  0.2575E+02  0.5142E+03
   4.030  0.2565E+02  0.2604E+02  0.5147E+03
   4.040  0.2645E+02  0.2627E+02  0.5152E+03
   4.050  0.2763E+02  0.2595E+02  0.5158E+03
   4.060  0.3049E+02  0.2742E+02  0.5163E+03
   4.070  0.3122E+02  0.2858E+02  0.5169E+03
   4.080  0.3344E+02  0.3042E+02  0.5175E+03
   4.090  0.3517E+02  0.3238E+02  0.5182E+03
   4.100  0.3169E+02  0.3377E+02  0.5189E+03
   4.110  0.3023E+02  0.3329E+02  0.5195E+03
   4.120  0.3021E+02  0.3223E+02  0.5202E+03
   4.130  0.3056E+02  0.3178E+02  0.5208E+03
   4.140  0.3134E+02  0.3157E+02  0.5214E+03
   4.150  0.3272E+02  0.3236E+02  0.5220E+03
   4.160  0.3282E+02  0.3448E+02  0.5227E+03
   4.170  0.3056E+02  0.3486E+02  0.5234E+03
   4.180  0.2961E+02  0.3234E+02  0.5240E+03
   4.190  0.2858E+02  0.3078E+02  0.5246E+03
   4.200  0.2815E+02  0.2904E+02  0.5252E+03
   4.210  0.2800E+02  0.2822E+02  0.5258E+03
   4.220  0.2877E+02  0.2800E+02  0.5263E+03
   4.230  0.2930E+02  0.2833E+02  0.5269E+03
   4.240  0.3004E+02  0.2878E+02  0.5275E+03
   4.250  0.3195E+02  0.2961E+02  0.5281E+03
   4.260  0.3399E+02  0.2982E+02  0.5287E+03
   4.270  0.3789E+02  0.3183E+02  0.5294E+03
   4.280  0.3653E+02  0.3521E+02  0.5301E+03
   4.290  0.3547E+02  0.4249E+02  0.5308E+03
   4.300  0.3510E+02  0.4101E+02  0.5316E+03
   4.310  0.3845E+02  0.4078E+02  0.5324E+03
   4.320  0.3528E+02  0.4286E+02  0.5332E+03
   4.330  0.3190E+02  0.3847E+02  0.5339E+03
   4.340  0.3082E+02  0.3353E+02  0.5346E+03
   4.350  0.2860E+02  0.3278E+02  0.5352E+03
   4.360  0.2650E+02  0.2846E+02  0.5358E+03
   4.370  0.2483E+02  0.2571E+02  0.5363E+03
   4.380  0.2466E+02  0.2368E+02  0.5368E+03
   4.390  0.2632E+02  0.2303E+02  0.5373E+03
   4.400  0.2755E+02  0.2507E+02  0.5378E+03
   4.410  0.2735E+02  0.2493E+02  0.5383E+03
   4.420  0.2675E+02  0.2413E+02  0.5388E+03
   4.430  0.2629E+02  0.2395E+02  0.5393E+03
   4.440  0.2614E+02  0.2489E+02  0.5398E+03
   4.450  0.2580E+02  0.2562E+02  0.5404E+03
   4.460  0.2519E+02  0.2526E+02  0.5409E+03
   4.470  0.2423E+02  0.2436E+02  0.5414E+03
   4.480  0.2312E+02  0.2332E+02  0.5418E+03
   4.490  0.2204E+02  0.2248E+02  0.5423E+03
   4.500  0.2673E+02  0.2388E+02  0.5428E+03
   4.510  0.2611E+02  0.2359E+02  0.5433E+03
   4.520  0.2806E+02  0.2421E+02  0.5438E+03
   4.530  0.2612E+02  0.2417E+02  0.5443E+03
   4.540  0.2660E+02  0.2563E+02  0.5448E+03
   4.550  0.2810E+02  0.2614E+02  0.5453E+03
   4.560  0.2824E+02  0.2750E+02  0.5459E+03
   4.570  0.2793E+02  0.2821E+02  0.5465E+03
   4.580  0.2766E+02  0.2860E+02  0.5470E+03
   4.590  0.2975E+02  0.2871E+02  0.5476E+03
   4.600  0.3160E+02  0.2950E+02  0.5482E+03
   4.610  0.2929E+02  0.3069E+02  0.5488E+03
   4.620  0.2849E+02  0.3456E+02  0.5494E+03
   4.630  0.2875E+02  0.3161E+02  0.5500E+03
   4.640  0.3105E+02  0.3121E+02  0.5506E+03
   4.650  0.4387E+02  0.3424E+02  0.5513E+03
   4.660  0.3872E+02  0.4033E+02  0.5521E+03
   4.670  0.2907E+02  0.3681E+02  0.5528E+03
   4.680  0.2924E+02  0.3550E+02  0.5535E+03
   4.690  0.2352E+02  0.2540E+02  0.5541E+03
   4.700  0.2675E+02  0.2495E+02  0.5546E+03
   4.710  0.3042E+02  0.2924E+02  0.5551E+03
   4.720  0.3108E+02  0.3265E+02  0.5558E+03
   4.730  0.2866E+02  0.3098E+02  0.5564E+03
   4.740  0.2875E+02  0.3035E+02  0.5570E+03
   4.750  0.2979E+02  0.3140E+02  0.5576E+03
   4.760  0.2876E+02  0.3241E+02  0.5582E+03
   4.770  0.2270E+02  0.2488E+02  0.5587E+03
   4.780  0.2114E+02  0.2252E+02  0.5592E+03
   4.790  0.1973E+02  0.2076E+02  0.5596E+03
   4.800  0.1853E+02  0.1941E+02  0.5600E+03
   4.810  0.1757E+02  0.1843E+02  0.5604E+03
   4.820  0.1687E+02  0.1796E+02  0.5607E+03
   4.830  0.1638E+02  0.1733E+02  0.5611E+03
   4.840  0.1600E+02  0.1682E+02  0.5614E+03
   4.850  0.1568E+02  0.1639E+02  0.5617E+03
   4.860  0.1535E+02  0.1595E+02  0.5620E+03
   4.870  0.1511E+02  0.1548E+02  0.5623E+03
   4.880  0.1741E+02  0.1505E+02  0.5627E+03
   4.890  0.1394E+02  0.1480E+02  0.5630E+03
   4.900  0.1365E+02  0.1497E+02  0.5633E+03
   4.910  0.1349E+02  0.1501E+02  0.5635E+03
   4.920  0.1377E+02  0.1509E+02  0.5638E+03
   4.930  0.1501E+02  0.1581E+02  0.5641E+03
   4.940  0.1538E+02  0.1584E+02  0.5644E+03
   4.950  0.1464E+02  0.1490E+02  0.5647E+03
   4.960  0.1472E+02  0.1444E+02  0.5650E+03
   4.970  0.1443E+02  0.1462E+02  0.5653E+03
   4.980  0.1409E+02  0.1453E+02  0.5656E+03
   4.990  0.1418E+02  0.1396E+02  0.5659E+03
   5.000  0.1525E+02  0.1323E+02  0.5662E+03
   5.010  0.1874E+02  0.1357E+02  0.5665E+03
   5.020  0.1895E+02  0.1416E+02  0.5668E+03
   5.030  0.1673E+02  0.1596E+02  0.5671E+03
   5.040  0.1448E+02  0.1855E+02  0.5675E+03
   5.050  0.1304E+02  0.1683E+02  0.5678E+03
   5.060  0.1192E+02  0.1369E+02  0.5681E+03
   5.070  0.1085E+02  0.1221E+02  0.5683E+03
   5.080  0.9955E+01  0.1090E+02  0.5685E+03
   5.090  0.9401E+01  0.9997E+01  0.5687E+03
   5.100  0.8861E+01  0.9327E+01  0.5689E+03
   5.110  0.8276E+01  0.8706E+01  0.5691E+03
   5.120  0.7700E+01  0.8059E+01  0.5693E+03
   5.130  0.7370E+01  0.7371E+01  0.5694E+03
   5.140  0.7674E+01  0.7040E+01  0.5696E+03
   5.150  0.8200E+01  0.7046E+01  0.5697E+03
   5.160  0.6800E+01  0.7179E+01  0.5699E+03
   5.170  0.8519E+01  0.7268E+01  0.5700E+03
   5.180  0.1008E+02  0.7769E+01  0.5702E+03
   5.190  0.1003E+02  0.8073E+01  0.5704E+03
   5.200  0.1010E+02  0.9726E+01  0.5706E+03
   5.210  0.1044E+02  0.1153E+02  0.5708E+03
   5.220  0.1088E+02  0.1195E+02  0.5710E+03
   5.230  0.1120E+02  0.1161E+02  0.5712E+03
   5.240  0.1160E+02  0.1191E+02  0.5714E+03
   5.250  0.1169E+02  0.1197E+02  0.5717E+03
   5.260  0.1178E+02  0.1220E+02  0.5719E+03
   5.270  0.1133E+02  0.1223E+02  0.5722E+03
   5.280  0.1030E+02  0.1151E+02  0.5724E+03
   5.290  0.9202E+01  0.1038E+02  0.5726E+03
   5.300  0.8335E+01  0.9305E+01  0.5728E+03
   5.310  0.7605E+01  0.8455E+01  0.5729E+03
   5.320  0.6758E+01  0.7657E+01  0.5731E+03
   5.330  0.6023E+01  0.6885E+01  0.5732E+03
   5.340  0.5807E+01  0.6133E+01  0.5734E+03
   5.350  0.5754E+01  0.5427E+01  0.5735E+03
   5.360  0.5271E+01  0.4768E+01  0.5736E+03
   5.370  0.4383E+01  0.4285E+01  0.5737E+03
   5.380  0.3282E+01  0.4244E+01  0.5738E+03
   5.390  0.2140E+01  0.4198E+01  0.5738E+03
   5.400  0.8567E+00  0.3900E+01  0.5739E+03
   5.410  0.2876E+00  0.3401E+01  0.5739E+03
   5.420  0.9061E-01  0.2704E+01  0.5740E+03
   5.430  0.8077E-02  0.1784E+01  0.5740E+03
   5.440  0.1235E-02  0.7401E+00  0.5740E+03
   5.450  0.3071E-03  0.3062E+00  0.5740E+03
   5.460  0.2476E-05  0.1265E+00  0.5740E+03
   5.470  0.0000E+00  0.2676E-01  0.5740E+03
   5.480  0.0000E+00  0.1670E-02  0.5740E+03
   5.490  0.0000E+00  0.5181E-03  0.5740E+03
   5.500  0.0000E+00  0.4882E-04  0.5740E+03
   5.510  0.0000E+00  0.0000E+00  0.5740E+03
   5.520  0.0000E+00  0.0000E+00  0.5740E+03
   5.530  0.0000E+00  0.0000E+00  0.5740E+03
   5.540  0.0000E+00  0.0000E+00  0.5740E+03
   5.550  0.0000E+00  0.0000E+00  0.5740E+03
   5.560  0.0000E+00  0.0000E+00  0.5740E+03
   5.570  0.0000E+00  0.0000E+00  0.5740E+03
   5.580  0.0000E+00  0.0000E+00  0.5740E+03
   5.590  0.0000E+00  0.0000E+00  0.5740E+03
   5.600  0.0000E+00  0.0000E+00  0.5740E+03
   5.610  0.0000E+00  0.0000E+00  0.5740E+03
   5.620  0.0000E+00  0.0000E+00  0.5740E+03
   5.630  0.0000E+00  0.0000E+00  0.5740E+03
   5.640  0.0000E+00  0.0000E+00  0.5740E+03
   5.650  0.0000E+00  0.0000E+00  0.5740E+03
   5.660  0.0000E+00  0.0000E+00  0.5740E+03
   5.670  0.0000E+00  0.0000E+00  0.5740E+03
   5.680  0.0000E+00  0.0000E+00  0.5740E+03
   5.690  0.0000E+00  0.0000E+00  0.5740E+03
   5.700  0.0000E+00  0.0000E+00  0.5740E+03
   5.710  0.0000E+00  0.0000E+00  0.5740E+03
   5.720  0.0000E+00  0.0000E+00  0.5740E+03
   5.730  0.0000E+00  0.0000E+00  0.5740E+03
   5.740  0.0000E+00  0.0000E+00  0.5740E+03
   5.750  0.0000E+00  0.0000E+00  0.5740E+03
   5.760  0.0000E+00  0.0000E+00  0.5740E+03
   5.770  0.0000E+00  0.0000E+00  0.5740E+03
   5.780  0.0000E+00  0.0000E+00  0.5740E+03
   5.790  0.0000E+00  0.0000E+00  0.5740E+03
   5.800  0.0000E+00  0.0000E+00  0.5740E+03
   5.810  0.0000E+00  0.0000E+00  0.5740E+03
   5.820  0.0000E+00  0.0000E+00  0.5740E+03
   5.830  0.0000E+00  0.0000E+00  0.5740E+03
   5.840  0.0000E+00  0.0000E+00  0.5740E+03
   5.850  0.0000E+00  0.0000E+00  0.5740E+03
   5.860  0.0000E+00  0.0000E+00  0.5740E+03
   5.870  0.0000E+00  0.0000E+00  0.5740E+03
   5.880  0.0000E+00  0.0000E+00  0.5740E+03
   5.890  0.0000E+00  0.0000E+00  0.5740E+03
   5.900  0.0000E+00  0.0000E+00  0.5740E+03
   5.910  0.0000E+00  0.0000E+00  0.5740E+03
   5.920  0.0000E+00  0.0000E+00  0.5740E+03
   5.930  0.0000E+00  0.0000E+00  0.5740E+03
   5.940  0.0000E+00  0.0000E+00  0.5740E+03
   5.950  0.0000E+00  0.0000E+00  0.5740E+03
   5.960  0.0000E+00  0.0000E+00  0.5740E+03
   5.970  0.0000E+00  0.0000E+00  0.5740E+03
   5.980  0.0000E+00  0.0000E+00  0.5740E+03
   5.990  0.0000E+00  0.0000E+00  0.5740E+03
   6.000  0.0000E+00  0.0000E+00  0.5740E+03
   6.010  0.0000E+00  0.0000E+00  0.5740E+03
   6.020  0.0000E+00  0.0000E+00  0.5740E+03
   6.030  0.0000E+00  0.0000E+00  0.5740E+03
   6.040  0.0000E+00  0.0000E+00  0.5740E+03
   6.050  0.0000E+00  0.0000E+00  0.5740E+03
   6.060  0.2190E+02  0.0000E+00  0.5741E+03
   6.070  0.8450E+02  0.0000E+00  0.5746E+03
   6.080  0.8289E+02  0.0000E+00  0.5754E+03
   6.090  0.1871E+02  0.0000E+00  0.5759E+03
   6.100  0.1064E+01  0.0000E+00  0.5760E+03
   6.110  0.0000E+00  0.0000E+00  0.5760E+03
   6.120  0.0000E+00  0.0000E+00  0.5760E+03
   6.130  0.0000E+00  0.0000E+00  0.5760E+03
   6.140  0.0000E+00  0.0000E+00  0.5760E+03
   6.150  0.0000E+00  0.0000E+00  0.5760E+03
   6.160  0.0000E+00  0.0000E+00  0.5760E+03
   6.170  0.0000E+00  0.0000E+00  0.5760E+03
   6.180  0.0000E+00  0.0000E+00  0.5760E+03
   6.190  0.0000E+00  0.0000E+00  0.5760E+03
   6.200  0.0000E+00  0.0000E+00  0.5760E+03
   6.210  0.0000E+00  0.0000E+00  0.5760E+03
   6.220  0.0000E+00  0.0000E+00  0.5760E+03
   6.230  0.0000E+00  0.0000E+00  0.5760E+03
   6.240  0.0000E+00  0.0000E+00  0.5760E+03
   6.250  0.0000E+00  0.0000E+00  0.5760E+03
   6.260  0.0000E+00  0.0000E+00  0.5760E+03
   6.270  0.0000E+00  0.0000E+00  0.5760E+03
   6.280  0.0000E+00  0.0000E+00  0.5760E+03
   6.290  0.0000E+00  0.0000E+00  0.5760E+03
   6.300  0.0000E+00  0.0000E+00  0.5760E+03
   6.310  0.0000E+00  0.0000E+00  0.5760E+03
   6.320  0.0000E+00  0.0000E+00  0.5760E+03
   6.330  0.0000E+00  0.0000E+00  0.5760E+03
   6.340  0.0000E+00  0.0000E+00  0.5760E+03
   6.350  0.0000E+00  0.0000E+00  0.5760E+03
   6.360  0.0000E+00  0.0000E+00  0.5760E+03
   6.370  0.0000E+00  0.0000E+00  0.5760E+03
   6.380  0.1808E-01  0.0000E+00  0.5760E+03
   6.390  0.7715E+00  0.0000E+00  0.5760E+03
   6.400  0.3151E+01  0.0000E+00  0.5760E+03
   6.410  0.1070E+02  0.0000E+00  0.5761E+03
   6.420  0.2173E+02  0.0000E+00  0.5762E+03
   6.430  0.3019E+02  0.0000E+00  0.5765E+03
   6.440  0.1435E+02  0.0000E+00  0.5767E+03
   6.450  0.1297E+02  0.4527E+01  0.5769E+03
   6.460  0.1957E+02  0.1059E+03  0.5775E+03
   6.470  0.2614E+02  0.9009E+02  0.5788E+03
   6.480  0.3273E+02  0.1300E+02  0.5795E+03
   6.490  0.5185E+02  0.0000E+00  0.5800E+03
   6.500  0.7765E+02  0.0000E+00  0.5805E+03
   6.510  0.1098E+02  0.0000E+00  0.5809E+03
   6.520  0.1315E+01  0.0000E+00  0.5810E+03
   6.530  0.9971E-02  0.0000E+00  0.5810E+03
   6.540  0.0000E+00  0.0000E+00  0.5810E+03
   6.550  0.0000E+00  0.0000E+00  0.5810E+03
   6.560  0.0000E+00  0.0000E+00  0.5810E+03
   6.570  0.0000E+00  0.0000E+00  0.5810E+03
   6.580  0.0000E+00  0.0000E+00  0.5810E+03
   6.590  0.0000E+00  0.0000E+00  0.5810E+03
   6.600  0.0000E+00  0.0000E+00  0.5810E+03
   6.610  0.0000E+00  0.0000E+00  0.5810E+03
   6.620  0.0000E+00  0.0000E+00  0.5810E+03
   6.630  0.0000E+00  0.0000E+00  0.5810E+03
   6.640  0.0000E+00  0.0000E+00  0.5810E+03
   6.650  0.0000E+00  0.0000E+00  0.5810E+03
   6.660  0.0000E+00  0.0000E+00  0.5810E+03
   6.670  0.0000E+00  0.0000E+00  0.5810E+03
   6.680  0.0000E+00  0.0000E+00  0.5810E+03
   6.690  0.0000E+00  0.0000E+00  0.5810E+03
   6.700  0.0000E+00  0.0000E+00  0.5810E+03
   6.710  0.0000E+00  0.0000E+00  0.5810E+03
   6.720  0.0000E+00  0.0000E+00  0.5810E+03
   6.730  0.0000E+00  0.0000E+00  0.5810E+03
   6.740  0.0000E+00  0.0000E+00  0.5810E+03
   6.750  0.0000E+00  0.0000E+00  0.5810E+03
   6.760  0.0000E+00  0.0000E+00  0.5810E+03
   6.770  0.0000E+00  0.0000E+00  0.5810E+03
   6.780  0.0000E+00  0.0000E+00  0.5810E+03
   6.790  0.0000E+00  0.0000E+00  0.5810E+03
   6.800  0.0000E+00  0.0000E+00  0.5810E+03
   6.810  0.0000E+00  0.0000E+00  0.5810E+03
   6.820  0.0000E+00  0.0000E+00  0.5810E+03
   6.830  0.0000E+00  0.0000E+00  0.5810E+03
   6.840  0.0000E+00  0.0000E+00  0.5810E+03
   6.850  0.0000E+00  0.0000E+00  0.5810E+03
   6.860  0.0000E+00  0.0000E+00  0.5810E+03
   6.870  0.0000E+00  0.0000E+00  0.5810E+03
   6.880  0.0000E+00  0.0000E+00  0.5810E+03
   6.890  0.0000E+00  0.0000E+00  0.5810E+03
   6.900  0.0000E+00  0.0000E+00  0.5810E+03
   6.910  0.0000E+00  0.0000E+00  0.5810E+03
   6.920  0.0000E+00  0.0000E+00  0.5810E+03
   6.930  0.0000E+00  0.0000E+00  0.5810E+03
   6.940  0.0000E+00  0.0000E+00  0.5810E+03
   6.950  0.0000E+00  0.0000E+00  0.5810E+03
   6.960  0.0000E+00  0.0000E+00  0.5810E+03
   6.970  0.0000E+00  0.0000E+00  0.5810E+03
   6.980  0.0000E+00  0.0000E+00  0.5810E+03
   6.990  0.0000E+00  0.0000E+00  0.5810E+03
   7.000  0.0000E+00  0.0000E+00  0.5810E+03
   7.010  0.0000E+00  0.0000E+00  0.5810E+03
   7.020  0.0000E+00  0.0000E+00  0.5810E+03
   7.030  0.0000E+00  0.0000E+00  0.5810E+03
   7.040  0.0000E+00  0.0000E+00  0.5810E+03
   7.050  0.0000E+00  0.0000E+00  0.5810E+03
   7.060  0.0000E+00  0.0000E+00  0.5810E+03
   7.070  0.0000E+00  0.0000E+00  0.5810E+03
   7.080  0.0000E+00  0.0000E+00  0.5810E+03
   7.090  0.0000E+00  0.0000E+00  0.5810E+03
   7.100  0.0000E+00  0.0000E+00  0.5810E+03
   7.110  0.0000E+00  0.0000E+00  0.5810E+03
   7.120  0.0000E+00  0.0000E+00  0.5810E+03
   7.130  0.0000E+00  0.1606E-02  0.5810E+03
   7.140  0.0000E+00  0.7821E+00  0.5810E+03
   7.150  0.0000E+00  0.4222E+01  0.5810E+03
   7.160  0.0000E+00  0.1636E+02  0.5811E+03
   7.170  0.0000E+00  0.3124E+02  0.5814E+03
   7.180  0.0000E+00  0.2164E+02  0.5817E+03
   7.190  0.0000E+00  0.1067E+02  0.5818E+03
   7.200  0.0000E+00  0.2856E+02  0.5820E+03
   7.210  0.0000E+00  0.3586E+02  0.5823E+03
   7.220  0.0000E+00  0.5857E+02  0.5828E+03
   7.230  0.0000E+00  0.6253E+02  0.5834E+03
   7.240  0.0000E+00  0.1242E+02  0.5840E+03
   7.250  0.0000E+00  0.4531E+00  0.5840E+03
   7.260  0.0000E+00  0.0000E+00  0.5840E+03
   7.270  0.0000E+00  0.0000E+00  0.5840E+03
   7.280  0.0000E+00  0.0000E+00  0.5840E+03
   7.290  0.0000E+00  0.0000E+00  0.5840E+03
   7.300  0.0000E+00  0.0000E+00  0.5840E+03
   7.310  0.0000E+00  0.0000E+00  0.5840E+03
   7.320  0.0000E+00  0.0000E+00  0.5840E+03
   7.330  0.0000E+00  0.0000E+00  0.5840E+03
   7.340  0.0000E+00  0.0000E+00  0.5840E+03
   7.350  0.0000E+00  0.0000E+00  0.5840E+03
   7.360  0.0000E+00  0.0000E+00  0.5840E+03
   7.370  0.0000E+00  0.0000E+00  0.5840E+03
   7.380  0.0000E+00  0.0000E+00  0.5840E+03
   7.390  0.0000E+00  0.0000E+00  0.5840E+03
   7.400  0.0000E+00  0.0000E+00  0.5840E+03
   7.410  0.0000E+00  0.0000E+00  0.5840E+03
   7.420  0.0000E+00  0.0000E+00  0.5840E+03
   7.430  0.0000E+00  0.0000E+00  0.5840E+03
   7.440  0.0000E+00  0.0000E+00  0.5840E+03
   7.450  0.2615E-04  0.1531E-04  0.5840E+03
   7.460  0.1146E-03  0.8772E-04  0.5840E+03
   7.470  0.2655E-03  0.2196E-03  0.5840E+03
   7.480  0.5658E-03  0.4689E-03  0.5840E+03
   7.490  0.1105E-02  0.9375E-03  0.5840E+03
   7.500  0.1882E-02  0.1627E-02  0.5840E+03
   7.510  0.2897E-02  0.2538E-02  0.5840E+03
   7.520  0.4151E-02  0.3670E-02  0.5840E+03
   7.530  0.5643E-02  0.5022E-02  0.5840E+03
   7.540  0.7373E-02  0.6596E-02  0.5840E+03
   7.550  0.9342E-02  0.8391E-02  0.5840E+03
   7.560  0.1155E-01  0.1041E-01  0.5840E+03
   7.570  0.1399E-01  0.1264E-01  0.5840E+03
   7.580  0.1668E-01  0.1510E-01  0.5840E+03
   7.590  0.1960E-01  0.1778E-01  0.5840E+03
   7.600  0.2276E-01  0.2068E-01  0.5840E+03
   7.610  0.2616E-01  0.2380E-01  0.5840E+03
   7.620  0.2980E-01  0.2715E-01  0.5840E+03
   7.630  0.3367E-01  0.3071E-01  0.5840E+03
   7.640  0.3779E-01  0.3449E-01  0.5840E+03
   7.650  0.4214E-01  0.3850E-01  0.5840E+03
   7.660  0.4673E-01  0.4273E-01  0.5840E+03
   7.670  0.5156E-01  0.4717E-01  0.5840E+03
   7.680  0.5662E-01  0.5184E-01  0.5840E+03
   7.690  0.6193E-01  0.5673E-01  0.5840E+03
   7.700  0.6747E-01  0.6184E-01  0.5840E+03
   7.710  0.7326E-01  0.6717E-01  0.5840E+03
   7.720  0.7928E-01  0.7273E-01  0.5840E+03
   7.730  0.8553E-01  0.7850E-01  0.5840E+03
   7.740  0.9203E-01  0.8450E-01  0.5840E+03
   7.750  0.9877E-01  0.9071E-01  0.5840E+03
   7.760  0.1057E+00  0.9715E-01  0.5840E+03
   7.770  0.1130E+00  0.1038E+00  0.5840E+03
   7.780  0.1204E+00  0.1107E+00  0.5840E+03
   7.790  0.1281E+00  0.1178E+00  0.5840E+03
   7.800  0.1360E+00  0.1251E+00  0.5840E+03
   7.810  0.1442E+00  0.1327E+00  0.5840E+03
   7.820  0.1526E+00  0.1404E+00  0.5840E+03
   7.830  0.1612E+00  0.1484E+00  0.5840E+03
   7.840  0.1701E+00  0.1566E+00  0.5840E+03
   7.850  0.1792E+00  0.1650E+00  0.5840E+03
   7.860  0.1876E+00  0.1737E+00  0.5840E+03
   7.870  0.1963E+00  0.1824E+00  0.5841E+03
   7.880  0.2063E+00  0.1902E+00  0.5841E+03
   7.890  0.2177E+00  0.1992E+00  0.5841E+03
   7.900  0.2314E+00  0.2099E+00  0.5841E+03
   7.910  0.2460E+00  0.2223E+00  0.5841E+03
   7.920  0.2596E+00  0.2376E+00  0.5841E+03
   7.930  0.2726E+00  0.2522E+00  0.5841E+03
   7.940  0.2849E+00  0.2660E+00  0.5841E+03
   7.950  0.2966E+00  0.2791E+00  0.5841E+03
   7.960  0.3080E+00  0.2916E+00  0.5841E+03
   7.970  0.3190E+00  0.3035E+00  0.5841E+03
   7.980  0.3297E+00  0.3151E+00  0.5841E+03
   7.990  0.3401E+00  0.3263E+00  0.5841E+03
   8.000  0.3504E+00  0.3372E+00  0.5841E+03
   8.010  0.3605E+00  0.3479E+00  0.5841E+03
   8.020  0.3704E+00  0.3584E+00  0.5841E+03
   8.030  0.3801E+00  0.3686E+00  0.5841E+03
   8.040  0.3896E+00  0.3787E+00  0.5842E+03
   8.050  0.3989E+00  0.3886E+00  0.5842E+03
   8.060  0.4081E+00  0.3982E+00  0.5842E+03
   8.070  0.4171E+00  0.4077E+00  0.5842E+03
   8.080  0.4259E+00  0.4170E+00  0.5842E+03
   8.090  0.4345E+00  0.4260E+00  0.5842E+03
   8.100  0.4429E+00  0.4349E+00  0.5842E+03
   8.110  0.4512E+00  0.4436E+00  0.5842E+03
   8.120  0.4593E+00  0.4520E+00  0.5842E+03
   8.130  0.4671E+00  0.4603E+00  0.5842E+03
   8.140  0.4745E+00  0.4684E+00  0.5842E+03
   8.150  0.4793E+00  0.4761E+00  0.5842E+03
   8.160  0.4817E+00  0.4815E+00  0.5843E+03
   8.170  0.4816E+00  0.4842E+00  0.5843E+03
   8.180  0.4816E+00  0.4843E+00  0.5843E+03
   8.190  0.4833E+00  0.4837E+00  0.5843E+03
   8.200  0.4859E+00  0.4852E+00  0.5843E+03
   8.210  0.4897E+00  0.4874E+00  0.5843E+03
   8.220  0.4931E+00  0.4911E+00  0.5843E+03
   8.230  0.4964E+00  0.4946E+00  0.5843E+03
   8.240  0.4997E+00  0.4979E+00  0.5843E+03
   8.250  0.5033E+00  0.5011E+00  0.5843E+03
   8.260  0.5074E+00  0.5046E+00  0.5844E+03
   8.270  0.5121E+00  0.5087E+00  0.5844E+03
   8.280  0.5177E+00  0.5133E+00  0.5844E+03
   8.290  0.5242E+00  0.5188E+00  0.5844E+03
   8.300  0.5317E+00  0.5252E+00  0.5844E+03
   8.310  0.5401E+00  0.5327E+00  0.5844E+03
   8.320  0.5496E+00  0.5411E+00  0.5844E+03
   8.330  0.5609E+00  0.5507E+00  0.5844E+03
   8.340  0.5739E+00  0.5621E+00  0.5844E+03
   8.350  0.5877E+00  0.5752E+00  0.5844E+03
   8.360  0.6020E+00  0.5892E+00  0.5845E+03
   8.370  0.6165E+00  0.6036E+00  0.5845E+03
   8.380  0.6310E+00  0.6181E+00  0.5845E+03
   8.390  0.6459E+00  0.6328E+00  0.5845E+03
   8.400  0.6607E+00  0.6478E+00  0.5845E+03
   8.410  0.6755E+00  0.6627E+00  0.5845E+03
   8.420  0.6905E+00  0.6776E+00  0.5845E+03
   8.430  0.7058E+00  0.6928E+00  0.5846E+03
   8.440  0.7213E+00  0.7082E+00  0.5846E+03
   8.450  0.7373E+00  0.7240E+00  0.5846E+03
   8.460  0.7536E+00  0.7401E+00  0.5846E+03
   8.470  0.7703E+00  0.7565E+00  0.5846E+03
   8.480  0.7874E+00  0.7734E+00  0.5846E+03
   8.490  0.8049E+00  0.7907E+00  0.5846E+03
   8.500  0.8231E+00  0.8085E+00  0.5847E+03
   8.510  0.8419E+00  0.8269E+00  0.5847E+03
   8.520  0.8612E+00  0.8458E+00  0.5847E+03
   8.530  0.8812E+00  0.8654E+00  0.5847E+03
   8.540  0.9017E+00  0.8856E+00  0.5847E+03
   8.550  0.9228E+00  0.9063E+00  0.5847E+03
   8.560  0.9445E+00  0.9277E+00  0.5848E+03
   8.570  0.9668E+00  0.9496E+00  0.5848E+03
   8.580  0.9896E+00  0.9722E+00  0.5848E+03
   8.590  0.1013E+01  0.9953E+00  0.5848E+03
   8.600  0.1037E+01  0.1019E+01  0.5848E+03
   8.610  0.1062E+01  0.1043E+01  0.5849E+03
   8.620  0.1087E+01  0.1068E+01  0.5849E+03
   8.630  0.1113E+01  0.1094E+01  0.5849E+03
   8.640  0.1139E+01  0.1120E+01  0.5849E+03
   8.650  0.1166E+01  0.1147E+01  0.5850E+03
   8.660  0.1194E+01  0.1174E+01  0.5850E+03
   8.670  0.1222E+01  0.1202E+01  0.5850E+03
   8.680  0.1251E+01  0.1230E+01  0.5850E+03
   8.690  0.1280E+01  0.1259E+01  0.5850E+03
   8.700  0.1310E+01  0.1289E+01  0.5851E+03
   8.710  0.1340E+01  0.1319E+01  0.5851E+03
   8.720  0.1370E+01  0.1350E+01  0.5851E+03
   8.730  0.1396E+01  0.1381E+01  0.5852E+03
   8.740  0.1416E+01  0.1411E+01  0.5852E+03
   8.750  0.1432E+01  0.1434E+01  0.5852E+03
   8.760  0.1465E+01  0.1467E+01  0.5852E+03
   8.770  0.1520E+01  0.1520E+01  0.5853E+03
   8.780  0.1594E+01  0.1598E+01  0.5853E+03
   8.790  0.1685E+01  0.1698E+01  0.5853E+03
   8.800  0.1794E+01  0.1813E+01  0.5854E+03
   8.810  0.1918E+01  0.1941E+01  0.5854E+03
   8.820  0.2077E+01  0.2081E+01  0.5854E+03
   8.830  0.2284E+01  0.2255E+01  0.5855E+03
   8.840  0.2546E+01  0.2480E+01  0.5855E+03
   8.850  0.2930E+01  0.2753E+01  0.5856E+03
   8.860  0.3741E+01  0.3336E+01  0.5857E+03
   8.870  0.8283E+01  0.6074E+01  0.5857E+03
   8.880  0.6223E+01  0.6697E+01  0.5859E+03
   8.890  0.6657E+01  0.6438E+01  0.5860E+03
   8.900  0.7182E+01  0.7058E+01  0.5862E+03
   8.910  0.7570E+01  0.7547E+01  0.5863E+03
   8.920  0.7748E+01  0.7778E+01  0.5865E+03
   8.930  0.7809E+01  0.7873E+01  0.5866E+03
   8.940  0.7835E+01  0.7908E+01  0.5868E+03
   8.950  0.7834E+01  0.7917E+01  0.5869E+03
   8.960  0.7789E+01  0.7885E+01  0.5871E+03
   8.970  0.7702E+01  0.7806E+01  0.5872E+03
   8.980  0.7642E+01  0.7699E+01  0.5874E+03
   8.990  0.7666E+01  0.7672E+01  0.5876E+03
   9.000  0.7546E+01  0.7602E+01  0.5877E+03
   9.010  0.7251E+01  0.7307E+01  0.5879E+03
   9.020  0.6889E+01  0.6931E+01  0.5880E+03
   9.030  0.6599E+01  0.6578E+01  0.5881E+03
   9.040  0.6959E+01  0.6801E+01  0.5883E+03
   9.050  0.6704E+01  0.6624E+01  0.5884E+03
   9.060  0.5770E+01  0.6025E+01  0.5885E+03
   9.070  0.5531E+01  0.5386E+01  0.5886E+03
   9.080  0.5865E+01  0.5728E+01  0.5888E+03
   9.090  0.6133E+01  0.6009E+01  0.5889E+03
   9.100  0.6347E+01  0.6231E+01  0.5890E+03
   9.110  0.6537E+01  0.6413E+01  0.5891E+03
   9.120  0.6718E+01  0.6592E+01  0.5893E+03
   9.130  0.6890E+01  0.6766E+01  0.5894E+03
   9.140  0.7155E+01  0.6989E+01  0.5895E+03
   9.150  0.7443E+01  0.7281E+01  0.5897E+03
   9.160  0.7735E+01  0.7569E+01  0.5898E+03
   9.170  0.8042E+01  0.7865E+01  0.5900E+03
   9.180  0.8363E+01  0.8176E+01  0.5901E+03
   9.190  0.8698E+01  0.8502E+01  0.5903E+03
   9.200  0.9042E+01  0.8839E+01  0.5905E+03
   9.210  0.9392E+01  0.9184E+01  0.5907E+03
   9.220  0.9761E+01  0.9524E+01  0.5909E+03
   9.230  0.1015E+02  0.9886E+01  0.5911E+03
   9.240  0.1053E+02  0.1027E+02  0.5913E+03
   9.250  0.1090E+02  0.1066E+02  0.5915E+03
   9.260  0.1127E+02  0.1104E+02  0.5917E+03
   9.270  0.1165E+02  0.1140E+02  0.5919E+03
   9.280  0.1203E+02  0.1177E+02  0.5921E+03
   9.290  0.1242E+02  0.1215E+02  0.5924E+03
   9.300  0.1282E+02  0.1254E+02  0.5926E+03
   9.310  0.1317E+02  0.1293E+02  0.5929E+03
   9.320  0.1358E+02  0.1330E+02  0.5932E+03
   9.330  0.1409E+02  0.1370E+02  0.5934E+03
   9.340  0.1486E+02  0.1433E+02  0.5937E+03
   9.350  0.1574E+02  0.1519E+02  0.5940E+03
   9.360  0.1633E+02  0.1603E+02  0.5943E+03
   9.370  0.1664E+02  0.1658E+02  0.5947E+03
   9.380  0.1668E+02  0.1687E+02  0.5950E+03
   9.390  0.1641E+02  0.1682E+02  0.5953E+03
   9.400  0.1625E+02  0.1659E+02  0.5957E+03
   9.410  0.1633E+02  0.1658E+02  0.5960E+03
   9.420  0.1664E+02  0.1684E+02  0.5963E+03
   9.430  0.1714E+02  0.1734E+02  0.5967E+03
   9.440  0.1764E+02  0.1797E+02  0.5970E+03
   9.450  0.1642E+02  0.1702E+02  0.5974E+03
   9.460  0.1805E+02  0.1799E+02  0.5977E+03
   9.470  0.1634E+02  0.1681E+02  0.5981E+03
   9.480  0.1598E+02  0.1659E+02  0.5984E+03
   9.490  0.1637E+02  0.1543E+02  0.5987E+03
   9.500  0.1672E+02  0.1625E+02  0.5990E+03
   9.510  0.1633E+02  0.1607E+02  0.5994E+03
   9.520  0.1586E+02  0.1598E+02  0.5997E+03
   9.530  0.1582E+02  0.1522E+02  0.6000E+03
   9.540  0.1654E+02  0.1616E+02  0.6003E+03
   9.550  0.1747E+02  0.1731E+02  0.6007E+03
   9.560  0.1705E+02  0.1751E+02  0.6010E+03
   9.570  0.1622E+02  0.1694E+02  0.6013E+03
   9.580  0.1571E+02  0.1626E+02  0.6017E+03
   9.590  0.1552E+02  0.1575E+02  0.6020E+03
   9.600  0.1535E+02  0.1541E+02  0.6023E+03
   9.610  0.1505E+02  0.1514E+02  0.6026E+03
   9.620  0.1500E+02  0.1500E+02  0.6029E+03
   9.630  0.1539E+02  0.1498E+02  0.6032E+03
   9.640  0.1548E+02  0.1510E+02  0.6035E+03
   9.650  0.1424E+02  0.1506E+02  0.6038E+03
   9.660  0.1259E+02  0.1283E+02  0.6041E+03
   9.670  0.1285E+02  0.1264E+02  0.6043E+03
   9.680  0.1382E+02  0.1350E+02  0.6046E+03
   9.690  0.1503E+02  0.1455E+02  0.6049E+03
   9.700  0.1618E+02  0.1585E+02  0.6052E+03
   9.710  0.1718E+02  0.1699E+02  0.6055E+03
   9.720  0.1869E+02  0.1813E+02  0.6059E+03
   9.730  0.2021E+02  0.1961E+02  0.6063E+03
   9.740  0.2146E+02  0.2093E+02  0.6067E+03
   9.750  0.2092E+02  0.2116E+02  0.6071E+03
   9.760  0.1988E+02  0.2041E+02  0.6075E+03
   9.770  0.1915E+02  0.1944E+02  0.6079E+03
   9.780  0.1887E+02  0.1894E+02  0.6083E+03
   9.790  0.1876E+02  0.1877E+02  0.6087E+03
   9.800  0.1883E+02  0.1883E+02  0.6090E+03
   9.810  0.2018E+02  0.1984E+02  0.6094E+03
   9.820  0.2230E+02  0.2193E+02  0.6098E+03
   9.830  0.2864E+02  0.2700E+02  0.6103E+03
   9.840  0.3857E+02  0.3406E+02  0.6110E+03
   9.850  0.4264E+02  0.4141E+02  0.6118E+03
   9.860  0.3858E+02  0.4157E+02  0.6126E+03
   9.870  0.3781E+02  0.3548E+02  0.6134E+03
   9.880  0.4431E+02  0.4570E+02  0.6141E+03
   9.890  0.3624E+02  0.3533E+02  0.6150E+03
   9.900  0.3746E+02  0.3632E+02  0.6157E+03
   9.910  0.3846E+02  0.3599E+02  0.6164E+03
   9.920  0.2946E+02  0.3850E+02  0.6172E+03
   9.930  0.3168E+02  0.2845E+02  0.6178E+03
   9.940  0.3419E+02  0.3220E+02  0.6184E+03
   9.950  0.2986E+02  0.3388E+02  0.6191E+03
   9.960  0.2804E+02  0.2911E+02  0.6197E+03
   9.970  0.2775E+02  0.2780E+02  0.6202E+03
   9.980  0.2795E+02  0.2754E+02  0.6208E+03
   9.990  0.2913E+02  0.2809E+02  0.6214E+03
  10.000  0.3084E+02  0.2958E+02  0.6219E+03
  10.010  0.3243E+02  0.3150E+02  0.6226E+03
  10.020  0.3347E+02  0.3300E+02  0.6232E+03
  10.030  0.3388E+02  0.3383E+02  0.6239E+03
  10.040  0.3359E+02  0.3388E+02  0.6246E+03
  10.050  0.3309E+02  0.3335E+02  0.6252E+03
  10.060  0.3372E+02  0.3385E+02  0.6259E+03
  10.070  0.3448E+02  0.3421E+02  0.6266E+03
  10.080  0.3650E+02  0.3580E+02  0.6273E+03
  10.090  0.3662E+02  0.3570E+02  0.6280E+03
  10.100  0.3387E+02  0.3526E+02  0.6287E+03
  10.110  0.3153E+02  0.3175E+02  0.6294E+03
  10.120  0.2903E+02  0.2978E+02  0.6300E+03
  10.130  0.2826E+02  0.2881E+02  0.6306E+03
  10.140  0.2727E+02  0.2786E+02  0.6311E+03
  10.150  0.2606E+02  0.2662E+02  0.6317E+03
  10.160  0.2483E+02  0.2533E+02  0.6322E+03
  10.170  0.2341E+02  0.2398E+02  0.6327E+03
  10.180  0.2116E+02  0.2177E+02  0.6331E+03
  10.190  0.2056E+02  0.2066E+02  0.6336E+03
  10.200  0.2046E+02  0.2054E+02  0.6340E+03
  10.210  0.2041E+02  0.2071E+02  0.6344E+03
  10.220  0.2031E+02  0.2054E+02  0.6348E+03
  10.230  0.2004E+02  0.2036E+02  0.6352E+03
  10.240  0.1979E+02  0.2015E+02  0.6356E+03
  10.250  0.1960E+02  0.1996E+02  0.6360E+03
  10.260  0.1948E+02  0.1986E+02  0.6364E+03
  10.270  0.1935E+02  0.1985E+02  0.6368E+03
  10.280  0.1938E+02  0.1984E+02  0.6372E+03
  10.290  0.2001E+02  0.2016E+02  0.6376E+03
  10.300  0.2258E+02  0.2229E+02  0.6380E+03
  10.310  0.2962E+02  0.2838E+02  0.6385E+03
  10.320  0.3576E+02  0.3415E+02  0.6391E+03
  10.330  0.3744E+02  0.3643E+02  0.6399E+03
  10.340  0.3494E+02  0.3500E+02  0.6406E+03
  10.350  0.2561E+02  0.2836E+02  0.6412E+03
  10.360  0.2259E+02  0.2309E+02  0.6417E+03
  10.370  0.2095E+02  0.2054E+02  0.6422E+03
  10.380  0.2174E+02  0.1982E+02  0.6426E+03
  10.390  0.2297E+02  0.2003E+02  0.6430E+03
  10.400  0.2062E+02  0.2148E+02  0.6434E+03
  10.410  0.1802E+02  0.2050E+02  0.6438E+03
  10.420  0.1716E+02  0.1835E+02  0.6442E+03
  10.430  0.1674E+02  0.1769E+02  0.6445E+03
  10.440  0.1667E+02  0.1732E+02  0.6449E+03
  10.450  0.1650E+02  0.1687E+02  0.6452E+03
  10.460  0.1675E+02  0.1690E+02  0.6455E+03
  10.470  0.1659E+02  0.1685E+02  0.6459E+03
  10.480  0.1619E+02  0.1645E+02  0.6462E+03
  10.490  0.1588E+02  0.1621E+02  0.6465E+03
  10.500  0.1521E+02  0.1574E+02  0.6469E+03
  10.510  0.1454E+02  0.1496E+02  0.6472E+03
  10.520  0.1404E+02  0.1430E+02  0.6474E+03
  10.530  0.1374E+02  0.1387E+02  0.6477E+03
  10.540  0.1296E+02  0.1315E+02  0.6480E+03
  10.550  0.1290E+02  0.1278E+02  0.6483E+03
  10.560  0.1293E+02  0.1272E+02  0.6485E+03
  10.570  0.1314E+02  0.1281E+02  0.6488E+03
  10.580  0.1349E+02  0.1310E+02  0.6490E+03
  10.590  0.1375E+02  0.1335E+02  0.6493E+03
  10.600  0.1402E+02  0.1359E+02  0.6496E+03
  10.610  0.1431E+02  0.1385E+02  0.6499E+03
  10.620  0.1461E+02  0.1412E+02  0.6501E+03
  10.630  0.1486E+02  0.1438E+02  0.6504E+03
  10.640  0.1549E+02  0.1475E+02  0.6507E+03
  10.650  0.1653E+02  0.1566E+02  0.6510E+03
  10.660  0.2004E+02  0.1728E+02  0.6514E+03
  10.670  0.2245E+02  0.2134E+02  0.6518E+03
  10.680  0.2166E+02  0.2162E+02  0.6522E+03
  10.690  0.1848E+02  0.1918E+02  0.6526E+03
  10.700  0.1605E+02  0.1597E+02  0.6530E+03
  10.710  0.1695E+02  0.1517E+02  0.6533E+03
  10.720  0.1819E+02  0.1730E+02  0.6536E+03
  10.730  0.1880E+02  0.1884E+02  0.6540E+03
  10.740  0.1850E+02  0.1930E+02  0.6544E+03
  10.750  0.1792E+02  0.1868E+02  0.6547E+03
  10.760  0.1802E+02  0.1781E+02  0.6551E+03
  10.770  0.1804E+02  0.1857E+02  0.6555E+03
  10.780  0.1662E+02  0.1789E+02  0.6558E+03
  10.790  0.1608E+02  0.1699E+02  0.6562E+03
  10.800  0.1348E+02  0.1541E+02  0.6565E+03
  10.810  0.1063E+02  0.1249E+02  0.6567E+03
  10.820  0.9564E+01  0.1075E+02  0.6570E+03
  10.830  0.8123E+01  0.9538E+01  0.6571E+03
  10.840  0.7068E+01  0.8310E+01  0.6573E+03
  10.850  0.6782E+01  0.7224E+01  0.6575E+03
  10.860  0.9930E+01  0.7744E+01  0.6576E+03
  10.870  0.1126E+02  0.1122E+02  0.6578E+03
  10.880  0.1165E+02  0.1133E+02  0.6580E+03
  10.890  0.1241E+02  0.1180E+02  0.6583E+03
  10.900  0.1352E+02  0.1267E+02  0.6585E+03
  10.910  0.1436E+02  0.1374E+02  0.6588E+03
  10.920  0.1395E+02  0.1378E+02  0.6591E+03
  10.930  0.1352E+02  0.1337E+02  0.6594E+03
  10.940  0.1382E+02  0.1318E+02  0.6596E+03
  10.950  0.1532E+02  0.1413E+02  0.6599E+03
  10.960  0.1023E+02  0.1448E+02  0.6602E+03
  10.970  0.1093E+02  0.1180E+02  0.6604E+03
  10.980  0.1242E+02  0.1180E+02  0.6606E+03
  10.990  0.1368E+02  0.1298E+02  0.6609E+03
  11.000  0.1546E+02  0.1491E+02  0.6612E+03
  11.010  0.1639E+02  0.1586E+02  0.6615E+03
  11.020  0.1719E+02  0.1650E+02  0.6618E+03
  11.030  0.2054E+02  0.1878E+02  0.6622E+03
  11.040  0.1831E+02  0.1914E+02  0.6626E+03
  11.050  0.1811E+02  0.1777E+02  0.6630E+03
  11.060  0.1785E+02  0.1743E+02  0.6633E+03
  11.070  0.1701E+02  0.1694E+02  0.6637E+03
  11.080  0.1455E+02  0.1587E+02  0.6640E+03
  11.090  0.1381E+02  0.1357E+02  0.6643E+03
  11.100  0.1303E+02  0.1306E+02  0.6645E+03
  11.110  0.1204E+02  0.1234E+02  0.6648E+03
  11.120  0.1105E+02  0.1148E+02  0.6650E+03
  11.130  0.9891E+01  0.1073E+02  0.6652E+03
  11.140  0.8779E+01  0.9970E+01  0.6654E+03
  11.150  0.7979E+01  0.8783E+01  0.6656E+03
  11.160  0.7475E+01  0.7957E+01  0.6658E+03
  11.170  0.7237E+01  0.7455E+01  0.6659E+03
  11.180  0.7112E+01  0.7231E+01  0.6661E+03
  11.190  0.7082E+01  0.7125E+01  0.6662E+03
  11.200  0.7124E+01  0.7099E+01  0.6663E+03
  11.210  0.6992E+01  0.7142E+01  0.6665E+03
  11.220  0.6828E+01  0.7003E+01  0.6666E+03
  11.230  0.6883E+01  0.6902E+01  0.6668E+03
  11.240  0.7121E+01  0.6946E+01  0.6669E+03
  11.250  0.7456E+01  0.7214E+01  0.6671E+03
  11.260  0.7644E+01  0.7500E+01  0.6672E+03
  11.270  0.7718E+01  0.7761E+01  0.6674E+03
  11.280  0.7709E+01  0.7841E+01  0.6675E+03
  11.290  0.9944E+01  0.8561E+01  0.6677E+03
  11.300  0.1254E+02  0.1023E+02  0.6679E+03
  11.310  0.1337E+02  0.1268E+02  0.6681E+03
  11.320  0.1422E+02  0.1386E+02  0.6684E+03
  11.330  0.1510E+02  0.1510E+02  0.6687E+03
  11.340  0.1592E+02  0.1632E+02  0.6690E+03
  11.350  0.1696E+02  0.1749E+02  0.6693E+03
  11.360  0.1856E+02  0.1870E+02  0.6697E+03
  11.370  0.2055E+02  0.2040E+02  0.6701E+03
  11.380  0.2268E+02  0.2258E+02  0.6705E+03
  11.390  0.2460E+02  0.2441E+02  0.6710E+03
  11.400  0.2639E+02  0.2612E+02  0.6715E+03
  11.410  0.2757E+02  0.2748E+02  0.6720E+03
  11.420  0.2850E+02  0.2828E+02  0.6726E+03
  11.430  0.2905E+02  0.2895E+02  0.6732E+03
  11.440  0.2966E+02  0.2948E+02  0.6738E+03
  11.450  0.2929E+02  0.2936E+02  0.6743E+03
  11.460  0.2735E+02  0.2782E+02  0.6749E+03
  11.470  0.2560E+02  0.2608E+02  0.6754E+03
  11.480  0.2473E+02  0.2504E+02  0.6760E+03
  11.490  0.2380E+02  0.2427E+02  0.6764E+03
  11.500  0.2289E+02  0.2327E+02  0.6769E+03
  11.510  0.2221E+02  0.2227E+02  0.6774E+03
  11.520  0.2186E+02  0.2188E+02  0.6778E+03
  11.530  0.2281E+02  0.2246E+02  0.6782E+03
  11.540  0.2152E+02  0.2215E+02  0.6787E+03
  11.550  0.1996E+02  0.1987E+02  0.6791E+03
  11.560  0.2031E+02  0.2020E+02  0.6795E+03
  11.570  0.2085E+02  0.2049E+02  0.6799E+03
  11.580  0.2169E+02  0.2154E+02  0.6803E+03
  11.590  0.2236E+02  0.2186E+02  0.6808E+03
  11.600  0.2443E+02  0.2311E+02  0.6812E+03
  11.610  0.2335E+02  0.2271E+02  0.6817E+03
  11.620  0.2480E+02  0.2364E+02  0.6822E+03
  11.630  0.2651E+02  0.2519E+02  0.6827E+03
  11.640  0.2870E+02  0.3016E+02  0.6833E+03
  11.650  0.2707E+02  0.2671E+02  0.6838E+03
  11.660  0.2636E+02  0.2614E+02  0.6843E+03
  11.670  0.2691E+02  0.2619E+02  0.6849E+03
  11.680  0.2454E+02  0.2468E+02  0.6854E+03
  11.690  0.2316E+02  0.2289E+02  0.6858E+03
  11.700  0.2472E+02  0.2356E+02  0.6863E+03
  11.710  0.3193E+02  0.2657E+02  0.6869E+03
  11.720  0.2614E+02  0.3189E+02  0.6875E+03
  11.730  0.2418E+02  0.2608E+02  0.6880E+03
  11.740  0.2311E+02  0.2354E+02  0.6885E+03
  11.750  0.2347E+02  0.2364E+02  0.6889E+03
  11.760  0.2582E+02  0.2483E+02  0.6894E+03
  11.770  0.2648E+02  0.2608E+02  0.6900E+03
  11.780  0.2555E+02  0.2600E+02  0.6905E+03
  11.790  0.2988E+02  0.2595E+02  0.6910E+03
  11.800  0.2712E+02  0.2712E+02  0.6916E+03
  11.810  0.2656E+02  0.2680E+02  0.6921E+03
  11.820  0.2566E+02  0.2612E+02  0.6926E+03
  11.830  0.2508E+02  0.2531E+02  0.6932E+03
  11.840  0.2435E+02  0.2466E+02  0.6937E+03
  11.850  0.2339E+02  0.2380E+02  0.6941E+03
  11.860  0.2235E+02  0.2282E+02  0.6946E+03
  11.870  0.2115E+02  0.2172E+02  0.6950E+03
  11.880  0.1981E+02  0.2053E+02  0.6955E+03
  11.890  0.1846E+02  0.1920E+02  0.6958E+03
  11.900  0.1699E+02  0.1778E+02  0.6962E+03
  11.910  0.1571E+02  0.1646E+02  0.6965E+03
  11.920  0.1481E+02  0.1532E+02  0.6968E+03
  11.930  0.1407E+02  0.1439E+02  0.6971E+03
  11.940  0.1335E+02  0.1402E+02  0.6974E+03
  11.950  0.1279E+02  0.1290E+02  0.6977E+03
  11.960  0.1173E+02  0.1240E+02  0.6979E+03
  11.970  0.1120E+02  0.1152E+02  0.6982E+03
  11.980  0.1070E+02  0.1107E+02  0.6984E+03
  11.990  0.1047E+02  0.1085E+02  0.6986E+03
  12.000  0.9736E+01  0.1021E+02  0.6988E+03
  12.010  0.8850E+01  0.9362E+01  0.6990E+03
  12.020  0.7792E+01  0.8331E+01  0.6992E+03
  12.030  0.6593E+01  0.7119E+01  0.6993E+03
  12.040  0.5384E+01  0.5850E+01  0.6994E+03
  12.050  0.4300E+01  0.4674E+01  0.6995E+03
  12.060  0.3553E+01  0.3788E+01  0.6996E+03
  12.070  0.2953E+01  0.3171E+01  0.6997E+03
  12.080  0.2505E+01  0.2668E+01  0.6998E+03
  12.090  0.2114E+01  0.2257E+01  0.6998E+03
  12.100  0.1760E+01  0.1884E+01  0.6998E+03
  12.110  0.1441E+01  0.1548E+01  0.6999E+03
  12.120  0.1158E+01  0.1248E+01  0.6999E+03
  12.130  0.9100E+00  0.9855E+00  0.6999E+03
  12.140  0.6978E+00  0.7596E+00  0.6999E+03
  12.150  0.5212E+00  0.5705E+00  0.7000E+03
  12.160  0.3800E+00  0.4183E+00  0.7000E+03
  12.170  0.2726E+00  0.3013E+00  0.7000E+03
  12.180  0.1966E+00  0.2170E+00  0.7000E+03
  12.190  0.1504E+00  0.1637E+00  0.7000E+03
  12.200  0.1294E+00  0.1386E+00  0.7000E+03
  12.210  0.1160E+00  0.1241E+00  0.7000E+03
  12.220  0.1051E+00  0.1122E+00  0.7000E+03
  12.230  0.9516E-01  0.1013E+00  0.7000E+03
  12.240  0.8616E-01  0.9134E-01  0.7000E+03
  12.250  0.7782E-01  0.8227E-01  0.7000E+03
  12.260  0.6996E-01  0.7400E-01  0.7000E+03
  12.270  0.6252E-01  0.6632E-01  0.7000E+03
  12.280  0.5549E-01  0.5908E-01  0.7000E+03
  12.290  0.4889E-01  0.5226E-01  0.7000E+03
  12.300  0.4270E-01  0.4585E-01  0.7000E+03
  12.310  0.3693E-01  0.3987E-01  0.7000E+03
  12.320  0.3158E-01  0.3430E-01  0.7000E+03
  12.330  0.2665E-01  0.2915E-01  0.7000E+03
  12.340  0.2214E-01  0.2443E-01  0.7000E+03
  12.350  0.1805E-01  0.2012E-01  0.7000E+03
  12.360  0.1438E-01  0.1623E-01  0.7000E+03
  12.370  0.1112E-01  0.1276E-01  0.7000E+03
  12.380  0.8287E-02  0.9703E-02  0.7000E+03
  12.390  0.5871E-02  0.7069E-02  0.7000E+03
  12.400  0.3874E-02  0.4855E-02  0.7000E+03
  12.410  0.2296E-02  0.3060E-02  0.7000E+03
  12.420  0.1137E-02  0.1683E-02  0.7000E+03
  12.430  0.3975E-03  0.7257E-03  0.7000E+03
  12.440  0.6862E-04  0.1872E-03  0.7000E+03
  12.450  0.5300E-07  0.1223E-04  0.7000E+03
  12.460  0.0000E+00  0.0000E+00  0.7000E+03
  12.470  0.0000E+00  0.0000E+00  0.7000E+03
  12.480  0.0000E+00  0.0000E+00  0.7000E+03
  12.490  0.0000E+00  0.0000E+00  0.7000E+03
  12.500  0.0000E+00  0.0000E+00  0.7000E+03
  12.510  0.0000E+00  0.0000E+00  0.7000E+03
  12.520  0.0000E+00  0.0000E+00  0.7000E+03
  12.530  0.0000E+00  0.0000E+00  0.7000E+03
  12.540  0.0000E+00  0.0000E+00  0.7000E+03
  12.550  0.0000E+00  0.0000E+00  0.7000E+03
  12.560  0.0000E+00  0.0000E+00  0.7000E+03
  12.570  0.0000E+00  0.0000E+00  0.7000E+03
  12.580  0.0000E+00  0.0000E+00  0.7000E+03
  12.590  0.0000E+00  0.0000E+00  0.7000E+03
  12.600  0.0000E+00  0.0000E+00  0.7000E+03
  12.610  0.0000E+00  0.0000E+00  0.7000E+03
  12.620  0.0000E+00  0.0000E+00  0.7000E+03
  12.630  0.0000E+00  0.0000E+00  0.7000E+03
  12.640  0.0000E+00  0.0000E+00  0.7000E+03
  12.650  0.0000E+00  0.0000E+00  0.7000E+03
  12.660  0.0000E+00  0.0000E+00  0.7000E+03
  12.670  0.0000E+00  0.0000E+00  0.7000E+03
  12.680  0.0000E+00  0.0000E+00  0.7000E+03
  12.690  0.0000E+00  0.0000E+00  0.7000E+03
  12.700  0.0000E+00  0.0000E+00  0.7000E+03
  12.710  0.0000E+00  0.0000E+00  0.7000E+03
  12.720  0.0000E+00  0.0000E+00  0.7000E+03
  12.730  0.0000E+00  0.0000E+00  0.7000E+03
  12.740  0.0000E+00  0.0000E+00  0.7000E+03
  12.750  0.0000E+00  0.0000E+00  0.7000E+03
  12.760  0.0000E+00  0.0000E+00  0.7000E+03
  12.770  0.0000E+00  0.0000E+00  0.7000E+03
  12.780  0.0000E+00  0.0000E+00  0.7000E+03
  12.790  0.0000E+00  0.0000E+00  0.7000E+03
  12.800  0.0000E+00  0.0000E+00  0.7000E+03
  12.810  0.0000E+00  0.0000E+00  0.7000E+03
  12.820  0.0000E+00  0.0000E+00  0.7000E+03
  12.830  0.0000E+00  0.0000E+00  0.7000E+03
  12.840  0.0000E+00  0.0000E+00  0.7000E+03
  12.850  0.0000E+00  0.0000E+00  0.7000E+03
  12.860  0.0000E+00  0.0000E+00  0.7000E+03
  12.870  0.0000E+00  0.0000E+00  0.7000E+03
  12.880  0.0000E+00  0.0000E+00  0.7000E+03
  12.890  0.0000E+00  0.0000E+00  0.7000E+03
  12.900  0.0000E+00  0.0000E+00  0.7000E+03
  12.910  0.0000E+00  0.0000E+00  0.7000E+03
  12.920  0.0000E+00  0.0000E+00  0.7000E+03
  12.930  0.0000E+00  0.0000E+00  0.7000E+03
  12.940  0.0000E+00  0.0000E+00  0.7000E+03
  12.950  0.0000E+00  0.0000E+00  0.7000E+03
  12.960  0.0000E+00  0.0000E+00  0.7000E+03
  12.970  0.0000E+00  0.0000E+00  0.7000E+03
  12.980  0.0000E+00  0.0000E+00  0.7000E+03
  12.990  0.0000E+00  0.0000E+00  0.7000E+03
  13.000  0.0000E+00  0.0000E+00  0.7000E+03
  13.010  0.0000E+00  0.0000E+00  0.7000E+03
  13.020  0.0000E+00  0.0000E+00  0.7000E+03
  13.030  0.0000E+00  0.0000E+00  0.7000E+03
  13.040  0.0000E+00  0.0000E+00  0.7000E+03
  13.050  0.0000E+00  0.0000E+00  0.7000E+03
  13.060  0.0000E+00  0.0000E+00  0.7000E+03
  13.070  0.0000E+00  0.0000E+00  0.7000E+03
  13.080  0.0000E+00  0.0000E+00  0.7000E+03
  13.090  0.0000E+00  0.0000E+00  0.7000E+03
  13.100  0.0000E+00  0.0000E+00  0.7000E+03
  13.110  0.0000E+00  0.0000E+00  0.7000E+03
  13.120  0.0000E+00  0.0000E+00  0.7000E+03
  13.130  0.0000E+00  0.0000E+00  0.7000E+03
  13.140  0.0000E+00  0.0000E+00  0.7000E+03
  13.150  0.0000E+00  0.0000E+00  0.7000E+03
  13.160  0.0000E+00  0.0000E+00  0.7000E+03
  13.170  0.0000E+00  0.0000E+00  0.7000E+03
  13.180  0.0000E+00  0.0000E+00  0.7000E+03
  13.190  0.0000E+00  0.0000E+00  0.7000E+03
  13.200  0.0000E+00  0.0000E+00  0.7000E+03
  13.210  0.0000E+00  0.0000E+00  0.7000E+03
  13.220  0.0000E+00  0.0000E+00  0.7000E+03
  13.230  0.0000E+00  0.0000E+00  0.7000E+03
  13.240  0.0000E+00  0.0000E+00  0.7000E+03
  13.250  0.0000E+00  0.0000E+00  0.7000E+03
  13.260  0.0000E+00  0.0000E+00  0.7000E+03
  13.270  0.0000E+00  0.0000E+00  0.7000E+03
  13.280  0.0000E+00  0.0000E+00  0.7000E+03
  13.290  0.0000E+00  0.0000E+00  0.7000E+03
  13.300  0.0000E+00  0.0000E+00  0.7000E+03
  13.310  0.0000E+00  0.0000E+00  0.7000E+03
  13.320  0.0000E+00  0.0000E+00  0.7000E+03
  13.330  0.0000E+00  0.0000E+00  0.7000E+03
  13.340  0.0000E+00  0.0000E+00  0.7000E+03
  13.350  0.0000E+00  0.0000E+00  0.7000E+03
  13.360  0.0000E+00  0.0000E+00  0.7000E+03
  13.370  0.0000E+00  0.0000E+00  0.7000E+03
  13.380  0.0000E+00  0.0000E+00  0.7000E+03
  13.390  0.0000E+00  0.0000E+00  0.7000E+03
  13.400  0.0000E+00  0.0000E+00  0.7000E+03
  13.410  0.0000E+00  0.0000E+00  0.7000E+03
  13.420  0.0000E+00  0.0000E+00  0.7000E+03
  13.430  0.0000E+00  0.0000E+00  0.7000E+03
  13.440  0.0000E+00  0.0000E+00  0.7000E+03
  13.450  0.0000E+00  0.0000E+00  0.7000E+03
  13.460  0.0000E+00  0.0000E+00  0.7000E+03
  13.470  0.0000E+00  0.0000E+00  0.7000E+03
  13.480  0.0000E+00  0.0000E+00  0.7000E+03
  13.490  0.0000E+00  0.0000E+00  0.7000E+03
  13.500  0.0000E+00  0.0000E+00  0.7000E+03
  13.510  0.0000E+00  0.0000E+00  0.7000E+03
  13.520  0.0000E+00  0.0000E+00  0.7000E+03
  13.530  0.0000E+00  0.0000E+00  0.7000E+03
  13.540  0.0000E+00  0.0000E+00  0.7000E+03
  13.550  0.0000E+00  0.0000E+00  0.7000E+03
  13.560  0.0000E+00  0.0000E+00  0.7000E+03
  13.570  0.0000E+00  0.0000E+00  0.7000E+03
  13.580  0.0000E+00  0.0000E+00  0.7000E+03
  13.590  0.0000E+00  0.0000E+00  0.7000E+03
  13.600  0.0000E+00  0.0000E+00  0.7000E+03
  13.610  0.0000E+00  0.0000E+00  0.7000E+03
  13.620  0.0000E+00  0.0000E+00  0.7000E+03
  13.630  0.0000E+00  0.0000E+00  0.7000E+03
  13.640  0.0000E+00  0.0000E+00  0.7000E+03
  13.650  0.0000E+00  0.0000E+00  0.7000E+03
  13.660  0.0000E+00  0.0000E+00  0.7000E+03
  13.670  0.0000E+00  0.0000E+00  0.7000E+03
  13.680  0.0000E+00  0.0000E+00  0.7000E+03
  13.690  0.0000E+00  0.0000E+00  0.7000E+03
  13.700  0.0000E+00  0.0000E+00  0.7000E+03
  13.710  0.0000E+00  0.0000E+00  0.7000E+03
  13.720  0.0000E+00  0.0000E+00  0.7000E+03
  13.730  0.0000E+00  0.0000E+00  0.7000E+03
  13.740  0.0000E+00  0.0000E+00  0.7000E+03
  13.750  0.0000E+00  0.0000E+00  0.7000E+03
  13.760  0.0000E+00  0.0000E+00  0.7000E+03
  13.770  0.0000E+00  0.0000E+00  0.7000E+03
  13.780  0.0000E+00  0.0000E+00  0.7000E+03
  13.790  0.0000E+00  0.0000E+00  0.7000E+03
  13.800  0.0000E+00  0.0000E+00  0.7000E+03
  13.810  0.0000E+00  0.0000E+00  0.7000E+03
  13.820  0.0000E+00  0.0000E+00  0.7000E+03
  13.830  0.0000E+00  0.0000E+00  0.7000E+03
  13.840  0.0000E+00  0.0000E+00  0.7000E+03
  13.850  0.0000E+00  0.0000E+00  0.7000E+03
  13.860  0.0000E+00  0.0000E+00  0.7000E+03
  13.870  0.0000E+00  0.0000E+00  0.7000E+03
  13.880  0.0000E+00  0.0000E+00  0.7000E+03
  13.890  0.0000E+00  0.0000E+00  0.7000E+03
  13.900  0.0000E+00  0.0000E+00  0.7000E+03
  13.910  0.0000E+00  0.0000E+00  0.7000E+03
  13.920  0.0000E+00  0.0000E+00  0.7000E+03
  13.930  0.0000E+00  0.0000E+00  0.7000E+03
  13.940  0.0000E+00  0.0000E+00  0.7000E+03
  13.950  0.0000E+00  0.0000E+00  0.7000E+03
  13.960  0.0000E+00  0.0000E+00  0.7000E+03
  13.970  0.0000E+00  0.0000E+00  0.7000E+03
  13.980  0.0000E+00  0.0000E+00  0.7000E+03
  13.990  0.0000E+00  0.0000E+00  0.7000E+03
  14.000  0.0000E+00  0.0000E+00  0.7000E+03
  14.010  0.0000E+00  0.0000E+00  0.7000E+03
  14.020  0.0000E+00  0.0000E+00  0.7000E+03
  14.030  0.0000E+00  0.0000E+00  0.7000E+03
  14.040  0.0000E+00  0.0000E+00  0.7000E+03
  14.050  0.0000E+00  0.0000E+00  0.7000E+03
  14.060  0.0000E+00  0.0000E+00  0.7000E+03
  14.070  0.0000E+00  0.0000E+00  0.7000E+03
  14.080  0.0000E+00  0.0000E+00  0.7000E+03
  14.090  0.0000E+00  0.0000E+00  0.7000E+03
  14.100  0.0000E+00  0.0000E+00  0.7000E+03
  14.110  0.0000E+00  0.0000E+00  0.7000E+03
  14.120  0.0000E+00  0.0000E+00  0.7000E+03
  14.130  0.0000E+00  0.0000E+00  0.7000E+03
  14.140  0.0000E+00  0.0000E+00  0.7000E+03
  14.150  0.0000E+00  0.0000E+00  0.7000E+03
  14.160  0.0000E+00  0.0000E+00  0.7000E+03
  14.170  0.0000E+00  0.0000E+00  0.7000E+03
  14.180  0.0000E+00  0.0000E+00  0.7000E+03
  14.190  0.0000E+00  0.0000E+00  0.7000E+03
  14.200  0.0000E+00  0.0000E+00  0.7000E+03
  14.210  0.0000E+00  0.0000E+00  0.7000E+03
  14.220  0.0000E+00  0.0000E+00  0.7000E+03
  14.230  0.0000E+00  0.0000E+00  0.7000E+03
  14.240  0.0000E+00  0.0000E+00  0.7000E+03
  14.250  0.0000E+00  0.0000E+00  0.7000E+03
  14.260  0.0000E+00  0.0000E+00  0.7000E+03
  14.270  0.0000E+00  0.0000E+00  0.7000E+03
  14.280  0.0000E+00  0.0000E+00  0.7000E+03
  14.290  0.0000E+00  0.0000E+00  0.7000E+03
  14.300  0.0000E+00  0.0000E+00  0.7000E+03
  14.310  0.0000E+00  0.0000E+00  0.7000E+03
  14.320  0.0000E+00  0.0000E+00  0.7000E+03
  14.330  0.0000E+00  0.0000E+00  0.7000E+03
  14.340  0.0000E+00  0.0000E+00  0.7000E+03
  14.350  0.0000E+00  0.0000E+00  0.7000E+03
  14.360  0.0000E+00  0.0000E+00  0.7000E+03
  14.370  0.0000E+00  0.0000E+00  0.7000E+03
  14.380  0.0000E+00  0.0000E+00  0.7000E+03
  14.390  0.0000E+00  0.0000E+00  0.7000E+03
  14.400  0.0000E+00  0.0000E+00  0.7000E+03
  14.410  0.0000E+00  0.0000E+00  0.7000E+03
  14.420  0.0000E+00  0.0000E+00  0.7000E+03
  14.430  0.0000E+00  0.0000E+00  0.7000E+03
  14.440  0.0000E+00  0.0000E+00  0.7000E+03
  14.450  0.0000E+00  0.0000E+00  0.7000E+03
  14.460  0.0000E+00  0.0000E+00  0.7000E+03
  14.470  0.0000E+00  0.0000E+00  0.7000E+03
  14.480  0.0000E+00  0.0000E+00  0.7000E+03
  14.490  0.0000E+00  0.0000E+00  0.7000E+03
  14.500  0.0000E+00  0.0000E+00  0.7000E+03
  14.510  0.0000E+00  0.0000E+00  0.7000E+03
  14.520  0.0000E+00  0.0000E+00  0.7000E+03
  14.530  0.0000E+00  0.0000E+00  0.7000E+03
  14.540  0.0000E+00  0.0000E+00  0.7000E+03
  14.550  0.0000E+00  0.0000E+00  0.7000E+03
  14.560  0.0000E+00  0.0000E+00  0.7000E+03
  14.570  0.0000E+00  0.0000E+00  0.7000E+03
  14.580  0.0000E+00  0.0000E+00  0.7000E+03
  14.590  0.0000E+00  0.0000E+00  0.7000E+03
  14.600  0.0000E+00  0.0000E+00  0.7000E+03
  14.610  0.0000E+00  0.0000E+00  0.7000E+03
  14.620  0.0000E+00  0.0000E+00  0.7000E+03
  14.630  0.0000E+00  0.0000E+00  0.7000E+03
  14.640  0.0000E+00  0.0000E+00  0.7000E+03
  14.650  0.0000E+00  0.0000E+00  0.7000E+03
  14.660  0.0000E+00  0.0000E+00  0.7000E+03
  14.670  0.0000E+00  0.0000E+00  0.7000E+03
  14.680  0.0000E+00  0.0000E+00  0.7000E+03
  14.690  0.0000E+00  0.0000E+00  0.7000E+03
  14.700  0.0000E+00  0.0000E+00  0.7000E+03
  14.710  0.0000E+00  0.0000E+00  0.7000E+03
  14.720  0.0000E+00  0.0000E+00  0.7000E+03
  14.730  0.0000E+00  0.0000E+00  0.7000E+03
  14.740  0.0000E+00  0.0000E+00  0.7000E+03
  14.750  0.0000E+00  0.0000E+00  0.7000E+03
  14.760  0.0000E+00  0.0000E+00  0.7000E+03
  14.770  0.0000E+00  0.0000E+00  0.7000E+03
  14.780  0.0000E+00  0.0000E+00  0.7000E+03
  14.790  0.0000E+00  0.0000E+00  0.7000E+03
  14.800  0.0000E+00  0.0000E+00  0.7000E+03
  14.810  0.0000E+00  0.0000E+00  0.7000E+03
  14.820  0.0000E+00  0.0000E+00  0.7000E+03
  14.830  0.0000E+00  0.0000E+00  0.7000E+03
  14.840  0.0000E+00  0.0000E+00  0.7000E+03
  14.850  0.0000E+00  0.0000E+00  0.7000E+03
  14.860  0.0000E+00  0.0000E+00  0.7000E+03
  14.870  0.0000E+00  0.0000E+00  0.7000E+03
  14.880  0.0000E+00  0.0000E+00  0.7000E+03
  14.890  0.0000E+00  0.0000E+00  0.7000E+03
  14.900  0.0000E+00  0.0000E+00  0.7000E+03
  14.910  0.0000E+00  0.0000E+00  0.7000E+03
  14.920  0.0000E+00  0.0000E+00  0.7000E+03
  14.930  0.0000E+00  0.0000E+00  0.7000E+03
  14.940  0.0000E+00  0.0000E+00  0.7000E+03
  14.950  0.0000E+00  0.0000E+00  0.7000E+03
  14.960  0.0000E+00  0.0000E+00  0.7000E+03
  14.970  0.0000E+00  0.0000E+00  0.7000E+03
  14.980  0.0000E+00  0.0000E+00  0.7000E+03
  14.990  0.0000E+00  0.0000E+00  0.7000E+03
  15.000  0.0000E+00  0.0000E+00  0.7000E+03
