#  E (eV)   dosup(E)     dosdw(E)   Int dos(E) EFermi =    8.037 eV
 -15.000  0.0000E+00  0.0000E+00  0.8000E+01
 -14.990  0.0000E+00  0.0000E+00  0.8000E+01
 -14.980  0.0000E+00  0.0000E+00  0.8000E+01
 -14.970  0.0000E+00  0.0000E+00  0.8000E+01
 -14.960  0.0000E+00  0.0000E+00  0.8000E+01
 -14.950  0.0000E+00  0.0000E+00  0.8000E+01
 -14.940  0.0000E+00  0.0000E+00  0.8000E+01
 -14.930  0.0000E+00  0.0000E+00  0.8000E+01
 -14.920  0.0000E+00  0.0000E+00  0.8000E+01
 -14.910  0.0000E+00  0.0000E+00  0.8000E+01
 -14.900  0.0000E+00  0.0000E+00  0.8000E+01
 -14.890  0.0000E+00  0.0000E+00  0.8000E+01
 -14.880  0.0000E+00  0.0000E+00  0.8000E+01
 -14.870  0.0000E+00  0.0000E+00  0.8000E+01
 -14.860  0.0000E+00  0.0000E+00  0.8000E+01
 -14.850  0.0000E+00  0.0000E+00  0.8000E+01
 -14.840  0.0000E+00  0.0000E+00  0.8000E+01
 -14.830  0.0000E+00  0.0000E+00  0.8000E+01
 -14.820  0.0000E+00  0.0000E+00  0.8000E+01
 -14.810  0.0000E+00  0.0000E+00  0.8000E+01
 -14.800  0.0000E+00  0.0000E+00  0.8000E+01
 -14.790  0.0000E+00  0.0000E+00  0.8000E+01
 -14.780  0.0000E+00  0.0000E+00  0.8000E+01
 -14.770  0.0000E+00  0.0000E+00  0.8000E+01
 -14.760  0.0000E+00  0.0000E+00  0.8000E+01
 -14.750  0.0000E+00  0.0000E+00  0.8000E+01
 -14.740  0.0000E+00  0.0000E+00  0.8000E+01
 -14.730  0.0000E+00  0.0000E+00  0.8000E+01
 -14.720  0.0000E+00  0.0000E+00  0.8000E+01
 -14.710  0.0000E+00  0.0000E+00  0.8000E+01
 -14.700  0.0000E+00  0.0000E+00  0.8000E+01
 -14.690  0.0000E+00  0.0000E+00  0.8000E+01
 -14.680  0.0000E+00  0.0000E+00  0.8000E+01
 -14.670  0.0000E+00  0.0000E+00  0.8000E+01
 -14.660  0.0000E+00  0.0000E+00  0.8000E+01
 -14.650  0.0000E+00  0.0000E+00  0.8000E+01
 -14.640  0.0000E+00  0.0000E+00  0.8000E+01
 -14.630  0.0000E+00  0.0000E+00  0.8000E+01
 -14.620  0.0000E+00  0.0000E+00  0.8000E+01
 -14.610  0.0000E+00  0.0000E+00  0.8000E+01
 -14.600  0.0000E+00  0.0000E+00  0.8000E+01
 -14.590  0.0000E+00  0.0000E+00  0.8000E+01
 -14.580  0.0000E+00  0.0000E+00  0.8000E+01
 -14.570  0.0000E+00  0.0000E+00  0.8000E+01
 -14.560  0.0000E+00  0.0000E+00  0.8000E+01
 -14.550  0.0000E+00  0.0000E+00  0.8000E+01
 -14.540  0.0000E+00  0.0000E+00  0.8000E+01
 -14.530  0.0000E+00  0.0000E+00  0.8000E+01
 -14.520  0.0000E+00  0.0000E+00  0.8000E+01
 -14.510  0.0000E+00  0.0000E+00  0.8000E+01
 -14.500  0.0000E+00  0.0000E+00  0.8000E+01
 -14.490  0.0000E+00  0.0000E+00  0.8000E+01
 -14.480  0.0000E+00  0.0000E+00  0.8000E+01
 -14.470  0.0000E+00  0.0000E+00  0.8000E+01
 -14.460  0.0000E+00  0.0000E+00  0.8000E+01
 -14.450  0.0000E+00  0.0000E+00  0.8000E+01
 -14.440  0.0000E+00  0.0000E+00  0.8000E+01
 -14.430  0.0000E+00  0.0000E+00  0.8000E+01
 -14.420  0.0000E+00  0.0000E+00  0.8000E+01
 -14.410  0.0000E+00  0.0000E+00  0.8000E+01
 -14.400  0.0000E+00  0.0000E+00  0.8000E+01
 -14.390  0.0000E+00  0.0000E+00  0.8000E+01
 -14.380  0.0000E+00  0.0000E+00  0.8000E+01
 -14.370  0.0000E+00  0.0000E+00  0.8000E+01
 -14.360  0.0000E+00  0.0000E+00  0.8000E+01
 -14.350  0.0000E+00  0.0000E+00  0.8000E+01
 -14.340  0.0000E+00  0.0000E+00  0.8000E+01
 -14.330  0.0000E+00  0.0000E+00  0.8000E+01
 -14.320  0.0000E+00  0.0000E+00  0.8000E+01
 -14.310  0.0000E+00  0.0000E+00  0.8000E+01
 -14.300  0.0000E+00  0.0000E+00  0.8000E+01
 -14.290  0.0000E+00  0.0000E+00  0.8000E+01
 -14.280  0.0000E+00  0.0000E+00  0.8000E+01
 -14.270  0.0000E+00  0.0000E+00  0.8000E+01
 -14.260  0.0000E+00  0.0000E+00  0.8000E+01
 -14.250  0.0000E+00  0.0000E+00  0.8000E+01
 -14.240  0.0000E+00  0.0000E+00  0.8000E+01
 -14.230  0.0000E+00  0.0000E+00  0.8000E+01
 -14.220  0.0000E+00  0.0000E+00  0.8000E+01
 -14.210  0.0000E+00  0.0000E+00  0.8000E+01
 -14.200  0.0000E+00  0.0000E+00  0.8000E+01
 -14.190  0.0000E+00  0.0000E+00  0.8000E+01
 -14.180  0.0000E+00  0.0000E+00  0.8000E+01
 -14.170  0.0000E+00  0.0000E+00  0.8000E+01
 -14.160  0.0000E+00  0.0000E+00  0.8000E+01
 -14.150  0.0000E+00  0.0000E+00  0.8000E+01
 -14.140  0.0000E+00  0.0000E+00  0.8000E+01
 -14.130  0.0000E+00  0.0000E+00  0.8000E+01
 -14.120  0.0000E+00  0.0000E+00  0.8000E+01
 -14.110  0.0000E+00  0.0000E+00  0.8000E+01
 -14.100  0.0000E+00  0.0000E+00  0.8000E+01
 -14.090  0.0000E+00  0.0000E+00  0.8000E+01
 -14.080  0.0000E+00  0.0000E+00  0.8000E+01
 -14.070  0.0000E+00  0.0000E+00  0.8000E+01
 -14.060  0.0000E+00  0.0000E+00  0.8000E+01
 -14.050  0.0000E+00  0.0000E+00  0.8000E+01
 -14.040  0.0000E+00  0.0000E+00  0.8000E+01
 -14.030  0.0000E+00  0.0000E+00  0.8000E+01
 -14.020  0.0000E+00  0.0000E+00  0.8000E+01
 -14.010  0.0000E+00  0.0000E+00  0.8000E+01
 -14.000  0.0000E+00  0.0000E+00  0.8000E+01
 -13.990  0.0000E+00  0.0000E+00  0.8000E+01
 -13.980  0.0000E+00  0.0000E+00  0.8000E+01
 -13.970  0.0000E+00  0.0000E+00  0.8000E+01
 -13.960  0.0000E+00  0.0000E+00  0.8000E+01
 -13.950  0.0000E+00  0.0000E+00  0.8000E+01
 -13.940  0.0000E+00  0.0000E+00  0.8000E+01
 -13.930  0.0000E+00  0.0000E+00  0.8000E+01
 -13.920  0.0000E+00  0.0000E+00  0.8000E+01
 -13.910  0.0000E+00  0.0000E+00  0.8000E+01
 -13.900  0.0000E+00  0.0000E+00  0.8000E+01
 -13.890  0.0000E+00  0.0000E+00  0.8000E+01
 -13.880  0.0000E+00  0.0000E+00  0.8000E+01
 -13.870  0.0000E+00  0.0000E+00  0.8000E+01
 -13.860  0.0000E+00  0.0000E+00  0.8000E+01
 -13.850  0.0000E+00  0.0000E+00  0.8000E+01
 -13.840  0.0000E+00  0.0000E+00  0.8000E+01
 -13.830  0.0000E+00  0.0000E+00  0.8000E+01
 -13.820  0.0000E+00  0.0000E+00  0.8000E+01
 -13.810  0.0000E+00  0.0000E+00  0.8000E+01
 -13.800  0.0000E+00  0.0000E+00  0.8000E+01
 -13.790  0.0000E+00  0.0000E+00  0.8000E+01
 -13.780  0.0000E+00  0.0000E+00  0.8000E+01
 -13.770  0.0000E+00  0.0000E+00  0.8000E+01
 -13.760  0.0000E+00  0.0000E+00  0.8000E+01
 -13.750  0.0000E+00  0.0000E+00  0.8000E+01
 -13.740  0.0000E+00  0.0000E+00  0.8000E+01
 -13.730  0.0000E+00  0.0000E+00  0.8000E+01
 -13.720  0.0000E+00  0.0000E+00  0.8000E+01
 -13.710  0.0000E+00  0.0000E+00  0.8000E+01
 -13.700  0.0000E+00  0.0000E+00  0.8000E+01
 -13.690  0.0000E+00  0.0000E+00  0.8000E+01
 -13.680  0.0000E+00  0.0000E+00  0.8000E+01
 -13.670  0.0000E+00  0.0000E+00  0.8000E+01
 -13.660  0.0000E+00  0.0000E+00  0.8000E+01
 -13.650  0.0000E+00  0.0000E+00  0.8000E+01
 -13.640  0.0000E+00  0.0000E+00  0.8000E+01
 -13.630  0.0000E+00  0.0000E+00  0.8000E+01
 -13.620  0.0000E+00  0.0000E+00  0.8000E+01
 -13.610  0.0000E+00  0.0000E+00  0.8000E+01
 -13.600  0.0000E+00  0.0000E+00  0.8000E+01
 -13.590  0.0000E+00  0.0000E+00  0.8000E+01
 -13.580  0.0000E+00  0.0000E+00  0.8000E+01
 -13.570  0.0000E+00  0.0000E+00  0.8000E+01
 -13.560  0.0000E+00  0.0000E+00  0.8000E+01
 -13.550  0.0000E+00  0.0000E+00  0.8000E+01
 -13.540  0.0000E+00  0.0000E+00  0.8000E+01
 -13.530  0.0000E+00  0.0000E+00  0.8000E+01
 -13.520  0.0000E+00  0.0000E+00  0.8000E+01
 -13.510  0.0000E+00  0.0000E+00  0.8000E+01
 -13.500  0.0000E+00  0.0000E+00  0.8000E+01
 -13.490  0.0000E+00  0.0000E+00  0.8000E+01
 -13.480  0.0000E+00  0.0000E+00  0.8000E+01
 -13.470  0.0000E+00  0.0000E+00  0.8000E+01
 -13.460  0.0000E+00  0.0000E+00  0.8000E+01
 -13.450  0.0000E+00  0.0000E+00  0.8000E+01
 -13.440  0.0000E+00  0.0000E+00  0.8000E+01
 -13.430  0.0000E+00  0.0000E+00  0.8000E+01
 -13.420  0.0000E+00  0.0000E+00  0.8000E+01
 -13.410  0.0000E+00  0.0000E+00  0.8000E+01
 -13.400  0.0000E+00  0.0000E+00  0.8000E+01
 -13.390  0.0000E+00  0.0000E+00  0.8000E+01
 -13.380  0.0000E+00  0.0000E+00  0.8000E+01
 -13.370  0.0000E+00  0.0000E+00  0.8000E+01
 -13.360  0.0000E+00  0.0000E+00  0.8000E+01
 -13.350  0.0000E+00  0.0000E+00  0.8000E+01
 -13.340  0.0000E+00  0.0000E+00  0.8000E+01
 -13.330  0.0000E+00  0.0000E+00  0.8000E+01
 -13.320  0.0000E+00  0.0000E+00  0.8000E+01
 -13.310  0.0000E+00  0.0000E+00  0.8000E+01
 -13.300  0.0000E+00  0.0000E+00  0.8000E+01
 -13.290  0.0000E+00  0.0000E+00  0.8000E+01
 -13.280  0.0000E+00  0.0000E+00  0.8000E+01
 -13.270  0.0000E+00  0.0000E+00  0.8000E+01
 -13.260  0.0000E+00  0.0000E+00  0.8000E+01
 -13.250  0.0000E+00  0.0000E+00  0.8000E+01
 -13.240  0.0000E+00  0.0000E+00  0.8000E+01
 -13.230  0.0000E+00  0.0000E+00  0.8000E+01
 -13.220  0.0000E+00  0.0000E+00  0.8000E+01
 -13.210  0.0000E+00  0.0000E+00  0.8000E+01
 -13.200  0.0000E+00  0.0000E+00  0.8000E+01
 -13.190  0.0000E+00  0.0000E+00  0.8000E+01
 -13.180  0.0000E+00  0.0000E+00  0.8000E+01
 -13.170  0.0000E+00  0.0000E+00  0.8000E+01
 -13.160  0.0000E+00  0.0000E+00  0.8000E+01
 -13.150  0.0000E+00  0.0000E+00  0.8000E+01
 -13.140  0.0000E+00  0.0000E+00  0.8000E+01
 -13.130  0.0000E+00  0.0000E+00  0.8000E+01
 -13.120  0.0000E+00  0.0000E+00  0.8000E+01
 -13.110  0.0000E+00  0.0000E+00  0.8000E+01
 -13.100  0.0000E+00  0.0000E+00  0.8000E+01
 -13.090  0.0000E+00  0.0000E+00  0.8000E+01
 -13.080  0.0000E+00  0.0000E+00  0.8000E+01
 -13.070  0.0000E+00  0.0000E+00  0.8000E+01
 -13.060  0.0000E+00  0.0000E+00  0.8000E+01
 -13.050  0.0000E+00  0.0000E+00  0.8000E+01
 -13.040  0.0000E+00  0.0000E+00  0.8000E+01
 -13.030  0.0000E+00  0.0000E+00  0.8000E+01
 -13.020  0.0000E+00  0.0000E+00  0.8000E+01
 -13.010  0.0000E+00  0.0000E+00  0.8000E+01
 -13.000  0.0000E+00  0.0000E+00  0.8000E+01
 -12.990  0.0000E+00  0.0000E+00  0.8000E+01
 -12.980  0.0000E+00  0.0000E+00  0.8000E+01
 -12.970  0.0000E+00  0.0000E+00  0.8000E+01
 -12.960  0.0000E+00  0.0000E+00  0.8000E+01
 -12.950  0.0000E+00  0.0000E+00  0.8000E+01
 -12.940  0.0000E+00  0.0000E+00  0.8000E+01
 -12.930  0.0000E+00  0.0000E+00  0.8000E+01
 -12.920  0.0000E+00  0.0000E+00  0.8000E+01
 -12.910  0.0000E+00  0.0000E+00  0.8000E+01
 -12.900  0.0000E+00  0.0000E+00  0.8000E+01
 -12.890  0.0000E+00  0.0000E+00  0.8000E+01
 -12.880  0.0000E+00  0.0000E+00  0.8000E+01
 -12.870  0.0000E+00  0.0000E+00  0.8000E+01
 -12.860  0.0000E+00  0.0000E+00  0.8000E+01
 -12.850  0.0000E+00  0.0000E+00  0.8000E+01
 -12.840  0.0000E+00  0.0000E+00  0.8000E+01
 -12.830  0.0000E+00  0.0000E+00  0.8000E+01
 -12.820  0.0000E+00  0.0000E+00  0.8000E+01
 -12.810  0.0000E+00  0.0000E+00  0.8000E+01
 -12.800  0.0000E+00  0.0000E+00  0.8000E+01
 -12.790  0.0000E+00  0.0000E+00  0.8000E+01
 -12.780  0.0000E+00  0.0000E+00  0.8000E+01
 -12.770  0.0000E+00  0.0000E+00  0.8000E+01
 -12.760  0.0000E+00  0.0000E+00  0.8000E+01
 -12.750  0.0000E+00  0.0000E+00  0.8000E+01
 -12.740  0.0000E+00  0.0000E+00  0.8000E+01
 -12.730  0.0000E+00  0.0000E+00  0.8000E+01
 -12.720  0.0000E+00  0.0000E+00  0.8000E+01
 -12.710  0.0000E+00  0.0000E+00  0.8000E+01
 -12.700  0.0000E+00  0.0000E+00  0.8000E+01
 -12.690  0.0000E+00  0.0000E+00  0.8000E+01
 -12.680  0.0000E+00  0.0000E+00  0.8000E+01
 -12.670  0.0000E+00  0.0000E+00  0.8000E+01
 -12.660  0.0000E+00  0.0000E+00  0.8000E+01
 -12.650  0.0000E+00  0.0000E+00  0.8000E+01
 -12.640  0.0000E+00  0.0000E+00  0.8000E+01
 -12.630  0.0000E+00  0.0000E+00  0.8000E+01
 -12.620  0.0000E+00  0.0000E+00  0.8000E+01
 -12.610  0.0000E+00  0.0000E+00  0.8000E+01
 -12.600  0.0000E+00  0.0000E+00  0.8000E+01
 -12.590  0.0000E+00  0.0000E+00  0.8000E+01
 -12.580  0.0000E+00  0.0000E+00  0.8000E+01
 -12.570  0.0000E+00  0.0000E+00  0.8000E+01
 -12.560  0.0000E+00  0.0000E+00  0.8000E+01
 -12.550  0.0000E+00  0.0000E+00  0.8000E+01
 -12.540  0.0000E+00  0.0000E+00  0.8000E+01
 -12.530  0.0000E+00  0.0000E+00  0.8000E+01
 -12.520  0.0000E+00  0.0000E+00  0.8000E+01
 -12.510  0.0000E+00  0.0000E+00  0.8000E+01
 -12.500  0.0000E+00  0.0000E+00  0.8000E+01
 -12.490  0.0000E+00  0.0000E+00  0.8000E+01
 -12.480  0.0000E+00  0.0000E+00  0.8000E+01
 -12.470  0.0000E+00  0.0000E+00  0.8000E+01
 -12.460  0.0000E+00  0.0000E+00  0.8000E+01
 -12.450  0.0000E+00  0.0000E+00  0.8000E+01
 -12.440  0.0000E+00  0.0000E+00  0.8000E+01
 -12.430  0.0000E+00  0.0000E+00  0.8000E+01
 -12.420  0.0000E+00  0.0000E+00  0.8000E+01
 -12.410  0.0000E+00  0.0000E+00  0.8000E+01
 -12.400  0.0000E+00  0.0000E+00  0.8000E+01
 -12.390  0.0000E+00  0.0000E+00  0.8000E+01
 -12.380  0.0000E+00  0.0000E+00  0.8000E+01
 -12.370  0.0000E+00  0.0000E+00  0.8000E+01
 -12.360  0.0000E+00  0.0000E+00  0.8000E+01
 -12.350  0.0000E+00  0.0000E+00  0.8000E+01
 -12.340  0.0000E+00  0.0000E+00  0.8000E+01
 -12.330  0.0000E+00  0.0000E+00  0.8000E+01
 -12.320  0.0000E+00  0.0000E+00  0.8000E+01
 -12.310  0.0000E+00  0.0000E+00  0.8000E+01
 -12.300  0.0000E+00  0.0000E+00  0.8000E+01
 -12.290  0.0000E+00  0.0000E+00  0.8000E+01
 -12.280  0.0000E+00  0.0000E+00  0.8000E+01
 -12.270  0.0000E+00  0.0000E+00  0.8000E+01
 -12.260  0.0000E+00  0.0000E+00  0.8000E+01
 -12.250  0.0000E+00  0.0000E+00  0.8000E+01
 -12.240  0.0000E+00  0.0000E+00  0.8000E+01
 -12.230  0.0000E+00  0.0000E+00  0.8000E+01
 -12.220  0.0000E+00  0.0000E+00  0.8000E+01
 -12.210  0.0000E+00  0.0000E+00  0.8000E+01
 -12.200  0.0000E+00  0.0000E+00  0.8000E+01
 -12.190  0.0000E+00  0.0000E+00  0.8000E+01
 -12.180  0.0000E+00  0.0000E+00  0.8000E+01
 -12.170  0.0000E+00  0.0000E+00  0.8000E+01
 -12.160  0.0000E+00  0.0000E+00  0.8000E+01
 -12.150  0.0000E+00  0.0000E+00  0.8000E+01
 -12.140  0.0000E+00  0.0000E+00  0.8000E+01
 -12.130  0.0000E+00  0.0000E+00  0.8000E+01
 -12.120  0.0000E+00  0.0000E+00  0.8000E+01
 -12.110  0.0000E+00  0.0000E+00  0.8000E+01
 -12.100  0.0000E+00  0.0000E+00  0.8000E+01
 -12.090  0.0000E+00  0.0000E+00  0.8000E+01
 -12.080  0.0000E+00  0.0000E+00  0.8000E+01
 -12.070  0.0000E+00  0.0000E+00  0.8000E+01
 -12.060  0.0000E+00  0.0000E+00  0.8000E+01
 -12.050  0.0000E+00  0.0000E+00  0.8000E+01
 -12.040  0.0000E+00  0.0000E+00  0.8000E+01
 -12.030  0.0000E+00  0.0000E+00  0.8000E+01
 -12.020  0.0000E+00  0.0000E+00  0.8000E+01
 -12.010  0.0000E+00  0.0000E+00  0.8000E+01
 -12.000  0.0000E+00  0.0000E+00  0.8000E+01
 -11.990  0.0000E+00  0.0000E+00  0.8000E+01
 -11.980  0.0000E+00  0.0000E+00  0.8000E+01
 -11.970  0.0000E+00  0.0000E+00  0.8000E+01
 -11.960  0.0000E+00  0.0000E+00  0.8000E+01
 -11.950  0.0000E+00  0.0000E+00  0.8000E+01
 -11.940  0.0000E+00  0.0000E+00  0.8000E+01
 -11.930  0.0000E+00  0.0000E+00  0.8000E+01
 -11.920  0.0000E+00  0.0000E+00  0.8000E+01
 -11.910  0.0000E+00  0.0000E+00  0.8000E+01
 -11.900  0.0000E+00  0.0000E+00  0.8000E+01
 -11.890  0.0000E+00  0.0000E+00  0.8000E+01
 -11.880  0.0000E+00  0.0000E+00  0.8000E+01
 -11.870  0.0000E+00  0.0000E+00  0.8000E+01
 -11.860  0.0000E+00  0.0000E+00  0.8000E+01
 -11.850  0.0000E+00  0.0000E+00  0.8000E+01
 -11.840  0.0000E+00  0.0000E+00  0.8000E+01
 -11.830  0.0000E+00  0.0000E+00  0.8000E+01
 -11.820  0.0000E+00  0.0000E+00  0.8000E+01
 -11.810  0.0000E+00  0.0000E+00  0.8000E+01
 -11.800  0.0000E+00  0.0000E+00  0.8000E+01
 -11.790  0.0000E+00  0.0000E+00  0.8000E+01
 -11.780  0.0000E+00  0.0000E+00  0.8000E+01
 -11.770  0.0000E+00  0.0000E+00  0.8000E+01
 -11.760  0.0000E+00  0.0000E+00  0.8000E+01
 -11.750  0.0000E+00  0.0000E+00  0.8000E+01
 -11.740  0.0000E+00  0.0000E+00  0.8000E+01
 -11.730  0.0000E+00  0.0000E+00  0.8000E+01
 -11.720  0.0000E+00  0.0000E+00  0.8000E+01
 -11.710  0.0000E+00  0.0000E+00  0.8000E+01
 -11.700  0.0000E+00  0.0000E+00  0.8000E+01
 -11.690  0.0000E+00  0.0000E+00  0.8000E+01
 -11.680  0.0000E+00  0.0000E+00  0.8000E+01
 -11.670  0.0000E+00  0.0000E+00  0.8000E+01
 -11.660  0.0000E+00  0.0000E+00  0.8000E+01
 -11.650  0.0000E+00  0.0000E+00  0.8000E+01
 -11.640  0.0000E+00  0.0000E+00  0.8000E+01
 -11.630  0.0000E+00  0.0000E+00  0.8000E+01
 -11.620  0.0000E+00  0.0000E+00  0.8000E+01
 -11.610  0.0000E+00  0.0000E+00  0.8000E+01
 -11.600  0.0000E+00  0.0000E+00  0.8000E+01
 -11.590  0.0000E+00  0.0000E+00  0.8000E+01
 -11.580  0.0000E+00  0.0000E+00  0.8000E+01
 -11.570  0.0000E+00  0.0000E+00  0.8000E+01
 -11.560  0.0000E+00  0.0000E+00  0.8000E+01
 -11.550  0.0000E+00  0.0000E+00  0.8000E+01
 -11.540  0.0000E+00  0.0000E+00  0.8000E+01
 -11.530  0.0000E+00  0.0000E+00  0.8000E+01
 -11.520  0.0000E+00  0.0000E+00  0.8000E+01
 -11.510  0.0000E+00  0.0000E+00  0.8000E+01
 -11.500  0.0000E+00  0.0000E+00  0.8000E+01
 -11.490  0.0000E+00  0.0000E+00  0.8000E+01
 -11.480  0.0000E+00  0.0000E+00  0.8000E+01
 -11.470  0.0000E+00  0.0000E+00  0.8000E+01
 -11.460  0.0000E+00  0.0000E+00  0.8000E+01
 -11.450  0.0000E+00  0.0000E+00  0.8000E+01
 -11.440  0.0000E+00  0.0000E+00  0.8000E+01
 -11.430  0.0000E+00  0.0000E+00  0.8000E+01
 -11.420  0.0000E+00  0.0000E+00  0.8000E+01
 -11.410  0.0000E+00  0.0000E+00  0.8000E+01
 -11.400  0.0000E+00  0.0000E+00  0.8000E+01
 -11.390  0.0000E+00  0.0000E+00  0.8000E+01
 -11.380  0.0000E+00  0.0000E+00  0.8000E+01
 -11.370  0.0000E+00  0.0000E+00  0.8000E+01
 -11.360  0.0000E+00  0.0000E+00  0.8000E+01
 -11.350  0.0000E+00  0.0000E+00  0.8000E+01
 -11.340  0.0000E+00  0.0000E+00  0.8000E+01
 -11.330  0.0000E+00  0.0000E+00  0.8000E+01
 -11.320  0.0000E+00  0.0000E+00  0.8000E+01
 -11.310  0.0000E+00  0.0000E+00  0.8000E+01
 -11.300  0.0000E+00  0.0000E+00  0.8000E+01
 -11.290  0.0000E+00  0.0000E+00  0.8000E+01
 -11.280  0.0000E+00  0.0000E+00  0.8000E+01
 -11.270  0.0000E+00  0.0000E+00  0.8000E+01
 -11.260  0.0000E+00  0.0000E+00  0.8000E+01
 -11.250  0.0000E+00  0.0000E+00  0.8000E+01
 -11.240  0.0000E+00  0.0000E+00  0.8000E+01
 -11.230  0.0000E+00  0.0000E+00  0.8000E+01
 -11.220  0.0000E+00  0.0000E+00  0.8000E+01
 -11.210  0.0000E+00  0.0000E+00  0.8000E+01
 -11.200  0.0000E+00  0.0000E+00  0.8000E+01
 -11.190  0.0000E+00  0.0000E+00  0.8000E+01
 -11.180  0.0000E+00  0.0000E+00  0.8000E+01
 -11.170  0.0000E+00  0.0000E+00  0.8000E+01
 -11.160  0.0000E+00  0.0000E+00  0.8000E+01
 -11.150  0.0000E+00  0.0000E+00  0.8000E+01
 -11.140  0.0000E+00  0.0000E+00  0.8000E+01
 -11.130  0.0000E+00  0.0000E+00  0.8000E+01
 -11.120  0.0000E+00  0.0000E+00  0.8000E+01
 -11.110  0.0000E+00  0.0000E+00  0.8000E+01
 -11.100  0.0000E+00  0.0000E+00  0.8000E+01
 -11.090  0.0000E+00  0.0000E+00  0.8000E+01
 -11.080  0.0000E+00  0.0000E+00  0.8000E+01
 -11.070  0.0000E+00  0.0000E+00  0.8000E+01
 -11.060  0.0000E+00  0.0000E+00  0.8000E+01
 -11.050  0.0000E+00  0.0000E+00  0.8000E+01
 -11.040  0.0000E+00  0.0000E+00  0.8000E+01
 -11.030  0.0000E+00  0.0000E+00  0.8000E+01
 -11.020  0.0000E+00  0.0000E+00  0.8000E+01
 -11.010  0.0000E+00  0.0000E+00  0.8000E+01
 -11.000  0.0000E+00  0.0000E+00  0.8000E+01
 -10.990  0.0000E+00  0.0000E+00  0.8000E+01
 -10.980  0.0000E+00  0.0000E+00  0.8000E+01
 -10.970  0.0000E+00  0.0000E+00  0.8000E+01
 -10.960  0.0000E+00  0.0000E+00  0.8000E+01
 -10.950  0.0000E+00  0.0000E+00  0.8000E+01
 -10.940  0.0000E+00  0.0000E+00  0.8000E+01
 -10.930  0.0000E+00  0.0000E+00  0.8000E+01
 -10.920  0.0000E+00  0.0000E+00  0.8000E+01
 -10.910  0.0000E+00  0.0000E+00  0.8000E+01
 -10.900  0.0000E+00  0.0000E+00  0.8000E+01
 -10.890  0.0000E+00  0.0000E+00  0.8000E+01
 -10.880  0.0000E+00  0.0000E+00  0.8000E+01
 -10.870  0.0000E+00  0.0000E+00  0.8000E+01
 -10.860  0.0000E+00  0.0000E+00  0.8000E+01
 -10.850  0.0000E+00  0.0000E+00  0.8000E+01
 -10.840  0.0000E+00  0.0000E+00  0.8000E+01
 -10.830  0.0000E+00  0.0000E+00  0.8000E+01
 -10.820  0.0000E+00  0.0000E+00  0.8000E+01
 -10.810  0.0000E+00  0.0000E+00  0.8000E+01
 -10.800  0.0000E+00  0.0000E+00  0.8000E+01
 -10.790  0.0000E+00  0.0000E+00  0.8000E+01
 -10.780  0.0000E+00  0.0000E+00  0.8000E+01
 -10.770  0.0000E+00  0.0000E+00  0.8000E+01
 -10.760  0.0000E+00  0.0000E+00  0.8000E+01
 -10.750  0.0000E+00  0.0000E+00  0.8000E+01
 -10.740  0.0000E+00  0.0000E+00  0.8000E+01
 -10.730  0.0000E+00  0.0000E+00  0.8000E+01
 -10.720  0.0000E+00  0.0000E+00  0.8000E+01
 -10.710  0.0000E+00  0.0000E+00  0.8000E+01
 -10.700  0.0000E+00  0.0000E+00  0.8000E+01
 -10.690  0.0000E+00  0.0000E+00  0.8000E+01
 -10.680  0.0000E+00  0.0000E+00  0.8000E+01
 -10.670  0.0000E+00  0.0000E+00  0.8000E+01
 -10.660  0.0000E+00  0.0000E+00  0.8000E+01
 -10.650  0.0000E+00  0.0000E+00  0.8000E+01
 -10.640  0.0000E+00  0.0000E+00  0.8000E+01
 -10.630  0.0000E+00  0.0000E+00  0.8000E+01
 -10.620  0.0000E+00  0.0000E+00  0.8000E+01
 -10.610  0.0000E+00  0.0000E+00  0.8000E+01
 -10.600  0.0000E+00  0.0000E+00  0.8000E+01
 -10.590  0.0000E+00  0.0000E+00  0.8000E+01
 -10.580  0.0000E+00  0.0000E+00  0.8000E+01
 -10.570  0.0000E+00  0.0000E+00  0.8000E+01
 -10.560  0.0000E+00  0.0000E+00  0.8000E+01
 -10.550  0.0000E+00  0.0000E+00  0.8000E+01
 -10.540  0.0000E+00  0.0000E+00  0.8000E+01
 -10.530  0.0000E+00  0.0000E+00  0.8000E+01
 -10.520  0.0000E+00  0.0000E+00  0.8000E+01
 -10.510  0.0000E+00  0.0000E+00  0.8000E+01
 -10.500  0.0000E+00  0.0000E+00  0.8000E+01
 -10.490  0.0000E+00  0.0000E+00  0.8000E+01
 -10.480  0.0000E+00  0.0000E+00  0.8000E+01
 -10.470  0.0000E+00  0.0000E+00  0.8000E+01
 -10.460  0.0000E+00  0.0000E+00  0.8000E+01
 -10.450  0.0000E+00  0.0000E+00  0.8000E+01
 -10.440  0.0000E+00  0.0000E+00  0.8000E+01
 -10.430  0.0000E+00  0.0000E+00  0.8000E+01
 -10.420  0.0000E+00  0.0000E+00  0.8000E+01
 -10.410  0.0000E+00  0.0000E+00  0.8000E+01
 -10.400  0.0000E+00  0.0000E+00  0.8000E+01
 -10.390  0.0000E+00  0.0000E+00  0.8000E+01
 -10.380  0.0000E+00  0.0000E+00  0.8000E+01
 -10.370  0.0000E+00  0.0000E+00  0.8000E+01
 -10.360  0.0000E+00  0.0000E+00  0.8000E+01
 -10.350  0.0000E+00  0.0000E+00  0.8000E+01
 -10.340  0.0000E+00  0.0000E+00  0.8000E+01
 -10.330  0.0000E+00  0.0000E+00  0.8000E+01
 -10.320  0.0000E+00  0.0000E+00  0.8000E+01
 -10.310  0.0000E+00  0.0000E+00  0.8000E+01
 -10.300  0.0000E+00  0.0000E+00  0.8000E+01
 -10.290  0.0000E+00  0.0000E+00  0.8000E+01
 -10.280  0.0000E+00  0.0000E+00  0.8000E+01
 -10.270  0.0000E+00  0.0000E+00  0.8000E+01
 -10.260  0.0000E+00  0.0000E+00  0.8000E+01
 -10.250  0.0000E+00  0.0000E+00  0.8000E+01
 -10.240  0.0000E+00  0.0000E+00  0.8000E+01
 -10.230  0.0000E+00  0.0000E+00  0.8000E+01
 -10.220  0.0000E+00  0.0000E+00  0.8000E+01
 -10.210  0.0000E+00  0.0000E+00  0.8000E+01
 -10.200  0.0000E+00  0.0000E+00  0.8000E+01
 -10.190  0.0000E+00  0.0000E+00  0.8000E+01
 -10.180  0.0000E+00  0.0000E+00  0.8000E+01
 -10.170  0.0000E+00  0.0000E+00  0.8000E+01
 -10.160  0.0000E+00  0.0000E+00  0.8000E+01
 -10.150  0.0000E+00  0.0000E+00  0.8000E+01
 -10.140  0.0000E+00  0.0000E+00  0.8000E+01
 -10.130  0.0000E+00  0.0000E+00  0.8000E+01
 -10.120  0.0000E+00  0.0000E+00  0.8000E+01
 -10.110  0.0000E+00  0.0000E+00  0.8000E+01
 -10.100  0.0000E+00  0.0000E+00  0.8000E+01
 -10.090  0.0000E+00  0.0000E+00  0.8000E+01
 -10.080  0.0000E+00  0.0000E+00  0.8000E+01
 -10.070  0.0000E+00  0.0000E+00  0.8000E+01
 -10.060  0.0000E+00  0.0000E+00  0.8000E+01
 -10.050  0.0000E+00  0.0000E+00  0.8000E+01
 -10.040  0.0000E+00  0.0000E+00  0.8000E+01
 -10.030  0.0000E+00  0.0000E+00  0.8000E+01
 -10.020  0.0000E+00  0.0000E+00  0.8000E+01
 -10.010  0.0000E+00  0.0000E+00  0.8000E+01
 -10.000  0.0000E+00  0.0000E+00  0.8000E+01
  -9.990  0.0000E+00  0.0000E+00  0.8000E+01
  -9.980  0.0000E+00  0.0000E+00  0.8000E+01
  -9.970  0.0000E+00  0.0000E+00  0.8000E+01
  -9.960  0.0000E+00  0.0000E+00  0.8000E+01
  -9.950  0.0000E+00  0.0000E+00  0.8000E+01
  -9.940  0.0000E+00  0.0000E+00  0.8000E+01
  -9.930  0.0000E+00  0.0000E+00  0.8000E+01
  -9.920  0.0000E+00  0.0000E+00  0.8000E+01
  -9.910  0.0000E+00  0.0000E+00  0.8000E+01
  -9.900  0.0000E+00  0.0000E+00  0.8000E+01
  -9.890  0.0000E+00  0.0000E+00  0.8000E+01
  -9.880  0.0000E+00  0.0000E+00  0.8000E+01
  -9.870  0.0000E+00  0.0000E+00  0.8000E+01
  -9.860  0.0000E+00  0.0000E+00  0.8000E+01
  -9.850  0.0000E+00  0.0000E+00  0.8000E+01
  -9.840  0.0000E+00  0.0000E+00  0.8000E+01
  -9.830  0.0000E+00  0.0000E+00  0.8000E+01
  -9.820  0.0000E+00  0.0000E+00  0.8000E+01
  -9.810  0.0000E+00  0.0000E+00  0.8000E+01
  -9.800  0.0000E+00  0.0000E+00  0.8000E+01
  -9.790  0.0000E+00  0.0000E+00  0.8000E+01
  -9.780  0.0000E+00  0.0000E+00  0.8000E+01
  -9.770  0.0000E+00  0.0000E+00  0.8000E+01
  -9.760  0.0000E+00  0.0000E+00  0.8000E+01
  -9.750  0.0000E+00  0.0000E+00  0.8000E+01
  -9.740  0.0000E+00  0.0000E+00  0.8000E+01
  -9.730  0.0000E+00  0.0000E+00  0.8000E+01
  -9.720  0.0000E+00  0.0000E+00  0.8000E+01
  -9.710  0.0000E+00  0.0000E+00  0.8000E+01
  -9.700  0.0000E+00  0.0000E+00  0.8000E+01
  -9.690  0.0000E+00  0.0000E+00  0.8000E+01
  -9.680  0.0000E+00  0.0000E+00  0.8000E+01
  -9.670  0.0000E+00  0.0000E+00  0.8000E+01
  -9.660  0.0000E+00  0.0000E+00  0.8000E+01
  -9.650  0.0000E+00  0.0000E+00  0.8000E+01
  -9.640  0.0000E+00  0.0000E+00  0.8000E+01
  -9.630  0.0000E+00  0.0000E+00  0.8000E+01
  -9.620  0.0000E+00  0.0000E+00  0.8000E+01
  -9.610  0.0000E+00  0.0000E+00  0.8000E+01
  -9.600  0.0000E+00  0.0000E+00  0.8000E+01
  -9.590  0.0000E+00  0.0000E+00  0.8000E+01
  -9.580  0.0000E+00  0.0000E+00  0.8000E+01
  -9.570  0.0000E+00  0.0000E+00  0.8000E+01
  -9.560  0.0000E+00  0.0000E+00  0.8000E+01
  -9.550  0.0000E+00  0.0000E+00  0.8000E+01
  -9.540  0.0000E+00  0.0000E+00  0.8000E+01
  -9.530  0.0000E+00  0.0000E+00  0.8000E+01
  -9.520  0.0000E+00  0.0000E+00  0.8000E+01
  -9.510  0.0000E+00  0.0000E+00  0.8000E+01
  -9.500  0.0000E+00  0.0000E+00  0.8000E+01
  -9.490  0.0000E+00  0.0000E+00  0.8000E+01
  -9.480  0.0000E+00  0.0000E+00  0.8000E+01
  -9.470  0.0000E+00  0.0000E+00  0.8000E+01
  -9.460  0.0000E+00  0.0000E+00  0.8000E+01
  -9.450  0.0000E+00  0.0000E+00  0.8000E+01
  -9.440  0.0000E+00  0.0000E+00  0.8000E+01
  -9.430  0.0000E+00  0.0000E+00  0.8000E+01
  -9.420  0.0000E+00  0.0000E+00  0.8000E+01
  -9.410  0.0000E+00  0.0000E+00  0.8000E+01
  -9.400  0.0000E+00  0.0000E+00  0.8000E+01
  -9.390  0.0000E+00  0.0000E+00  0.8000E+01
  -9.380  0.0000E+00  0.0000E+00  0.8000E+01
  -9.370  0.0000E+00  0.0000E+00  0.8000E+01
  -9.360  0.0000E+00  0.0000E+00  0.8000E+01
  -9.350  0.0000E+00  0.0000E+00  0.8000E+01
  -9.340  0.0000E+00  0.0000E+00  0.8000E+01
  -9.330  0.0000E+00  0.0000E+00  0.8000E+01
  -9.320  0.0000E+00  0.0000E+00  0.8000E+01
  -9.310  0.0000E+00  0.0000E+00  0.8000E+01
  -9.300  0.0000E+00  0.0000E+00  0.8000E+01
  -9.290  0.0000E+00  0.0000E+00  0.8000E+01
  -9.280  0.0000E+00  0.0000E+00  0.8000E+01
  -9.270  0.0000E+00  0.0000E+00  0.8000E+01
  -9.260  0.0000E+00  0.0000E+00  0.8000E+01
  -9.250  0.0000E+00  0.0000E+00  0.8000E+01
  -9.240  0.0000E+00  0.0000E+00  0.8000E+01
  -9.230  0.0000E+00  0.0000E+00  0.8000E+01
  -9.220  0.0000E+00  0.0000E+00  0.8000E+01
  -9.210  0.0000E+00  0.0000E+00  0.8000E+01
  -9.200  0.0000E+00  0.0000E+00  0.8000E+01
  -9.190  0.0000E+00  0.0000E+00  0.8000E+01
  -9.180  0.0000E+00  0.0000E+00  0.8000E+01
  -9.170  0.0000E+00  0.0000E+00  0.8000E+01
  -9.160  0.0000E+00  0.0000E+00  0.8000E+01
  -9.150  0.0000E+00  0.0000E+00  0.8000E+01
  -9.140  0.0000E+00  0.0000E+00  0.8000E+01
  -9.130  0.0000E+00  0.0000E+00  0.8000E+01
  -9.120  0.0000E+00  0.0000E+00  0.8000E+01
  -9.110  0.0000E+00  0.0000E+00  0.8000E+01
  -9.100  0.0000E+00  0.0000E+00  0.8000E+01
  -9.090  0.0000E+00  0.0000E+00  0.8000E+01
  -9.080  0.0000E+00  0.0000E+00  0.8000E+01
  -9.070  0.0000E+00  0.0000E+00  0.8000E+01
  -9.060  0.0000E+00  0.0000E+00  0.8000E+01
  -9.050  0.0000E+00  0.0000E+00  0.8000E+01
  -9.040  0.0000E+00  0.0000E+00  0.8000E+01
  -9.030  0.0000E+00  0.0000E+00  0.8000E+01
  -9.020  0.0000E+00  0.0000E+00  0.8000E+01
  -9.010  0.0000E+00  0.0000E+00  0.8000E+01
  -9.000  0.0000E+00  0.0000E+00  0.8000E+01
  -8.990  0.0000E+00  0.0000E+00  0.8000E+01
  -8.980  0.0000E+00  0.0000E+00  0.8000E+01
  -8.970  0.0000E+00  0.0000E+00  0.8000E+01
  -8.960  0.0000E+00  0.0000E+00  0.8000E+01
  -8.950  0.0000E+00  0.0000E+00  0.8000E+01
  -8.940  0.0000E+00  0.0000E+00  0.8000E+01
  -8.930  0.0000E+00  0.0000E+00  0.8000E+01
  -8.920  0.0000E+00  0.0000E+00  0.8000E+01
  -8.910  0.0000E+00  0.0000E+00  0.8000E+01
  -8.900  0.0000E+00  0.0000E+00  0.8000E+01
  -8.890  0.0000E+00  0.0000E+00  0.8000E+01
  -8.880  0.0000E+00  0.0000E+00  0.8000E+01
  -8.870  0.0000E+00  0.0000E+00  0.8000E+01
  -8.860  0.0000E+00  0.0000E+00  0.8000E+01
  -8.850  0.0000E+00  0.0000E+00  0.8000E+01
  -8.840  0.0000E+00  0.0000E+00  0.8000E+01
  -8.830  0.0000E+00  0.0000E+00  0.8000E+01
  -8.820  0.0000E+00  0.0000E+00  0.8000E+01
  -8.810  0.0000E+00  0.0000E+00  0.8000E+01
  -8.800  0.0000E+00  0.0000E+00  0.8000E+01
  -8.790  0.0000E+00  0.0000E+00  0.8000E+01
  -8.780  0.0000E+00  0.0000E+00  0.8000E+01
  -8.770  0.0000E+00  0.0000E+00  0.8000E+01
  -8.760  0.0000E+00  0.0000E+00  0.8000E+01
  -8.750  0.0000E+00  0.0000E+00  0.8000E+01
  -8.740  0.0000E+00  0.0000E+00  0.8000E+01
  -8.730  0.0000E+00  0.0000E+00  0.8000E+01
  -8.720  0.0000E+00  0.0000E+00  0.8000E+01
  -8.710  0.0000E+00  0.0000E+00  0.8000E+01
  -8.700  0.0000E+00  0.0000E+00  0.8000E+01
  -8.690  0.0000E+00  0.0000E+00  0.8000E+01
  -8.680  0.0000E+00  0.0000E+00  0.8000E+01
  -8.670  0.0000E+00  0.0000E+00  0.8000E+01
  -8.660  0.0000E+00  0.0000E+00  0.8000E+01
  -8.650  0.0000E+00  0.0000E+00  0.8000E+01
  -8.640  0.0000E+00  0.0000E+00  0.8000E+01
  -8.630  0.0000E+00  0.0000E+00  0.8000E+01
  -8.620  0.0000E+00  0.0000E+00  0.8000E+01
  -8.610  0.0000E+00  0.0000E+00  0.8000E+01
  -8.600  0.0000E+00  0.0000E+00  0.8000E+01
  -8.590  0.0000E+00  0.0000E+00  0.8000E+01
  -8.580  0.0000E+00  0.0000E+00  0.8000E+01
  -8.570  0.0000E+00  0.0000E+00  0.8000E+01
  -8.560  0.0000E+00  0.0000E+00  0.8000E+01
  -8.550  0.0000E+00  0.0000E+00  0.8000E+01
  -8.540  0.0000E+00  0.0000E+00  0.8000E+01
  -8.530  0.0000E+00  0.0000E+00  0.8000E+01
  -8.520  0.0000E+00  0.0000E+00  0.8000E+01
  -8.510  0.0000E+00  0.0000E+00  0.8000E+01
  -8.500  0.0000E+00  0.0000E+00  0.8000E+01
  -8.490  0.0000E+00  0.0000E+00  0.8000E+01
  -8.480  0.0000E+00  0.0000E+00  0.8000E+01
  -8.470  0.0000E+00  0.0000E+00  0.8000E+01
  -8.460  0.0000E+00  0.0000E+00  0.8000E+01
  -8.450  0.0000E+00  0.0000E+00  0.8000E+01
  -8.440  0.0000E+00  0.0000E+00  0.8000E+01
  -8.430  0.0000E+00  0.0000E+00  0.8000E+01
  -8.420  0.0000E+00  0.0000E+00  0.8000E+01
  -8.410  0.0000E+00  0.0000E+00  0.8000E+01
  -8.400  0.0000E+00  0.0000E+00  0.8000E+01
  -8.390  0.0000E+00  0.0000E+00  0.8000E+01
  -8.380  0.0000E+00  0.0000E+00  0.8000E+01
  -8.370  0.0000E+00  0.0000E+00  0.8000E+01
  -8.360  0.0000E+00  0.0000E+00  0.8000E+01
  -8.350  0.0000E+00  0.0000E+00  0.8000E+01
  -8.340  0.0000E+00  0.0000E+00  0.8000E+01
  -8.330  0.0000E+00  0.0000E+00  0.8000E+01
  -8.320  0.0000E+00  0.0000E+00  0.8000E+01
  -8.310  0.0000E+00  0.0000E+00  0.8000E+01
  -8.300  0.0000E+00  0.0000E+00  0.8000E+01
  -8.290  0.0000E+00  0.0000E+00  0.8000E+01
  -8.280  0.0000E+00  0.0000E+00  0.8000E+01
  -8.270  0.0000E+00  0.0000E+00  0.8000E+01
  -8.260  0.0000E+00  0.0000E+00  0.8000E+01
  -8.250  0.0000E+00  0.0000E+00  0.8000E+01
  -8.240  0.0000E+00  0.0000E+00  0.8000E+01
  -8.230  0.0000E+00  0.0000E+00  0.8000E+01
  -8.220  0.0000E+00  0.0000E+00  0.8000E+01
  -8.210  0.0000E+00  0.0000E+00  0.8000E+01
  -8.200  0.0000E+00  0.0000E+00  0.8000E+01
  -8.190  0.0000E+00  0.0000E+00  0.8000E+01
  -8.180  0.0000E+00  0.0000E+00  0.8000E+01
  -8.170  0.0000E+00  0.0000E+00  0.8000E+01
  -8.160  0.0000E+00  0.0000E+00  0.8000E+01
  -8.150  0.0000E+00  0.0000E+00  0.8000E+01
  -8.140  0.0000E+00  0.0000E+00  0.8000E+01
  -8.130  0.0000E+00  0.0000E+00  0.8000E+01
  -8.120  0.0000E+00  0.0000E+00  0.8000E+01
  -8.110  0.0000E+00  0.0000E+00  0.8000E+01
  -8.100  0.0000E+00  0.0000E+00  0.8000E+01
  -8.090  0.0000E+00  0.0000E+00  0.8000E+01
  -8.080  0.0000E+00  0.0000E+00  0.8000E+01
  -8.070  0.0000E+00  0.0000E+00  0.8000E+01
  -8.060  0.0000E+00  0.0000E+00  0.8000E+01
  -8.050  0.0000E+00  0.0000E+00  0.8000E+01
  -8.040  0.0000E+00  0.0000E+00  0.8000E+01
  -8.030  0.0000E+00  0.0000E+00  0.8000E+01
  -8.020  0.0000E+00  0.0000E+00  0.8000E+01
  -8.010  0.0000E+00  0.0000E+00  0.8000E+01
  -8.000  0.0000E+00  0.0000E+00  0.8000E+01
  -7.990  0.0000E+00  0.0000E+00  0.8000E+01
  -7.980  0.0000E+00  0.0000E+00  0.8000E+01
  -7.970  0.0000E+00  0.0000E+00  0.8000E+01
  -7.960  0.0000E+00  0.0000E+00  0.8000E+01
  -7.950  0.0000E+00  0.0000E+00  0.8000E+01
  -7.940  0.0000E+00  0.0000E+00  0.8000E+01
  -7.930  0.0000E+00  0.0000E+00  0.8000E+01
  -7.920  0.0000E+00  0.0000E+00  0.8000E+01
  -7.910  0.0000E+00  0.0000E+00  0.8000E+01
  -7.900  0.0000E+00  0.0000E+00  0.8000E+01
  -7.890  0.0000E+00  0.0000E+00  0.8000E+01
  -7.880  0.0000E+00  0.0000E+00  0.8000E+01
  -7.870  0.0000E+00  0.0000E+00  0.8000E+01
  -7.860  0.0000E+00  0.0000E+00  0.8000E+01
  -7.850  0.0000E+00  0.0000E+00  0.8000E+01
  -7.840  0.0000E+00  0.0000E+00  0.8000E+01
  -7.830  0.0000E+00  0.0000E+00  0.8000E+01
  -7.820  0.0000E+00  0.0000E+00  0.8000E+01
  -7.810  0.0000E+00  0.0000E+00  0.8000E+01
  -7.800  0.0000E+00  0.0000E+00  0.8000E+01
  -7.790  0.0000E+00  0.0000E+00  0.8000E+01
  -7.780  0.0000E+00  0.0000E+00  0.8000E+01
  -7.770  0.0000E+00  0.0000E+00  0.8000E+01
  -7.760  0.0000E+00  0.0000E+00  0.8000E+01
  -7.750  0.0000E+00  0.0000E+00  0.8000E+01
  -7.740  0.0000E+00  0.0000E+00  0.8000E+01
  -7.730  0.0000E+00  0.0000E+00  0.8000E+01
  -7.720  0.0000E+00  0.0000E+00  0.8000E+01
  -7.710  0.0000E+00  0.0000E+00  0.8000E+01
  -7.700  0.0000E+00  0.0000E+00  0.8000E+01
  -7.690  0.0000E+00  0.0000E+00  0.8000E+01
  -7.680  0.0000E+00  0.0000E+00  0.8000E+01
  -7.670  0.0000E+00  0.0000E+00  0.8000E+01
  -7.660  0.0000E+00  0.0000E+00  0.8000E+01
  -7.650  0.0000E+00  0.0000E+00  0.8000E+01
  -7.640  0.0000E+00  0.0000E+00  0.8000E+01
  -7.630  0.0000E+00  0.0000E+00  0.8000E+01
  -7.620  0.0000E+00  0.0000E+00  0.8000E+01
  -7.610  0.0000E+00  0.0000E+00  0.8000E+01
  -7.600  0.0000E+00  0.0000E+00  0.8000E+01
  -7.590  0.0000E+00  0.0000E+00  0.8000E+01
  -7.580  0.0000E+00  0.0000E+00  0.8000E+01
  -7.570  0.0000E+00  0.0000E+00  0.8000E+01
  -7.560  0.0000E+00  0.0000E+00  0.8000E+01
  -7.550  0.0000E+00  0.0000E+00  0.8000E+01
  -7.540  0.0000E+00  0.0000E+00  0.8000E+01
  -7.530  0.0000E+00  0.0000E+00  0.8000E+01
  -7.520  0.0000E+00  0.0000E+00  0.8000E+01
  -7.510  0.0000E+00  0.0000E+00  0.8000E+01
  -7.500  0.0000E+00  0.0000E+00  0.8000E+01
  -7.490  0.0000E+00  0.0000E+00  0.8000E+01
  -7.480  0.7217E-04  0.0000E+00  0.8000E+01
  -7.470  0.2683E-01  0.1445E-01  0.8000E+01
  -7.460  0.2692E+00  0.1814E+00  0.8002E+01
  -7.450  0.8325E+00  0.6701E+00  0.8011E+01
  -7.440  0.1672E+01  0.1476E+01  0.8034E+01
  -7.430  0.2375E+01  0.2254E+01  0.8074E+01
  -7.420  0.2790E+01  0.2725E+01  0.8125E+01
  -7.410  0.3038E+01  0.3013E+01  0.8183E+01
  -7.400  0.3228E+01  0.3207E+01  0.8245E+01
  -7.390  0.3479E+01  0.3466E+01  0.8312E+01
  -7.380  0.3696E+01  0.3682E+01  0.8383E+01
  -7.370  0.4110E+01  0.4061E+01  0.8461E+01
  -7.360  0.4824E+01  0.4735E+01  0.8549E+01
  -7.350  0.5557E+01  0.5489E+01  0.8652E+01
  -7.340  0.6255E+01  0.6242E+01  0.8770E+01
  -7.330  0.6394E+01  0.6454E+01  0.8898E+01
  -7.320  0.5992E+01  0.6110E+01  0.9023E+01
  -7.310  0.5342E+01  0.5456E+01  0.9138E+01
  -7.300  0.4882E+01  0.4957E+01  0.9241E+01
  -7.290  0.4605E+01  0.4634E+01  0.9336E+01
  -7.280  0.4586E+01  0.4575E+01  0.9428E+01
  -7.270  0.4677E+01  0.4567E+01  0.9520E+01
  -7.260  0.5202E+01  0.4928E+01  0.9616E+01
  -7.250  0.6225E+01  0.5863E+01  0.9726E+01
  -7.240  0.7322E+01  0.6944E+01  0.9858E+01
  -7.230  0.8355E+01  0.8042E+01  0.1001E+02
  -7.220  0.8406E+01  0.8418E+01  0.1018E+02
  -7.210  0.8278E+01  0.8330E+01  0.1035E+02
  -7.200  0.8235E+01  0.8297E+01  0.1051E+02
  -7.190  0.8338E+01  0.8404E+01  0.1068E+02
  -7.180  0.8402E+01  0.8487E+01  0.1085E+02
  -7.170  0.8437E+01  0.8515E+01  0.1102E+02
  -7.160  0.8546E+01  0.8612E+01  0.1119E+02
  -7.150  0.8529E+01  0.8609E+01  0.1136E+02
  -7.140  0.8329E+01  0.8419E+01  0.1153E+02
  -7.130  0.8071E+01  0.8180E+01  0.1169E+02
  -7.120  0.9993E+01  0.9689E+01  0.1187E+02
  -7.110  0.9883E+01  0.1016E+02  0.1207E+02
  -7.100  0.9365E+01  0.9374E+01  0.1226E+02
  -7.090  0.9756E+01  0.8858E+01  0.1244E+02
  -7.080  0.1312E+02  0.1258E+02  0.1267E+02
  -7.070  0.1358E+02  0.1368E+02  0.1294E+02
  -7.060  0.1407E+02  0.1428E+02  0.1321E+02
  -7.050  0.1354E+02  0.1386E+02  0.1350E+02
  -7.040  0.1270E+02  0.1294E+02  0.1376E+02
  -7.030  0.1098E+02  0.1118E+02  0.1400E+02
  -7.020  0.9437E+01  0.9591E+01  0.1420E+02
  -7.010  0.8671E+01  0.8725E+01  0.1438E+02
  -7.000  0.8803E+01  0.8857E+01  0.1456E+02
  -6.990  0.1178E+02  0.1143E+02  0.1476E+02
  -6.980  0.1169E+02  0.1209E+02  0.1500E+02
  -6.970  0.1022E+02  0.1023E+02  0.1521E+02
  -6.960  0.1053E+02  0.1051E+02  0.1542E+02
  -6.950  0.1091E+02  0.1088E+02  0.1564E+02
  -6.940  0.1753E+02  0.1331E+02  0.1588E+02
  -6.930  0.1332E+02  0.1321E+02  0.1618E+02
  -6.920  0.1514E+02  0.1472E+02  0.1646E+02
  -6.910  0.1851E+02  0.1789E+02  0.1679E+02
  -6.900  0.2153E+02  0.2110E+02  0.1719E+02
  -6.890  0.2741E+02  0.2644E+02  0.1765E+02
  -6.880  0.2381E+02  0.2329E+02  0.1814E+02
  -6.870  0.2708E+02  0.2647E+02  0.1864E+02
  -6.860  0.2692E+02  0.2733E+02  0.1920E+02
  -6.850  0.2351E+02  0.2470E+02  0.1971E+02
  -6.840  0.1506E+02  0.1637E+02  0.2012E+02
  -6.830  0.1199E+02  0.1221E+02  0.2039E+02
  -6.820  0.9834E+01  0.9669E+01  0.2061E+02
  -6.810  0.9886E+01  0.9607E+01  0.2080E+02
  -6.800  0.1080E+02  0.1025E+02  0.2100E+02
  -6.790  0.1347E+02  0.1201E+02  0.2123E+02
  -6.780  0.1856E+02  0.1689E+02  0.2153E+02
  -6.770  0.2095E+02  0.2075E+02  0.2192E+02
  -6.760  0.2086E+02  0.2097E+02  0.2234E+02
  -6.750  0.2042E+02  0.2086E+02  0.2276E+02
  -6.740  0.2006E+02  0.2068E+02  0.2317E+02
  -6.730  0.2964E+02  0.2148E+02  0.2358E+02
  -6.720  0.4062E+02  0.3718E+02  0.2420E+02
  -6.710  0.2565E+02  0.2629E+02  0.2479E+02
  -6.700  0.3072E+02  0.3017E+02  0.2547E+02
  -6.690  0.3135E+02  0.3167E+02  0.2610E+02
  -6.680  0.2925E+02  0.2901E+02  0.2670E+02
  -6.670  0.3089E+02  0.3043E+02  0.2729E+02
  -6.660  0.3346E+02  0.3344E+02  0.2794E+02
  -6.650  0.3338E+02  0.3294E+02  0.2861E+02
  -6.640  0.3293E+02  0.3168E+02  0.2926E+02
  -6.630  0.3386E+02  0.3430E+02  0.2992E+02
  -6.620  0.5759E+02  0.7878E+02  0.3093E+02
  -6.610  0.4751E+02  0.4783E+02  0.3196E+02
  -6.600  0.4502E+02  0.4485E+02  0.3289E+02
  -6.590  0.4362E+02  0.4571E+02  0.3376E+02
  -6.580  0.4139E+02  0.4261E+02  0.3461E+02
  -6.570  0.3250E+02  0.3284E+02  0.3535E+02
  -6.560  0.3497E+02  0.3451E+02  0.3602E+02
  -6.550  0.4006E+02  0.3917E+02  0.3676E+02
  -6.540  0.4480E+02  0.4411E+02  0.3760E+02
  -6.530  0.4577E+02  0.4611E+02  0.3851E+02
  -6.520  0.4370E+02  0.4393E+02  0.3941E+02
  -6.510  0.4355E+02  0.4310E+02  0.4028E+02
  -6.500  0.4295E+02  0.4167E+02  0.4114E+02
  -6.490  0.6218E+02  0.6345E+02  0.4223E+02
  -6.480  0.6263E+02  0.6070E+02  0.4351E+02
  -6.470  0.6979E+02  0.6621E+02  0.4480E+02
  -6.460  0.5661E+02  0.5984E+02  0.4604E+02
  -6.450  0.9784E+02  0.1180E+03  0.4732E+02
  -6.440  0.5018E+02  0.4999E+02  0.4902E+02
  -6.430  0.5605E+02  0.5634E+02  0.5010E+02
  -6.420  0.5098E+02  0.5256E+02  0.5120E+02
  -6.410  0.7377E+02  0.6838E+02  0.5239E+02
  -6.400  0.2608E+02  0.2588E+02  0.5318E+02
  -6.390  0.3090E+02  0.2956E+02  0.5372E+02
  -6.380  0.3877E+02  0.3731E+02  0.5442E+02
  -6.370  0.6024E+02  0.5768E+02  0.5537E+02
  -6.360  0.5582E+02  0.5528E+02  0.5648E+02
  -6.350  0.6252E+02  0.7065E+02  0.5774E+02
  -6.340  0.7949E+02  0.7527E+02  0.5913E+02
  -6.330  0.6549E+02  0.6860E+02  0.6064E+02
  -6.320  0.5285E+02  0.5430E+02  0.6183E+02
  -6.310  0.4540E+02  0.4882E+02  0.6287E+02
  -6.300  0.2478E+02  0.2737E+02  0.6361E+02
  -6.290  0.8280E+01  0.9327E+01  0.6394E+02
  -6.280  0.9062E-01  0.1097E+00  0.6400E+02
  -6.270  0.9745E+00  0.0000E+00  0.6400E+02
  -6.260  0.3297E+01  0.0000E+00  0.6402E+02
  -6.250  0.7092E+01  0.0000E+00  0.6408E+02
  -6.240  0.1199E+02  0.0000E+00  0.6417E+02
  -6.230  0.2220E+02  0.6275E+00  0.6433E+02
  -6.220  0.2527E+02  0.3353E+01  0.6460E+02
  -6.210  0.2373E+02  0.7938E+01  0.6491E+02
  -6.200  0.6699E+01  0.1401E+02  0.6516E+02
  -6.190  0.1967E+00  0.2615E+02  0.6538E+02
  -6.180  0.0000E+00  0.2587E+02  0.6565E+02
  -6.170  0.0000E+00  0.1680E+02  0.6590E+02
  -6.160  0.0000E+00  0.3994E+01  0.6599E+02
  -6.150  0.0000E+00  0.1307E-02  0.6600E+02
  -6.140  0.0000E+00  0.0000E+00  0.6600E+02
  -6.130  0.0000E+00  0.0000E+00  0.6600E+02
  -6.120  0.0000E+00  0.0000E+00  0.6600E+02
  -6.110  0.0000E+00  0.0000E+00  0.6600E+02
  -6.100  0.0000E+00  0.0000E+00  0.6600E+02
  -6.090  0.1903E+02  0.0000E+00  0.6602E+02
  -6.080  0.5478E+02  0.0000E+00  0.6654E+02
  -6.070  0.6307E+02  0.0000E+00  0.6707E+02
  -6.060  0.6947E+02  0.0000E+00  0.6784E+02
  -6.050  0.6715E+02  0.3906E-02  0.6854E+02
  -6.040  0.2346E+01  0.6345E+02  0.6933E+02
  -6.030  0.0000E+00  0.5785E+02  0.6994E+02
  -6.020  0.0000E+00  0.7267E+02  0.7075E+02
  -6.010  0.0000E+00  0.7574E+02  0.7152E+02
  -6.000  0.0000E+00  0.2367E+00  0.7200E+02
  -5.990  0.0000E+00  0.0000E+00  0.7200E+02
  -5.980  0.0000E+00  0.0000E+00  0.7200E+02
  -5.970  0.0000E+00  0.0000E+00  0.7200E+02
  -5.960  0.0000E+00  0.0000E+00  0.7200E+02
  -5.950  0.0000E+00  0.0000E+00  0.7200E+02
  -5.940  0.0000E+00  0.0000E+00  0.7200E+02
  -5.930  0.0000E+00  0.0000E+00  0.7200E+02
  -5.920  0.0000E+00  0.0000E+00  0.7200E+02
  -5.910  0.0000E+00  0.0000E+00  0.7200E+02
  -5.900  0.0000E+00  0.0000E+00  0.7200E+02
  -5.890  0.0000E+00  0.0000E+00  0.7200E+02
  -5.880  0.0000E+00  0.0000E+00  0.7200E+02
  -5.870  0.0000E+00  0.0000E+00  0.7200E+02
  -5.860  0.0000E+00  0.0000E+00  0.7200E+02
  -5.850  0.0000E+00  0.0000E+00  0.7200E+02
  -5.840  0.0000E+00  0.0000E+00  0.7200E+02
  -5.830  0.0000E+00  0.0000E+00  0.7200E+02
  -5.820  0.0000E+00  0.0000E+00  0.7200E+02
  -5.810  0.0000E+00  0.0000E+00  0.7200E+02
  -5.800  0.0000E+00  0.0000E+00  0.7200E+02
  -5.790  0.0000E+00  0.0000E+00  0.7200E+02
  -5.780  0.0000E+00  0.0000E+00  0.7200E+02
  -5.770  0.0000E+00  0.0000E+00  0.7200E+02
  -5.760  0.0000E+00  0.0000E+00  0.7200E+02
  -5.750  0.0000E+00  0.0000E+00  0.7200E+02
  -5.740  0.0000E+00  0.0000E+00  0.7200E+02
  -5.730  0.0000E+00  0.0000E+00  0.7200E+02
  -5.720  0.0000E+00  0.0000E+00  0.7200E+02
  -5.710  0.0000E+00  0.0000E+00  0.7200E+02
  -5.700  0.0000E+00  0.0000E+00  0.7200E+02
  -5.690  0.0000E+00  0.0000E+00  0.7200E+02
  -5.680  0.0000E+00  0.0000E+00  0.7200E+02
  -5.670  0.0000E+00  0.0000E+00  0.7200E+02
  -5.660  0.0000E+00  0.0000E+00  0.7200E+02
  -5.650  0.0000E+00  0.0000E+00  0.7200E+02
  -5.640  0.0000E+00  0.0000E+00  0.7200E+02
  -5.630  0.0000E+00  0.0000E+00  0.7200E+02
  -5.620  0.0000E+00  0.0000E+00  0.7200E+02
  -5.610  0.0000E+00  0.0000E+00  0.7200E+02
  -5.600  0.0000E+00  0.0000E+00  0.7200E+02
  -5.590  0.0000E+00  0.0000E+00  0.7200E+02
  -5.580  0.0000E+00  0.0000E+00  0.7200E+02
  -5.570  0.0000E+00  0.0000E+00  0.7200E+02
  -5.560  0.0000E+00  0.0000E+00  0.7200E+02
  -5.550  0.0000E+00  0.0000E+00  0.7200E+02
  -5.540  0.0000E+00  0.0000E+00  0.7200E+02
  -5.530  0.0000E+00  0.0000E+00  0.7200E+02
  -5.520  0.0000E+00  0.0000E+00  0.7200E+02
  -5.510  0.0000E+00  0.0000E+00  0.7200E+02
  -5.500  0.0000E+00  0.0000E+00  0.7200E+02
  -5.490  0.0000E+00  0.0000E+00  0.7200E+02
  -5.480  0.0000E+00  0.0000E+00  0.7200E+02
  -5.470  0.0000E+00  0.0000E+00  0.7200E+02
  -5.460  0.0000E+00  0.0000E+00  0.7200E+02
  -5.450  0.0000E+00  0.0000E+00  0.7200E+02
  -5.440  0.0000E+00  0.0000E+00  0.7200E+02
  -5.430  0.0000E+00  0.0000E+00  0.7200E+02
  -5.420  0.0000E+00  0.0000E+00  0.7200E+02
  -5.410  0.0000E+00  0.0000E+00  0.7200E+02
  -5.400  0.0000E+00  0.0000E+00  0.7200E+02
  -5.390  0.0000E+00  0.0000E+00  0.7200E+02
  -5.380  0.0000E+00  0.0000E+00  0.7200E+02
  -5.370  0.0000E+00  0.0000E+00  0.7200E+02
  -5.360  0.0000E+00  0.0000E+00  0.7200E+02
  -5.350  0.0000E+00  0.0000E+00  0.7200E+02
  -5.340  0.0000E+00  0.0000E+00  0.7200E+02
  -5.330  0.0000E+00  0.0000E+00  0.7200E+02
  -5.320  0.0000E+00  0.0000E+00  0.7200E+02
  -5.310  0.0000E+00  0.0000E+00  0.7200E+02
  -5.300  0.0000E+00  0.0000E+00  0.7200E+02
  -5.290  0.0000E+00  0.0000E+00  0.7200E+02
  -5.280  0.0000E+00  0.0000E+00  0.7200E+02
  -5.270  0.0000E+00  0.0000E+00  0.7200E+02
  -5.260  0.0000E+00  0.0000E+00  0.7200E+02
  -5.250  0.0000E+00  0.0000E+00  0.7200E+02
  -5.240  0.0000E+00  0.0000E+00  0.7200E+02
  -5.230  0.0000E+00  0.0000E+00  0.7200E+02
  -5.220  0.0000E+00  0.0000E+00  0.7200E+02
  -5.210  0.0000E+00  0.0000E+00  0.7200E+02
  -5.200  0.0000E+00  0.0000E+00  0.7200E+02
  -5.190  0.0000E+00  0.0000E+00  0.7200E+02
  -5.180  0.0000E+00  0.0000E+00  0.7200E+02
  -5.170  0.0000E+00  0.0000E+00  0.7200E+02
  -5.160  0.0000E+00  0.0000E+00  0.7200E+02
  -5.150  0.0000E+00  0.0000E+00  0.7200E+02
  -5.140  0.0000E+00  0.0000E+00  0.7200E+02
  -5.130  0.0000E+00  0.0000E+00  0.7200E+02
  -5.120  0.0000E+00  0.0000E+00  0.7200E+02
  -5.110  0.0000E+00  0.0000E+00  0.7200E+02
  -5.100  0.0000E+00  0.0000E+00  0.7200E+02
  -5.090  0.0000E+00  0.0000E+00  0.7200E+02
  -5.080  0.0000E+00  0.0000E+00  0.7200E+02
  -5.070  0.0000E+00  0.0000E+00  0.7200E+02
  -5.060  0.0000E+00  0.0000E+00  0.7200E+02
  -5.050  0.0000E+00  0.0000E+00  0.7200E+02
  -5.040  0.0000E+00  0.0000E+00  0.7200E+02
  -5.030  0.0000E+00  0.0000E+00  0.7200E+02
  -5.020  0.0000E+00  0.0000E+00  0.7200E+02
  -5.010  0.0000E+00  0.0000E+00  0.7200E+02
  -5.000  0.0000E+00  0.0000E+00  0.7200E+02
  -4.990  0.0000E+00  0.0000E+00  0.7200E+02
  -4.980  0.0000E+00  0.0000E+00  0.7200E+02
  -4.970  0.0000E+00  0.0000E+00  0.7200E+02
  -4.960  0.0000E+00  0.0000E+00  0.7200E+02
  -4.950  0.0000E+00  0.0000E+00  0.7200E+02
  -4.940  0.0000E+00  0.0000E+00  0.7200E+02
  -4.930  0.0000E+00  0.0000E+00  0.7200E+02
  -4.920  0.0000E+00  0.0000E+00  0.7200E+02
  -4.910  0.0000E+00  0.0000E+00  0.7200E+02
  -4.900  0.0000E+00  0.0000E+00  0.7200E+02
  -4.890  0.0000E+00  0.0000E+00  0.7200E+02
  -4.880  0.0000E+00  0.0000E+00  0.7200E+02
  -4.870  0.0000E+00  0.0000E+00  0.7200E+02
  -4.860  0.0000E+00  0.0000E+00  0.7200E+02
  -4.850  0.0000E+00  0.0000E+00  0.7200E+02
  -4.840  0.0000E+00  0.0000E+00  0.7200E+02
  -4.830  0.0000E+00  0.0000E+00  0.7200E+02
  -4.820  0.0000E+00  0.0000E+00  0.7200E+02
  -4.810  0.0000E+00  0.0000E+00  0.7200E+02
  -4.800  0.0000E+00  0.0000E+00  0.7200E+02
  -4.790  0.0000E+00  0.0000E+00  0.7200E+02
  -4.780  0.0000E+00  0.0000E+00  0.7200E+02
  -4.770  0.0000E+00  0.0000E+00  0.7200E+02
  -4.760  0.0000E+00  0.0000E+00  0.7200E+02
  -4.750  0.0000E+00  0.0000E+00  0.7200E+02
  -4.740  0.0000E+00  0.0000E+00  0.7200E+02
  -4.730  0.0000E+00  0.0000E+00  0.7200E+02
  -4.720  0.0000E+00  0.0000E+00  0.7200E+02
  -4.710  0.0000E+00  0.0000E+00  0.7200E+02
  -4.700  0.0000E+00  0.0000E+00  0.7200E+02
  -4.690  0.0000E+00  0.0000E+00  0.7200E+02
  -4.680  0.0000E+00  0.0000E+00  0.7200E+02
  -4.670  0.0000E+00  0.0000E+00  0.7200E+02
  -4.660  0.0000E+00  0.0000E+00  0.7200E+02
  -4.650  0.0000E+00  0.0000E+00  0.7200E+02
  -4.640  0.0000E+00  0.0000E+00  0.7200E+02
  -4.630  0.0000E+00  0.0000E+00  0.7200E+02
  -4.620  0.0000E+00  0.0000E+00  0.7200E+02
  -4.610  0.0000E+00  0.0000E+00  0.7200E+02
  -4.600  0.0000E+00  0.0000E+00  0.7200E+02
  -4.590  0.0000E+00  0.0000E+00  0.7200E+02
  -4.580  0.0000E+00  0.0000E+00  0.7200E+02
  -4.570  0.0000E+00  0.0000E+00  0.7200E+02
  -4.560  0.0000E+00  0.0000E+00  0.7200E+02
  -4.550  0.0000E+00  0.0000E+00  0.7200E+02
  -4.540  0.0000E+00  0.0000E+00  0.7200E+02
  -4.530  0.0000E+00  0.0000E+00  0.7200E+02
  -4.520  0.0000E+00  0.0000E+00  0.7200E+02
  -4.510  0.0000E+00  0.0000E+00  0.7200E+02
  -4.500  0.0000E+00  0.0000E+00  0.7200E+02
  -4.490  0.0000E+00  0.0000E+00  0.7200E+02
  -4.480  0.0000E+00  0.0000E+00  0.7200E+02
  -4.470  0.0000E+00  0.0000E+00  0.7200E+02
  -4.460  0.0000E+00  0.0000E+00  0.7200E+02
  -4.450  0.0000E+00  0.0000E+00  0.7200E+02
  -4.440  0.0000E+00  0.0000E+00  0.7200E+02
  -4.430  0.0000E+00  0.0000E+00  0.7200E+02
  -4.420  0.0000E+00  0.0000E+00  0.7200E+02
  -4.410  0.0000E+00  0.0000E+00  0.7200E+02
  -4.400  0.0000E+00  0.0000E+00  0.7200E+02
  -4.390  0.0000E+00  0.0000E+00  0.7200E+02
  -4.380  0.0000E+00  0.0000E+00  0.7200E+02
  -4.370  0.0000E+00  0.0000E+00  0.7200E+02
  -4.360  0.0000E+00  0.0000E+00  0.7200E+02
  -4.350  0.0000E+00  0.0000E+00  0.7200E+02
  -4.340  0.0000E+00  0.0000E+00  0.7200E+02
  -4.330  0.0000E+00  0.0000E+00  0.7200E+02
  -4.320  0.0000E+00  0.0000E+00  0.7200E+02
  -4.310  0.0000E+00  0.0000E+00  0.7200E+02
  -4.300  0.0000E+00  0.0000E+00  0.7200E+02
  -4.290  0.0000E+00  0.0000E+00  0.7200E+02
  -4.280  0.0000E+00  0.0000E+00  0.7200E+02
  -4.270  0.0000E+00  0.0000E+00  0.7200E+02
  -4.260  0.0000E+00  0.0000E+00  0.7200E+02
  -4.250  0.0000E+00  0.0000E+00  0.7200E+02
  -4.240  0.0000E+00  0.0000E+00  0.7200E+02
  -4.230  0.0000E+00  0.0000E+00  0.7200E+02
  -4.220  0.0000E+00  0.0000E+00  0.7200E+02
  -4.210  0.0000E+00  0.0000E+00  0.7200E+02
  -4.200  0.0000E+00  0.0000E+00  0.7200E+02
  -4.190  0.0000E+00  0.0000E+00  0.7200E+02
  -4.180  0.0000E+00  0.0000E+00  0.7200E+02
  -4.170  0.0000E+00  0.0000E+00  0.7200E+02
  -4.160  0.0000E+00  0.0000E+00  0.7200E+02
  -4.150  0.0000E+00  0.0000E+00  0.7200E+02
  -4.140  0.0000E+00  0.0000E+00  0.7200E+02
  -4.130  0.0000E+00  0.0000E+00  0.7200E+02
  -4.120  0.0000E+00  0.0000E+00  0.7200E+02
  -4.110  0.0000E+00  0.0000E+00  0.7200E+02
  -4.100  0.0000E+00  0.0000E+00  0.7200E+02
  -4.090  0.0000E+00  0.0000E+00  0.7200E+02
  -4.080  0.0000E+00  0.0000E+00  0.7200E+02
  -4.070  0.0000E+00  0.0000E+00  0.7200E+02
  -4.060  0.0000E+00  0.0000E+00  0.7200E+02
  -4.050  0.0000E+00  0.0000E+00  0.7200E+02
  -4.040  0.0000E+00  0.0000E+00  0.7200E+02
  -4.030  0.0000E+00  0.0000E+00  0.7200E+02
  -4.020  0.0000E+00  0.0000E+00  0.7200E+02
  -4.010  0.0000E+00  0.0000E+00  0.7200E+02
  -4.000  0.0000E+00  0.0000E+00  0.7200E+02
  -3.990  0.0000E+00  0.0000E+00  0.7200E+02
  -3.980  0.0000E+00  0.0000E+00  0.7200E+02
  -3.970  0.0000E+00  0.0000E+00  0.7200E+02
  -3.960  0.0000E+00  0.0000E+00  0.7200E+02
  -3.950  0.0000E+00  0.0000E+00  0.7200E+02
  -3.940  0.0000E+00  0.0000E+00  0.7200E+02
  -3.930  0.0000E+00  0.0000E+00  0.7200E+02
  -3.920  0.0000E+00  0.0000E+00  0.7200E+02
  -3.910  0.0000E+00  0.0000E+00  0.7200E+02
  -3.900  0.0000E+00  0.0000E+00  0.7200E+02
  -3.890  0.0000E+00  0.0000E+00  0.7200E+02
  -3.880  0.0000E+00  0.0000E+00  0.7200E+02
  -3.870  0.0000E+00  0.0000E+00  0.7200E+02
  -3.860  0.0000E+00  0.0000E+00  0.7200E+02
  -3.850  0.0000E+00  0.0000E+00  0.7200E+02
  -3.840  0.0000E+00  0.0000E+00  0.7200E+02
  -3.830  0.0000E+00  0.0000E+00  0.7200E+02
  -3.820  0.0000E+00  0.0000E+00  0.7200E+02
  -3.810  0.0000E+00  0.0000E+00  0.7200E+02
  -3.800  0.0000E+00  0.0000E+00  0.7200E+02
  -3.790  0.0000E+00  0.0000E+00  0.7200E+02
  -3.780  0.0000E+00  0.0000E+00  0.7200E+02
  -3.770  0.0000E+00  0.0000E+00  0.7200E+02
  -3.760  0.0000E+00  0.0000E+00  0.7200E+02
  -3.750  0.0000E+00  0.0000E+00  0.7200E+02
  -3.740  0.0000E+00  0.0000E+00  0.7200E+02
  -3.730  0.0000E+00  0.0000E+00  0.7200E+02
  -3.720  0.0000E+00  0.0000E+00  0.7200E+02
  -3.710  0.0000E+00  0.0000E+00  0.7200E+02
  -3.700  0.0000E+00  0.0000E+00  0.7200E+02
  -3.690  0.0000E+00  0.0000E+00  0.7200E+02
  -3.680  0.0000E+00  0.0000E+00  0.7200E+02
  -3.670  0.0000E+00  0.0000E+00  0.7200E+02
  -3.660  0.0000E+00  0.0000E+00  0.7200E+02
  -3.650  0.0000E+00  0.0000E+00  0.7200E+02
  -3.640  0.0000E+00  0.0000E+00  0.7200E+02
  -3.630  0.0000E+00  0.0000E+00  0.7200E+02
  -3.620  0.0000E+00  0.0000E+00  0.7200E+02
  -3.610  0.0000E+00  0.0000E+00  0.7200E+02
  -3.600  0.0000E+00  0.0000E+00  0.7200E+02
  -3.590  0.0000E+00  0.0000E+00  0.7200E+02
  -3.580  0.0000E+00  0.0000E+00  0.7200E+02
  -3.570  0.0000E+00  0.0000E+00  0.7200E+02
  -3.560  0.0000E+00  0.0000E+00  0.7200E+02
  -3.550  0.0000E+00  0.0000E+00  0.7200E+02
  -3.540  0.0000E+00  0.0000E+00  0.7200E+02
  -3.530  0.0000E+00  0.0000E+00  0.7200E+02
  -3.520  0.0000E+00  0.0000E+00  0.7200E+02
  -3.510  0.0000E+00  0.0000E+00  0.7200E+02
  -3.500  0.0000E+00  0.0000E+00  0.7200E+02
  -3.490  0.0000E+00  0.0000E+00  0.7200E+02
  -3.480  0.0000E+00  0.0000E+00  0.7200E+02
  -3.470  0.0000E+00  0.0000E+00  0.7200E+02
  -3.460  0.0000E+00  0.0000E+00  0.7200E+02
  -3.450  0.0000E+00  0.0000E+00  0.7200E+02
  -3.440  0.0000E+00  0.0000E+00  0.7200E+02
  -3.430  0.0000E+00  0.0000E+00  0.7200E+02
  -3.420  0.0000E+00  0.0000E+00  0.7200E+02
  -3.410  0.0000E+00  0.0000E+00  0.7200E+02
  -3.400  0.0000E+00  0.0000E+00  0.7200E+02
  -3.390  0.0000E+00  0.0000E+00  0.7200E+02
  -3.380  0.0000E+00  0.0000E+00  0.7200E+02
  -3.370  0.0000E+00  0.0000E+00  0.7200E+02
  -3.360  0.0000E+00  0.0000E+00  0.7200E+02
  -3.350  0.0000E+00  0.0000E+00  0.7200E+02
  -3.340  0.0000E+00  0.0000E+00  0.7200E+02
  -3.330  0.0000E+00  0.0000E+00  0.7200E+02
  -3.320  0.0000E+00  0.0000E+00  0.7200E+02
  -3.310  0.0000E+00  0.0000E+00  0.7200E+02
  -3.300  0.0000E+00  0.0000E+00  0.7200E+02
  -3.290  0.0000E+00  0.0000E+00  0.7200E+02
  -3.280  0.0000E+00  0.0000E+00  0.7200E+02
  -3.270  0.0000E+00  0.0000E+00  0.7200E+02
  -3.260  0.0000E+00  0.0000E+00  0.7200E+02
  -3.250  0.0000E+00  0.0000E+00  0.7200E+02
  -3.240  0.0000E+00  0.0000E+00  0.7200E+02
  -3.230  0.0000E+00  0.0000E+00  0.7200E+02
  -3.220  0.0000E+00  0.0000E+00  0.7200E+02
  -3.210  0.0000E+00  0.0000E+00  0.7200E+02
  -3.200  0.0000E+00  0.0000E+00  0.7200E+02
  -3.190  0.0000E+00  0.0000E+00  0.7200E+02
  -3.180  0.0000E+00  0.0000E+00  0.7200E+02
  -3.170  0.0000E+00  0.0000E+00  0.7200E+02
  -3.160  0.0000E+00  0.0000E+00  0.7200E+02
  -3.150  0.0000E+00  0.0000E+00  0.7200E+02
  -3.140  0.0000E+00  0.0000E+00  0.7200E+02
  -3.130  0.0000E+00  0.0000E+00  0.7200E+02
  -3.120  0.0000E+00  0.0000E+00  0.7200E+02
  -3.110  0.0000E+00  0.0000E+00  0.7200E+02
  -3.100  0.0000E+00  0.0000E+00  0.7200E+02
  -3.090  0.0000E+00  0.0000E+00  0.7200E+02
  -3.080  0.0000E+00  0.0000E+00  0.7200E+02
  -3.070  0.0000E+00  0.0000E+00  0.7200E+02
  -3.060  0.0000E+00  0.0000E+00  0.7200E+02
  -3.050  0.0000E+00  0.0000E+00  0.7200E+02
  -3.040  0.0000E+00  0.0000E+00  0.7200E+02
  -3.030  0.0000E+00  0.0000E+00  0.7200E+02
  -3.020  0.0000E+00  0.0000E+00  0.7200E+02
  -3.010  0.0000E+00  0.0000E+00  0.7200E+02
  -3.000  0.0000E+00  0.0000E+00  0.7200E+02
  -2.990  0.0000E+00  0.0000E+00  0.7200E+02
  -2.980  0.0000E+00  0.0000E+00  0.7200E+02
  -2.970  0.0000E+00  0.0000E+00  0.7200E+02
  -2.960  0.0000E+00  0.0000E+00  0.7200E+02
  -2.950  0.0000E+00  0.0000E+00  0.7200E+02
  -2.940  0.0000E+00  0.0000E+00  0.7200E+02
  -2.930  0.0000E+00  0.0000E+00  0.7200E+02
  -2.920  0.0000E+00  0.0000E+00  0.7200E+02
  -2.910  0.0000E+00  0.0000E+00  0.7200E+02
  -2.900  0.0000E+00  0.0000E+00  0.7200E+02
  -2.890  0.0000E+00  0.0000E+00  0.7200E+02
  -2.880  0.0000E+00  0.0000E+00  0.7200E+02
  -2.870  0.0000E+00  0.0000E+00  0.7200E+02
  -2.860  0.0000E+00  0.0000E+00  0.7200E+02
  -2.850  0.0000E+00  0.0000E+00  0.7200E+02
  -2.840  0.0000E+00  0.0000E+00  0.7200E+02
  -2.830  0.0000E+00  0.0000E+00  0.7200E+02
  -2.820  0.0000E+00  0.0000E+00  0.7200E+02
  -2.810  0.0000E+00  0.0000E+00  0.7200E+02
  -2.800  0.0000E+00  0.0000E+00  0.7200E+02
  -2.790  0.0000E+00  0.0000E+00  0.7200E+02
  -2.780  0.0000E+00  0.0000E+00  0.7200E+02
  -2.770  0.0000E+00  0.0000E+00  0.7200E+02
  -2.760  0.0000E+00  0.0000E+00  0.7200E+02
  -2.750  0.0000E+00  0.0000E+00  0.7200E+02
  -2.740  0.0000E+00  0.0000E+00  0.7200E+02
  -2.730  0.0000E+00  0.0000E+00  0.7200E+02
  -2.720  0.0000E+00  0.0000E+00  0.7200E+02
  -2.710  0.0000E+00  0.0000E+00  0.7200E+02
  -2.700  0.0000E+00  0.0000E+00  0.7200E+02
  -2.690  0.0000E+00  0.0000E+00  0.7200E+02
  -2.680  0.0000E+00  0.0000E+00  0.7200E+02
  -2.670  0.0000E+00  0.0000E+00  0.7200E+02
  -2.660  0.0000E+00  0.0000E+00  0.7200E+02
  -2.650  0.0000E+00  0.0000E+00  0.7200E+02
  -2.640  0.0000E+00  0.0000E+00  0.7200E+02
  -2.630  0.0000E+00  0.0000E+00  0.7200E+02
  -2.620  0.0000E+00  0.0000E+00  0.7200E+02
  -2.610  0.0000E+00  0.0000E+00  0.7200E+02
  -2.600  0.0000E+00  0.0000E+00  0.7200E+02
  -2.590  0.0000E+00  0.0000E+00  0.7200E+02
  -2.580  0.0000E+00  0.0000E+00  0.7200E+02
  -2.570  0.0000E+00  0.0000E+00  0.7200E+02
  -2.560  0.0000E+00  0.0000E+00  0.7200E+02
  -2.550  0.0000E+00  0.0000E+00  0.7200E+02
  -2.540  0.0000E+00  0.0000E+00  0.7200E+02
  -2.530  0.0000E+00  0.0000E+00  0.7200E+02
  -2.520  0.0000E+00  0.0000E+00  0.7200E+02
  -2.510  0.0000E+00  0.0000E+00  0.7200E+02
  -2.500  0.0000E+00  0.0000E+00  0.7200E+02
  -2.490  0.0000E+00  0.0000E+00  0.7200E+02
  -2.480  0.0000E+00  0.0000E+00  0.7200E+02
  -2.470  0.0000E+00  0.0000E+00  0.7200E+02
  -2.460  0.0000E+00  0.0000E+00  0.7200E+02
  -2.450  0.0000E+00  0.0000E+00  0.7200E+02
  -2.440  0.0000E+00  0.0000E+00  0.7200E+02
  -2.430  0.0000E+00  0.0000E+00  0.7200E+02
  -2.420  0.0000E+00  0.0000E+00  0.7200E+02
  -2.410  0.0000E+00  0.0000E+00  0.7200E+02
  -2.400  0.0000E+00  0.0000E+00  0.7200E+02
  -2.390  0.0000E+00  0.0000E+00  0.7200E+02
  -2.380  0.0000E+00  0.0000E+00  0.7200E+02
  -2.370  0.0000E+00  0.0000E+00  0.7200E+02
  -2.360  0.0000E+00  0.0000E+00  0.7200E+02
  -2.350  0.0000E+00  0.0000E+00  0.7200E+02
  -2.340  0.0000E+00  0.0000E+00  0.7200E+02
  -2.330  0.0000E+00  0.0000E+00  0.7200E+02
  -2.320  0.0000E+00  0.0000E+00  0.7200E+02
  -2.310  0.0000E+00  0.0000E+00  0.7200E+02
  -2.300  0.0000E+00  0.0000E+00  0.7200E+02
  -2.290  0.0000E+00  0.0000E+00  0.7200E+02
  -2.280  0.0000E+00  0.0000E+00  0.7200E+02
  -2.270  0.0000E+00  0.0000E+00  0.7200E+02
  -2.260  0.0000E+00  0.0000E+00  0.7200E+02
  -2.250  0.0000E+00  0.0000E+00  0.7200E+02
  -2.240  0.0000E+00  0.0000E+00  0.7200E+02
  -2.230  0.0000E+00  0.0000E+00  0.7200E+02
  -2.220  0.0000E+00  0.0000E+00  0.7200E+02
  -2.210  0.0000E+00  0.0000E+00  0.7200E+02
  -2.200  0.0000E+00  0.0000E+00  0.7200E+02
  -2.190  0.0000E+00  0.0000E+00  0.7200E+02
  -2.180  0.0000E+00  0.0000E+00  0.7200E+02
  -2.170  0.0000E+00  0.0000E+00  0.7200E+02
  -2.160  0.0000E+00  0.0000E+00  0.7200E+02
  -2.150  0.0000E+00  0.0000E+00  0.7200E+02
  -2.140  0.0000E+00  0.0000E+00  0.7200E+02
  -2.130  0.0000E+00  0.0000E+00  0.7200E+02
  -2.120  0.0000E+00  0.0000E+00  0.7200E+02
  -2.110  0.0000E+00  0.0000E+00  0.7200E+02
  -2.100  0.0000E+00  0.0000E+00  0.7200E+02
  -2.090  0.0000E+00  0.0000E+00  0.7200E+02
  -2.080  0.0000E+00  0.0000E+00  0.7200E+02
  -2.070  0.0000E+00  0.0000E+00  0.7200E+02
  -2.060  0.0000E+00  0.0000E+00  0.7200E+02
  -2.050  0.0000E+00  0.0000E+00  0.7200E+02
  -2.040  0.0000E+00  0.0000E+00  0.7200E+02
  -2.030  0.0000E+00  0.0000E+00  0.7200E+02
  -2.020  0.0000E+00  0.0000E+00  0.7200E+02
  -2.010  0.0000E+00  0.0000E+00  0.7200E+02
  -2.000  0.0000E+00  0.0000E+00  0.7200E+02
  -1.990  0.0000E+00  0.0000E+00  0.7200E+02
  -1.980  0.0000E+00  0.0000E+00  0.7200E+02
  -1.970  0.0000E+00  0.0000E+00  0.7200E+02
  -1.960  0.0000E+00  0.0000E+00  0.7200E+02
  -1.950  0.0000E+00  0.0000E+00  0.7200E+02
  -1.940  0.0000E+00  0.0000E+00  0.7200E+02
  -1.930  0.0000E+00  0.0000E+00  0.7200E+02
  -1.920  0.0000E+00  0.0000E+00  0.7200E+02
  -1.910  0.0000E+00  0.0000E+00  0.7200E+02
  -1.900  0.0000E+00  0.0000E+00  0.7200E+02
  -1.890  0.0000E+00  0.0000E+00  0.7200E+02
  -1.880  0.0000E+00  0.0000E+00  0.7200E+02
  -1.870  0.0000E+00  0.0000E+00  0.7200E+02
  -1.860  0.0000E+00  0.0000E+00  0.7200E+02
  -1.850  0.0000E+00  0.0000E+00  0.7200E+02
  -1.840  0.0000E+00  0.0000E+00  0.7200E+02
  -1.830  0.0000E+00  0.0000E+00  0.7200E+02
  -1.820  0.0000E+00  0.0000E+00  0.7200E+02
  -1.810  0.0000E+00  0.0000E+00  0.7200E+02
  -1.800  0.0000E+00  0.0000E+00  0.7200E+02
  -1.790  0.0000E+00  0.0000E+00  0.7200E+02
  -1.780  0.0000E+00  0.0000E+00  0.7200E+02
  -1.770  0.0000E+00  0.0000E+00  0.7200E+02
  -1.760  0.0000E+00  0.0000E+00  0.7200E+02
  -1.750  0.0000E+00  0.0000E+00  0.7200E+02
  -1.740  0.0000E+00  0.0000E+00  0.7200E+02
  -1.730  0.0000E+00  0.0000E+00  0.7200E+02
  -1.720  0.0000E+00  0.0000E+00  0.7200E+02
  -1.710  0.0000E+00  0.0000E+00  0.7200E+02
  -1.700  0.0000E+00  0.0000E+00  0.7200E+02
  -1.690  0.0000E+00  0.0000E+00  0.7200E+02
  -1.680  0.0000E+00  0.0000E+00  0.7200E+02
  -1.670  0.0000E+00  0.0000E+00  0.7200E+02
  -1.660  0.0000E+00  0.0000E+00  0.7200E+02
  -1.650  0.0000E+00  0.0000E+00  0.7200E+02
  -1.640  0.0000E+00  0.0000E+00  0.7200E+02
  -1.630  0.0000E+00  0.0000E+00  0.7200E+02
  -1.620  0.0000E+00  0.0000E+00  0.7200E+02
  -1.610  0.0000E+00  0.0000E+00  0.7200E+02
  -1.600  0.0000E+00  0.0000E+00  0.7200E+02
  -1.590  0.0000E+00  0.0000E+00  0.7200E+02
  -1.580  0.0000E+00  0.0000E+00  0.7200E+02
  -1.570  0.0000E+00  0.0000E+00  0.7200E+02
  -1.560  0.0000E+00  0.0000E+00  0.7200E+02
  -1.550  0.0000E+00  0.0000E+00  0.7200E+02
  -1.540  0.0000E+00  0.0000E+00  0.7200E+02
  -1.530  0.0000E+00  0.0000E+00  0.7200E+02
  -1.520  0.0000E+00  0.0000E+00  0.7200E+02
  -1.510  0.0000E+00  0.0000E+00  0.7200E+02
  -1.500  0.0000E+00  0.0000E+00  0.7200E+02
  -1.490  0.0000E+00  0.0000E+00  0.7200E+02
  -1.480  0.0000E+00  0.0000E+00  0.7200E+02
  -1.470  0.0000E+00  0.0000E+00  0.7200E+02
  -1.460  0.0000E+00  0.0000E+00  0.7200E+02
  -1.450  0.0000E+00  0.0000E+00  0.7200E+02
  -1.440  0.0000E+00  0.0000E+00  0.7200E+02
  -1.430  0.0000E+00  0.0000E+00  0.7200E+02
  -1.420  0.0000E+00  0.0000E+00  0.7200E+02
  -1.410  0.0000E+00  0.0000E+00  0.7200E+02
  -1.400  0.0000E+00  0.0000E+00  0.7200E+02
  -1.390  0.0000E+00  0.0000E+00  0.7200E+02
  -1.380  0.0000E+00  0.0000E+00  0.7200E+02
  -1.370  0.0000E+00  0.0000E+00  0.7200E+02
  -1.360  0.0000E+00  0.0000E+00  0.7200E+02
  -1.350  0.0000E+00  0.0000E+00  0.7200E+02
  -1.340  0.0000E+00  0.0000E+00  0.7200E+02
  -1.330  0.0000E+00  0.0000E+00  0.7200E+02
  -1.320  0.0000E+00  0.0000E+00  0.7200E+02
  -1.310  0.0000E+00  0.0000E+00  0.7200E+02
  -1.300  0.0000E+00  0.0000E+00  0.7200E+02
  -1.290  0.0000E+00  0.0000E+00  0.7200E+02
  -1.280  0.0000E+00  0.0000E+00  0.7200E+02
  -1.270  0.0000E+00  0.0000E+00  0.7200E+02
  -1.260  0.0000E+00  0.0000E+00  0.7200E+02
  -1.250  0.0000E+00  0.0000E+00  0.7200E+02
  -1.240  0.0000E+00  0.0000E+00  0.7200E+02
  -1.230  0.0000E+00  0.0000E+00  0.7200E+02
  -1.220  0.0000E+00  0.0000E+00  0.7200E+02
  -1.210  0.0000E+00  0.0000E+00  0.7200E+02
  -1.200  0.0000E+00  0.0000E+00  0.7200E+02
  -1.190  0.0000E+00  0.0000E+00  0.7200E+02
  -1.180  0.0000E+00  0.0000E+00  0.7200E+02
  -1.170  0.0000E+00  0.0000E+00  0.7200E+02
  -1.160  0.0000E+00  0.0000E+00  0.7200E+02
  -1.150  0.0000E+00  0.0000E+00  0.7200E+02
  -1.140  0.0000E+00  0.0000E+00  0.7200E+02
  -1.130  0.0000E+00  0.0000E+00  0.7200E+02
  -1.120  0.0000E+00  0.0000E+00  0.7200E+02
  -1.110  0.0000E+00  0.0000E+00  0.7200E+02
  -1.100  0.0000E+00  0.0000E+00  0.7200E+02
  -1.090  0.0000E+00  0.0000E+00  0.7200E+02
  -1.080  0.0000E+00  0.0000E+00  0.7200E+02
  -1.070  0.0000E+00  0.0000E+00  0.7200E+02
  -1.060  0.0000E+00  0.0000E+00  0.7200E+02
  -1.050  0.0000E+00  0.0000E+00  0.7200E+02
  -1.040  0.0000E+00  0.0000E+00  0.7200E+02
  -1.030  0.0000E+00  0.0000E+00  0.7200E+02
  -1.020  0.0000E+00  0.0000E+00  0.7200E+02
  -1.010  0.0000E+00  0.0000E+00  0.7200E+02
  -1.000  0.0000E+00  0.0000E+00  0.7200E+02
  -0.990  0.0000E+00  0.0000E+00  0.7200E+02
  -0.980  0.0000E+00  0.0000E+00  0.7200E+02
  -0.970  0.0000E+00  0.0000E+00  0.7200E+02
  -0.960  0.0000E+00  0.0000E+00  0.7200E+02
  -0.950  0.0000E+00  0.0000E+00  0.7200E+02
  -0.940  0.0000E+00  0.0000E+00  0.7200E+02
  -0.930  0.0000E+00  0.0000E+00  0.7200E+02
  -0.920  0.0000E+00  0.0000E+00  0.7200E+02
  -0.910  0.0000E+00  0.0000E+00  0.7200E+02
  -0.900  0.0000E+00  0.0000E+00  0.7200E+02
  -0.890  0.0000E+00  0.0000E+00  0.7200E+02
  -0.880  0.0000E+00  0.0000E+00  0.7200E+02
  -0.870  0.0000E+00  0.0000E+00  0.7200E+02
  -0.860  0.0000E+00  0.0000E+00  0.7200E+02
  -0.850  0.0000E+00  0.0000E+00  0.7200E+02
  -0.840  0.0000E+00  0.0000E+00  0.7200E+02
  -0.830  0.0000E+00  0.0000E+00  0.7200E+02
  -0.820  0.0000E+00  0.0000E+00  0.7200E+02
  -0.810  0.0000E+00  0.0000E+00  0.7200E+02
  -0.800  0.0000E+00  0.0000E+00  0.7200E+02
  -0.790  0.0000E+00  0.0000E+00  0.7200E+02
  -0.780  0.0000E+00  0.0000E+00  0.7200E+02
  -0.770  0.0000E+00  0.0000E+00  0.7200E+02
  -0.760  0.0000E+00  0.0000E+00  0.7200E+02
  -0.750  0.0000E+00  0.0000E+00  0.7200E+02
  -0.740  0.5331E+01  0.4832E+01  0.7201E+02
  -0.730  0.5684E+02  0.5655E+02  0.7255E+02
  -0.720  0.1019E+03  0.1019E+03  0.7418E+02
  -0.710  0.1053E+03  0.1052E+03  0.7618E+02
  -0.700  0.1194E+03  0.1195E+03  0.7855E+02
  -0.690  0.1068E+03  0.1064E+03  0.8084E+02
  -0.680  0.9551E+02  0.9494E+02  0.8290E+02
  -0.670  0.1702E+03  0.1717E+03  0.8604E+02
  -0.660  0.1626E+03  0.1624E+03  0.8939E+02
  -0.650  0.1641E+03  0.1616E+03  0.9295E+02
  -0.640  0.2111E+03  0.2133E+03  0.9656E+02
  -0.630  0.2303E+03  0.2345E+03  0.1011E+03
  -0.620  0.2678E+03  0.2662E+03  0.1068E+03
  -0.610  0.3377E+03  0.3364E+03  0.1127E+03
  -0.600  0.3331E+03  0.3264E+03  0.1197E+03
  -0.590  0.3105E+03  0.3102E+03  0.1262E+03
  -0.580  0.3074E+03  0.3054E+03  0.1324E+03
  -0.570  0.4723E+03  0.4652E+03  0.1398E+03
  -0.560  0.3003E+03  0.3003E+03  0.1477E+03
  -0.550  0.1977E+03  0.2062E+03  0.1533E+03
  -0.540  0.2158E+03  0.2095E+03  0.1577E+03
  -0.530  0.3502E+03  0.3229E+03  0.1613E+03
  -0.520  0.2389E+03  0.2379E+03  0.1659E+03
  -0.510  0.2079E+03  0.2121E+03  0.1702E+03
  -0.500  0.1224E+03  0.1254E+03  0.1731E+03
  -0.490  0.1627E+03  0.1640E+03  0.1764E+03
  -0.480  0.1729E+03  0.2493E+03  0.1805E+03
  -0.470  0.3088E+03  0.2387E+03  0.1850E+03
  -0.460  0.2524E+03  0.3674E+03  0.1891E+03
  -0.450  0.1311E+03  0.1287E+03  0.1919E+03
  -0.440  0.1172E+03  0.1731E+03  0.1964E+03
  -0.430  0.1279E+03  0.1080E+03  0.1992E+03
  -0.420  0.2265E+03  0.2274E+03  0.2026E+03
  -0.410  0.2064E+03  0.2021E+03  0.2062E+03
  -0.400  0.2900E+03  0.1948E+03  0.2099E+03
  -0.390  0.1057E+03  0.1238E+03  0.2143E+03
  -0.380  0.1914E+03  0.7049E+02  0.2160E+03
  -0.370  0.1324E+03  0.1392E+03  0.2189E+03
  -0.360  0.1128E+03  0.1110E+03  0.2215E+03
  -0.350  0.1204E+03  0.1194E+03  0.2239E+03
  -0.340  0.1421E+03  0.1394E+03  0.2265E+03
  -0.330  0.1225E+03  0.1222E+03  0.2292E+03
  -0.320  0.1489E+03  0.1505E+03  0.2317E+03
  -0.310  0.1710E+03  0.1637E+03  0.2345E+03
  -0.300  0.1707E+03  0.1738E+03  0.2380E+03
  -0.290  0.1389E+03  0.1379E+03  0.2413E+03
  -0.280  0.1628E+03  0.1620E+03  0.2446E+03
  -0.270  0.2136E+03  0.2244E+03  0.2487E+03
  -0.260  0.4707E+03  0.4536E+03  0.2535E+03
  -0.250  0.1139E+03  0.1016E+03  0.2570E+03
  -0.240  0.2191E+03  0.2637E+03  0.2606E+03
  -0.230  0.3602E+03  0.3562E+03  0.2682E+03
  -0.220  0.4178E+03  0.4102E+03  0.2751E+03
  -0.210  0.5731E+03  0.5634E+03  0.2846E+03
  -0.200  0.2903E+03  0.2886E+03  0.2915E+03
  -0.190  0.1865E+03  0.1700E+03  0.2985E+03
  -0.180  0.1906E+03  0.1945E+03  0.3019E+03
  -0.170  0.1389E+03  0.1380E+03  0.3050E+03
  -0.160  0.1244E+03  0.4303E+02  0.3099E+03
  -0.150  0.3891E+03  0.2187E+03  0.3129E+03
  -0.140  0.1857E+03  0.1954E+03  0.3167E+03
  -0.130  0.2271E+03  0.2389E+03  0.3215E+03
  -0.120  0.2956E+03  0.3050E+03  0.3273E+03
  -0.110  0.2416E+03  0.2510E+03  0.3343E+03
  -0.100  0.3114E+03  0.3011E+03  0.3400E+03
  -0.090  0.2896E+03  0.3075E+03  0.3460E+03
  -0.080  0.9316E+02  0.1131E+03  0.3498E+03
  -0.070  0.9284E+02  0.9217E+02  0.3516E+03
  -0.060  0.9740E+02  0.9721E+02  0.3535E+03
  -0.050  0.8351E+02  0.8532E+02  0.3553E+03
  -0.040  0.6609E+02  0.6781E+02  0.3568E+03
  -0.030  0.6262E+02  0.6436E+02  0.3582E+03
  -0.020  0.7131E+02  0.7577E+02  0.3594E+03
  -0.010  0.7321E+02  0.7284E+02  0.3609E+03
   0.000  0.6005E+02  0.6240E+02  0.3623E+03
   0.010  0.5637E+02  0.5584E+02  0.3634E+03
   0.020  0.5599E+02  0.5562E+02  0.3645E+03
   0.030  0.1274E+03  0.1167E+03  0.3660E+03
   0.040  0.8919E+02  0.9277E+02  0.3685E+03
   0.050  0.6425E+02  0.7199E+02  0.3701E+03
   0.060  0.4263E+02  0.4021E+02  0.3711E+03
   0.070  0.5691E+02  0.5580E+02  0.3721E+03
   0.080  0.4266E+02  0.4538E+02  0.3732E+03
   0.090  0.4234E+02  0.4133E+02  0.3740E+03
   0.100  0.7414E+02  0.6713E+02  0.3751E+03
   0.110  0.1173E+03  0.1161E+03  0.3770E+03
   0.120  0.7418E+02  0.7905E+02  0.3790E+03
   0.130  0.4271E+02  0.5219E+02  0.3802E+03
   0.140  0.2559E+02  0.2761E+02  0.3809E+03
   0.150  0.1623E+02  0.1720E+02  0.3813E+03
   0.160  0.1269E+02  0.1308E+02  0.3816E+03
   0.170  0.6708E+01  0.6857E+01  0.3819E+03
   0.180  0.2970E+01  0.3127E+01  0.3820E+03
   0.190  0.7233E+00  0.7925E+00  0.3820E+03
   0.200  0.8825E-02  0.1209E-01  0.3820E+03
   0.210  0.0000E+00  0.0000E+00  0.3820E+03
   0.220  0.0000E+00  0.0000E+00  0.3820E+03
   0.230  0.0000E+00  0.0000E+00  0.3820E+03
   0.240  0.0000E+00  0.0000E+00  0.3820E+03
   0.250  0.0000E+00  0.0000E+00  0.3820E+03
   0.260  0.0000E+00  0.0000E+00  0.3820E+03
   0.270  0.0000E+00  0.0000E+00  0.3820E+03
   0.280  0.0000E+00  0.0000E+00  0.3820E+03
   0.290  0.0000E+00  0.0000E+00  0.3820E+03
   0.300  0.0000E+00  0.0000E+00  0.3820E+03
   0.310  0.0000E+00  0.0000E+00  0.3820E+03
   0.320  0.0000E+00  0.0000E+00  0.3820E+03
   0.330  0.0000E+00  0.0000E+00  0.3820E+03
   0.340  0.9424E-05  0.0000E+00  0.3820E+03
   0.350  0.1395E-02  0.5670E-03  0.3820E+03
   0.360  0.9298E-02  0.5843E-02  0.3820E+03
   0.370  0.2864E-01  0.2169E-01  0.3820E+03
   0.380  0.5975E-01  0.4914E-01  0.3820E+03
   0.390  0.1034E+00  0.8853E-01  0.3820E+03
   0.400  0.1600E+00  0.1407E+00  0.3820E+03
   0.410  0.2296E+00  0.2058E+00  0.3820E+03
   0.420  0.3121E+00  0.2838E+00  0.3820E+03
   0.430  0.4075E+00  0.3747E+00  0.3820E+03
   0.440  0.5159E+00  0.4785E+00  0.3820E+03
   0.450  0.6373E+00  0.5953E+00  0.3820E+03
   0.460  0.7715E+00  0.7249E+00  0.3821E+03
   0.470  0.9230E+00  0.8677E+00  0.3821E+03
   0.480  0.1213E+01  0.1087E+01  0.3821E+03
   0.490  0.1860E+01  0.1617E+01  0.3821E+03
   0.500  0.2759E+01  0.2440E+01  0.3822E+03
   0.510  0.3522E+01  0.3291E+01  0.3822E+03
   0.520  0.4047E+01  0.3901E+01  0.3823E+03
   0.530  0.4341E+01  0.4278E+01  0.3824E+03
   0.540  0.4407E+01  0.4425E+01  0.3825E+03
   0.550  0.4246E+01  0.4344E+01  0.3826E+03
   0.560  0.3902E+01  0.4044E+01  0.3826E+03
   0.570  0.3832E+01  0.3826E+01  0.3827E+03
   0.580  0.4066E+01  0.4009E+01  0.3828E+03
   0.590  0.4339E+01  0.4277E+01  0.3829E+03
   0.600  0.4623E+01  0.4560E+01  0.3830E+03
   0.610  0.4921E+01  0.4856E+01  0.3831E+03
   0.620  0.5235E+01  0.5169E+01  0.3832E+03
   0.630  0.5566E+01  0.5498E+01  0.3833E+03
   0.640  0.5914E+01  0.5845E+01  0.3834E+03
   0.650  0.6278E+01  0.6208E+01  0.3835E+03
   0.660  0.6648E+01  0.6583E+01  0.3836E+03
   0.670  0.6962E+01  0.6919E+01  0.3838E+03
   0.680  0.7798E+01  0.7503E+01  0.3839E+03
   0.690  0.1005E+02  0.9761E+01  0.3841E+03
   0.700  0.1082E+02  0.1071E+02  0.3843E+03
   0.710  0.1160E+02  0.1146E+02  0.3845E+03
   0.720  0.1242E+02  0.1226E+02  0.3848E+03
   0.730  0.1321E+02  0.1304E+02  0.3850E+03
   0.740  0.1364E+02  0.1342E+02  0.3853E+03
   0.750  0.1273E+02  0.1270E+02  0.3855E+03
   0.760  0.1116E+02  0.1127E+02  0.3858E+03
   0.770  0.1080E+02  0.1054E+02  0.3860E+03
   0.780  0.1161E+02  0.1116E+02  0.3862E+03
   0.790  0.1189E+02  0.1169E+02  0.3864E+03
   0.800  0.1219E+02  0.1201E+02  0.3867E+03
   0.810  0.1245E+02  0.1231E+02  0.3869E+03
   0.820  0.1268E+02  0.1256E+02  0.3872E+03
   0.830  0.1285E+02  0.1278E+02  0.3874E+03
   0.840  0.1300E+02  0.1295E+02  0.3877E+03
   0.850  0.1312E+02  0.1309E+02  0.3880E+03
   0.860  0.1323E+02  0.1322E+02  0.3882E+03
   0.870  0.1334E+02  0.1335E+02  0.3885E+03
   0.880  0.1377E+02  0.1377E+02  0.3888E+03
   0.890  0.1415E+02  0.1420E+02  0.3890E+03
   0.900  0.1442E+02  0.1430E+02  0.3893E+03
   0.910  0.1679E+02  0.1590E+02  0.3896E+03
   0.920  0.1881E+02  0.1839E+02  0.3900E+03
   0.930  0.2020E+02  0.2012E+02  0.3904E+03
   0.940  0.2044E+02  0.2045E+02  0.3908E+03
   0.950  0.1956E+02  0.1960E+02  0.3912E+03
   0.960  0.2025E+02  0.1971E+02  0.3916E+03
   0.970  0.2380E+02  0.2250E+02  0.3920E+03
   0.980  0.2894E+02  0.2773E+02  0.3925E+03
   0.990  0.3595E+02  0.3638E+02  0.3931E+03
   1.000  0.3919E+02  0.3700E+02  0.3939E+03
   1.010  0.4758E+02  0.4654E+02  0.3947E+03
   1.020  0.6133E+02  0.6404E+02  0.3959E+03
   1.030  0.5726E+02  0.5687E+02  0.3971E+03
   1.040  0.5468E+02  0.5451E+02  0.3983E+03
   1.050  0.5140E+02  0.5026E+02  0.3993E+03
   1.060  0.5222E+02  0.5430E+02  0.4003E+03
   1.070  0.5760E+02  0.5511E+02  0.4014E+03
   1.080  0.3772E+02  0.5871E+02  0.4025E+03
   1.090  0.2660E+02  0.2991E+02  0.4032E+03
   1.100  0.1828E+02  0.1890E+02  0.4037E+03
   1.110  0.1833E+02  0.1499E+02  0.4040E+03
   1.120  0.3883E+02  0.2639E+02  0.4045E+03
   1.130  0.3139E+02  0.4148E+02  0.4053E+03
   1.140  0.1328E+02  0.1724E+02  0.4058E+03
   1.150  0.1497E+02  0.1514E+02  0.4061E+03
   1.160  0.2022E+02  0.1933E+02  0.4064E+03
   1.170  0.2220E+02  0.2184E+02  0.4068E+03
   1.180  0.2231E+02  0.2153E+02  0.4073E+03
   1.190  0.2275E+02  0.2230E+02  0.4077E+03
   1.200  0.2282E+02  0.2252E+02  0.4082E+03
   1.210  0.2314E+02  0.2275E+02  0.4086E+03
   1.220  0.2337E+02  0.2300E+02  0.4091E+03
   1.230  0.2396E+02  0.2314E+02  0.4096E+03
   1.240  0.2537E+02  0.2423E+02  0.4100E+03
   1.250  0.2662E+02  0.2570E+02  0.4105E+03
   1.260  0.2720E+02  0.2656E+02  0.4111E+03
   1.270  0.2702E+02  0.2680E+02  0.4116E+03
   1.280  0.2627E+02  0.2633E+02  0.4121E+03
   1.290  0.2533E+02  0.2548E+02  0.4127E+03
   1.300  0.2396E+02  0.2439E+02  0.4132E+03
   1.310  0.2207E+02  0.2285E+02  0.4136E+03
   1.320  0.1987E+02  0.2095E+02  0.4141E+03
   1.330  0.1799E+02  0.1869E+02  0.4144E+03
   1.340  0.1680E+02  0.1702E+02  0.4148E+03
   1.350  0.1598E+02  0.1597E+02  0.4151E+03
   1.360  0.1550E+02  0.1524E+02  0.4154E+03
   1.370  0.1536E+02  0.1486E+02  0.4157E+03
   1.380  0.1537E+02  0.1475E+02  0.4160E+03
   1.390  0.1563E+02  0.1483E+02  0.4163E+03
   1.400  0.1676E+02  0.1505E+02  0.4167E+03
   1.410  0.1958E+02  0.1638E+02  0.4170E+03
   1.420  0.2370E+02  0.1868E+02  0.4174E+03
   1.430  0.1640E+02  0.2132E+02  0.4178E+03
   1.440  0.1556E+02  0.1767E+02  0.4181E+03
   1.450  0.1490E+02  0.1586E+02  0.4184E+03
   1.460  0.1426E+02  0.1513E+02  0.4187E+03
   1.470  0.1364E+02  0.1443E+02  0.4190E+03
   1.480  0.1305E+02  0.1377E+02  0.4193E+03
   1.490  0.1276E+02  0.1313E+02  0.4196E+03
   1.500  0.1302E+02  0.1255E+02  0.4198E+03
   1.510  0.1329E+02  0.1253E+02  0.4201E+03
   1.520  0.1383E+02  0.1268E+02  0.4203E+03
   1.530  0.1371E+02  0.1285E+02  0.4206E+03
   1.540  0.1344E+02  0.1337E+02  0.4209E+03
   1.550  0.1305E+02  0.1321E+02  0.4211E+03
   1.560  0.1251E+02  0.1288E+02  0.4214E+03
   1.570  0.1184E+02  0.1238E+02  0.4217E+03
   1.580  0.1146E+02  0.1180E+02  0.4219E+03
   1.590  0.1113E+02  0.1148E+02  0.4221E+03
   1.600  0.1078E+02  0.1115E+02  0.4223E+03
   1.610  0.1041E+02  0.1078E+02  0.4226E+03
   1.620  0.1004E+02  0.1037E+02  0.4228E+03
   1.630  0.9697E+01  0.9934E+01  0.4230E+03
   1.640  0.9738E+01  0.9594E+01  0.4232E+03
   1.650  0.9798E+01  0.9447E+01  0.4234E+03
   1.660  0.1020E+02  0.9348E+01  0.4235E+03
   1.670  0.1034E+02  0.9504E+01  0.4237E+03
   1.680  0.1050E+02  0.9424E+01  0.4239E+03
   1.690  0.1049E+02  0.9371E+01  0.4241E+03
   1.700  0.9643E+01  0.9318E+01  0.4243E+03
   1.710  0.8118E+01  0.9143E+01  0.4245E+03
   1.720  0.6362E+01  0.8503E+01  0.4247E+03
   1.730  0.7370E+01  0.7467E+01  0.4248E+03
   1.740  0.9117E+01  0.7296E+01  0.4250E+03
   1.750  0.1353E+02  0.9524E+01  0.4252E+03
   1.760  0.1162E+02  0.1242E+02  0.4254E+03
   1.770  0.7659E+01  0.1254E+02  0.4256E+03
   1.780  0.7234E+01  0.8942E+01  0.4258E+03
   1.790  0.7619E+01  0.7067E+01  0.4260E+03
   1.800  0.8143E+01  0.7037E+01  0.4261E+03
   1.810  0.8473E+01  0.7390E+01  0.4263E+03
   1.820  0.8429E+01  0.7895E+01  0.4264E+03
   1.830  0.8194E+01  0.8343E+01  0.4266E+03
   1.840  0.8255E+01  0.8656E+01  0.4268E+03
   1.850  0.8443E+01  0.8940E+01  0.4269E+03
   1.860  0.8596E+01  0.9172E+01  0.4271E+03
   1.870  0.8714E+01  0.9299E+01  0.4273E+03
   1.880  0.8798E+01  0.9003E+01  0.4275E+03
   1.890  0.8846E+01  0.8858E+01  0.4277E+03
   1.900  0.8845E+01  0.8851E+01  0.4278E+03
   1.910  0.8795E+01  0.8802E+01  0.4280E+03
   1.920  0.8696E+01  0.8709E+01  0.4282E+03
   1.930  0.8548E+01  0.8562E+01  0.4284E+03
   1.940  0.8361E+01  0.8372E+01  0.4285E+03
   1.950  0.8152E+01  0.8152E+01  0.4287E+03
   1.960  0.7985E+01  0.7950E+01  0.4289E+03
   1.970  0.7838E+01  0.7787E+01  0.4290E+03
   1.980  0.7880E+01  0.7624E+01  0.4292E+03
   1.990  0.8862E+01  0.7461E+01  0.4293E+03
   2.000  0.9465E+01  0.7298E+01  0.4295E+03
   2.010  0.9438E+01  0.7603E+01  0.4297E+03
   2.020  0.8779E+01  0.1037E+02  0.4298E+03
   2.030  0.7508E+01  0.1012E+02  0.4300E+03
   2.040  0.6348E+01  0.7854E+01  0.4302E+03
   2.050  0.5685E+01  0.6494E+01  0.4303E+03
   2.060  0.5320E+01  0.5658E+01  0.4304E+03
   2.070  0.5119E+01  0.5095E+01  0.4305E+03
   2.080  0.5092E+01  0.4851E+01  0.4306E+03
   2.090  0.5536E+01  0.4789E+01  0.4307E+03
   2.100  0.6341E+01  0.4801E+01  0.4308E+03
   2.110  0.7230E+01  0.4825E+01  0.4310E+03
   2.120  0.7925E+01  0.4861E+01  0.4311E+03
   2.130  0.8307E+01  0.4987E+01  0.4312E+03
   2.140  0.8621E+01  0.5421E+01  0.4314E+03
   2.150  0.8918E+01  0.6960E+01  0.4315E+03
   2.160  0.9190E+01  0.9037E+01  0.4317E+03
   2.170  0.9472E+01  0.9864E+01  0.4319E+03
   2.180  0.9639E+01  0.1063E+02  0.4321E+03
   2.190  0.9437E+01  0.1093E+02  0.4323E+03
   2.200  0.8989E+01  0.1071E+02  0.4325E+03
   2.210  0.8156E+01  0.1048E+02  0.4327E+03
   2.220  0.7304E+01  0.9419E+01  0.4328E+03
   2.230  0.6572E+01  0.8242E+01  0.4330E+03
   2.240  0.6010E+01  0.7147E+01  0.4331E+03
   2.250  0.5769E+01  0.6329E+01  0.4333E+03
   2.260  0.5712E+01  0.6013E+01  0.4334E+03
   2.270  0.5684E+01  0.5825E+01  0.4335E+03
   2.280  0.5697E+01  0.5673E+01  0.4336E+03
   2.290  0.5749E+01  0.5553E+01  0.4337E+03
   2.300  0.5826E+01  0.5465E+01  0.4338E+03
   2.310  0.5855E+01  0.5419E+01  0.4339E+03
   2.320  0.5867E+01  0.5420E+01  0.4341E+03
   2.330  0.5852E+01  0.5497E+01  0.4342E+03
   2.340  0.5812E+01  0.5504E+01  0.4343E+03
   2.350  0.5747E+01  0.5511E+01  0.4344E+03
   2.360  0.5644E+01  0.5482E+01  0.4345E+03
   2.370  0.5499E+01  0.5419E+01  0.4346E+03
   2.380  0.5353E+01  0.5327E+01  0.4347E+03
   2.390  0.5359E+01  0.5200E+01  0.4348E+03
   2.400  0.5568E+01  0.5063E+01  0.4349E+03
   2.410  0.5945E+01  0.4941E+01  0.4350E+03
   2.420  0.6291E+01  0.4815E+01  0.4352E+03
   2.430  0.6549E+01  0.4926E+01  0.4353E+03
   2.440  0.6743E+01  0.5731E+01  0.4354E+03
   2.450  0.6909E+01  0.6751E+01  0.4355E+03
   2.460  0.7192E+01  0.7307E+01  0.4357E+03
   2.470  0.7631E+01  0.7671E+01  0.4358E+03
   2.480  0.7902E+01  0.7989E+01  0.4360E+03
   2.490  0.8454E+01  0.8262E+01  0.4361E+03
   2.500  0.9140E+01  0.8602E+01  0.4363E+03
   2.510  0.9885E+01  0.9415E+01  0.4365E+03
   2.520  0.1056E+02  0.1022E+02  0.4367E+03
   2.530  0.1114E+02  0.1088E+02  0.4369E+03
   2.540  0.1166E+02  0.1146E+02  0.4371E+03
   2.550  0.1213E+02  0.1199E+02  0.4374E+03
   2.560  0.1259E+02  0.1256E+02  0.4376E+03
   2.570  0.1290E+02  0.1301E+02  0.4379E+03
   2.580  0.1322E+02  0.1347E+02  0.4381E+03
   2.590  0.1350E+02  0.1392E+02  0.4384E+03
   2.600  0.1375E+02  0.1436E+02  0.4387E+03
   2.610  0.1403E+02  0.1486E+02  0.4390E+03
   2.620  0.1446E+02  0.1531E+02  0.4393E+03
   2.630  0.1513E+02  0.1582E+02  0.4396E+03
   2.640  0.1606E+02  0.1663E+02  0.4399E+03
   2.650  0.1690E+02  0.1739E+02  0.4402E+03
   2.660  0.1769E+02  0.1805E+02  0.4406E+03
   2.670  0.1845E+02  0.1865E+02  0.4409E+03
   2.680  0.2003E+02  0.1912E+02  0.4413E+03
   2.690  0.2211E+02  0.1971E+02  0.4417E+03
   2.700  0.2491E+02  0.2141E+02  0.4421E+03
   2.710  0.2772E+02  0.2427E+02  0.4426E+03
   2.720  0.4236E+02  0.3391E+02  0.4432E+03
   2.730  0.4561E+02  0.3833E+02  0.4440E+03
   2.740  0.4500E+02  0.4370E+02  0.4449E+03
   2.750  0.3852E+02  0.4328E+02  0.4458E+03
   2.760  0.2575E+02  0.3695E+02  0.4465E+03
   2.770  0.1823E+02  0.2231E+02  0.4470E+03
   2.780  0.1778E+02  0.1640E+02  0.4473E+03
   2.790  0.1711E+02  0.1876E+02  0.4477E+03
   2.800  0.1665E+02  0.1843E+02  0.4481E+03
   2.810  0.1922E+02  0.1752E+02  0.4484E+03
   2.820  0.2323E+02  0.2180E+02  0.4488E+03
   2.830  0.2556E+02  0.2453E+02  0.4493E+03
   2.840  0.2836E+02  0.2627E+02  0.4498E+03
   2.850  0.2730E+02  0.2854E+02  0.4504E+03
   2.860  0.2696E+02  0.2374E+02  0.4509E+03
   2.870  0.1385E+02  0.1968E+02  0.4514E+03
   2.880  0.1128E+02  0.1517E+02  0.4517E+03
   2.890  0.1250E+02  0.1219E+02  0.4519E+03
   2.900  0.1266E+02  0.1136E+02  0.4522E+03
   2.910  0.1270E+02  0.1187E+02  0.4524E+03
   2.920  0.1334E+02  0.1225E+02  0.4526E+03
   2.930  0.1445E+02  0.1301E+02  0.4529E+03
   2.940  0.1560E+02  0.1388E+02  0.4532E+03
   2.950  0.1717E+02  0.1414E+02  0.4535E+03
   2.960  0.1817E+02  0.1586E+02  0.4538E+03
   2.970  0.1985E+02  0.1642E+02  0.4542E+03
   2.980  0.2149E+02  0.1850E+02  0.4546E+03
   2.990  0.2245E+02  0.2002E+02  0.4550E+03
   3.000  0.2369E+02  0.2104E+02  0.4554E+03
   3.010  0.2557E+02  0.2152E+02  0.4559E+03
   3.020  0.2713E+02  0.2194E+02  0.4563E+03
   3.030  0.2728E+02  0.2249E+02  0.4568E+03
   3.040  0.2726E+02  0.2360E+02  0.4573E+03
   3.050  0.2731E+02  0.2540E+02  0.4579E+03
   3.060  0.2791E+02  0.2699E+02  0.4584E+03
   3.070  0.2925E+02  0.2849E+02  0.4590E+03
   3.080  0.3083E+02  0.2905E+02  0.4596E+03
   3.090  0.3265E+02  0.3011E+02  0.4602E+03
   3.100  0.3516E+02  0.3108E+02  0.4608E+03
   3.110  0.3375E+02  0.3362E+02  0.4615E+03
   3.120  0.3007E+02  0.3225E+02  0.4621E+03
   3.130  0.2596E+02  0.3094E+02  0.4627E+03
   3.140  0.2571E+02  0.2861E+02  0.4633E+03
   3.150  0.2093E+02  0.2816E+02  0.4638E+03
   3.160  0.1737E+02  0.2845E+02  0.4643E+03
   3.170  0.1688E+02  0.2659E+02  0.4647E+03
   3.180  0.1624E+02  0.2508E+02  0.4651E+03
   3.190  0.1538E+02  0.2019E+02  0.4655E+03
   3.200  0.1474E+02  0.1897E+02  0.4659E+03
   3.210  0.1462E+02  0.1733E+02  0.4662E+03
   3.220  0.1466E+02  0.1634E+02  0.4665E+03
   3.230  0.1426E+02  0.1483E+02  0.4668E+03
   3.240  0.1451E+02  0.1334E+02  0.4671E+03
   3.250  0.1582E+02  0.1340E+02  0.4674E+03
   3.260  0.1777E+02  0.1454E+02  0.4677E+03
   3.270  0.2429E+02  0.1626E+02  0.4680E+03
   3.280  0.2891E+02  0.2132E+02  0.4685E+03
   3.290  0.2857E+02  0.2408E+02  0.4690E+03
   3.300  0.3071E+02  0.2487E+02  0.4696E+03
   3.310  0.3297E+02  0.2614E+02  0.4702E+03
   3.320  0.3311E+02  0.2743E+02  0.4708E+03
   3.330  0.3071E+02  0.2807E+02  0.4714E+03
   3.340  0.3026E+02  0.2858E+02  0.4719E+03
   3.350  0.2988E+02  0.2890E+02  0.4725E+03
   3.360  0.2915E+02  0.2905E+02  0.4731E+03
   3.370  0.2870E+02  0.2956E+02  0.4737E+03
   3.380  0.2885E+02  0.2937E+02  0.4743E+03
   3.390  0.2939E+02  0.2898E+02  0.4749E+03
   3.400  0.3017E+02  0.2832E+02  0.4754E+03
   3.410  0.3048E+02  0.2805E+02  0.4760E+03
   3.420  0.3129E+02  0.2831E+02  0.4766E+03
   3.430  0.3263E+02  0.2870E+02  0.4772E+03
   3.440  0.3351E+02  0.2925E+02  0.4778E+03
   3.450  0.3428E+02  0.2981E+02  0.4785E+03
   3.460  0.3488E+02  0.3041E+02  0.4791E+03
   3.470  0.3448E+02  0.3116E+02  0.4798E+03
   3.480  0.3394E+02  0.3183E+02  0.4804E+03
   3.490  0.3377E+02  0.3245E+02  0.4811E+03
   3.500  0.3366E+02  0.3261E+02  0.4818E+03
   3.510  0.3386E+02  0.3216E+02  0.4824E+03
   3.520  0.3408E+02  0.3226E+02  0.4831E+03
   3.530  0.3340E+02  0.3231E+02  0.4837E+03
   3.540  0.3302E+02  0.3237E+02  0.4844E+03
   3.550  0.3152E+02  0.3307E+02  0.4851E+03
   3.560  0.3125E+02  0.3328E+02  0.4857E+03
   3.570  0.3039E+02  0.3252E+02  0.4863E+03
   3.580  0.3114E+02  0.3237E+02  0.4870E+03
   3.590  0.3137E+02  0.3254E+02  0.4876E+03
   3.600  0.3069E+02  0.3216E+02  0.4882E+03
   3.610  0.2984E+02  0.3030E+02  0.4889E+03
   3.620  0.3057E+02  0.2959E+02  0.4895E+03
   3.630  0.3127E+02  0.2986E+02  0.4901E+03
   3.640  0.3040E+02  0.3030E+02  0.4907E+03
   3.650  0.3125E+02  0.3235E+02  0.4913E+03
   3.660  0.3314E+02  0.2765E+02  0.4919E+03
   3.670  0.3636E+02  0.2817E+02  0.4925E+03
   3.680  0.3091E+02  0.2722E+02  0.4931E+03
   3.690  0.3059E+02  0.2900E+02  0.4937E+03
   3.700  0.3035E+02  0.2916E+02  0.4943E+03
   3.710  0.2711E+02  0.2765E+02  0.4949E+03
   3.720  0.2448E+02  0.2651E+02  0.4954E+03
   3.730  0.2431E+02  0.2590E+02  0.4959E+03
   3.740  0.2038E+02  0.2555E+02  0.4964E+03
   3.750  0.2177E+02  0.2547E+02  0.4969E+03
   3.760  0.2432E+02  0.2738E+02  0.4974E+03
   3.770  0.2493E+02  0.2745E+02  0.4979E+03
   3.780  0.2936E+02  0.2840E+02  0.4984E+03
   3.790  0.3593E+02  0.2640E+02  0.4990E+03
   3.800  0.5330E+02  0.3418E+02  0.4998E+03
   3.810  0.4843E+02  0.4042E+02  0.5007E+03
   3.820  0.3832E+02  0.4103E+02  0.5015E+03
   3.830  0.3603E+02  0.3614E+02  0.5023E+03
   3.840  0.3106E+02  0.3847E+02  0.5031E+03
   3.850  0.2810E+02  0.3646E+02  0.5037E+03
   3.860  0.3425E+02  0.3689E+02  0.5044E+03
   3.870  0.3347E+02  0.3566E+02  0.5051E+03
   3.880  0.3179E+02  0.3840E+02  0.5058E+03
   3.890  0.3007E+02  0.3234E+02  0.5064E+03
   3.900  0.2957E+02  0.3033E+02  0.5070E+03
   3.910  0.3035E+02  0.2791E+02  0.5076E+03
   3.920  0.3193E+02  0.2587E+02  0.5082E+03
   3.930  0.3038E+02  0.2623E+02  0.5088E+03
   3.940  0.2784E+02  0.2745E+02  0.5093E+03
   3.950  0.2759E+02  0.2790E+02  0.5099E+03
   3.960  0.2623E+02  0.2721E+02  0.5104E+03
   3.970  0.2688E+02  0.2595E+02  0.5110E+03
   3.980  0.2517E+02  0.2388E+02  0.5115E+03
   3.990  0.2478E+02  0.2332E+02  0.5120E+03
   4.000  0.2510E+02  0.2360E+02  0.5124E+03
   4.010  0.2526E+02  0.2421E+02  0.5129E+03
   4.020  0.2555E+02  0.2492E+02  0.5134E+03
   4.030  0.2610E+02  0.2552E+02  0.5139E+03
   4.040  0.2745E+02  0.2641E+02  0.5145E+03
   4.050  0.2951E+02  0.2754E+02  0.5150E+03
   4.060  0.3038E+02  0.2817E+02  0.5156E+03
   4.070  0.3185E+02  0.3050E+02  0.5162E+03
   4.080  0.3163E+02  0.3148E+02  0.5168E+03
   4.090  0.3318E+02  0.2978E+02  0.5175E+03
   4.100  0.3665E+02  0.2992E+02  0.5181E+03
   4.110  0.3082E+02  0.3003E+02  0.5187E+03
   4.120  0.3122E+02  0.2965E+02  0.5194E+03
   4.130  0.3178E+02  0.2954E+02  0.5200E+03
   4.140  0.3290E+02  0.2936E+02  0.5206E+03
   4.150  0.3372E+02  0.2945E+02  0.5212E+03
   4.160  0.3271E+02  0.3070E+02  0.5218E+03
   4.170  0.3163E+02  0.3314E+02  0.5225E+03
   4.180  0.3023E+02  0.3369E+02  0.5231E+03
   4.190  0.2929E+02  0.3298E+02  0.5238E+03
   4.200  0.2878E+02  0.3251E+02  0.5244E+03
   4.210  0.2846E+02  0.3242E+02  0.5250E+03
   4.220  0.2842E+02  0.3117E+02  0.5256E+03
   4.230  0.2903E+02  0.3052E+02  0.5262E+03
   4.240  0.3053E+02  0.3034E+02  0.5268E+03
   4.250  0.3100E+02  0.2996E+02  0.5274E+03
   4.260  0.3242E+02  0.2958E+02  0.5280E+03
   4.270  0.3439E+02  0.2991E+02  0.5286E+03
   4.280  0.3398E+02  0.3072E+02  0.5293E+03
   4.290  0.3377E+02  0.3350E+02  0.5299E+03
   4.300  0.3483E+02  0.3916E+02  0.5306E+03
   4.310  0.3759E+02  0.4097E+02  0.5314E+03
   4.320  0.3478E+02  0.4331E+02  0.5322E+03
   4.330  0.3313E+02  0.4357E+02  0.5330E+03
   4.340  0.3062E+02  0.4702E+02  0.5338E+03
   4.350  0.2855E+02  0.4441E+02  0.5345E+03
   4.360  0.2689E+02  0.3621E+02  0.5352E+03
   4.370  0.2573E+02  0.3158E+02  0.5358E+03
   4.380  0.2579E+02  0.2819E+02  0.5364E+03
   4.390  0.2713E+02  0.2613E+02  0.5369E+03
   4.400  0.2723E+02  0.2661E+02  0.5374E+03
   4.410  0.2642E+02  0.2451E+02  0.5380E+03
   4.420  0.2517E+02  0.2272E+02  0.5384E+03
   4.430  0.2340E+02  0.2094E+02  0.5389E+03
   4.440  0.2315E+02  0.1968E+02  0.5393E+03
   4.450  0.2380E+02  0.1898E+02  0.5398E+03
   4.460  0.2422E+02  0.2049E+02  0.5402E+03
   4.470  0.2394E+02  0.2189E+02  0.5407E+03
   4.480  0.2340E+02  0.2309E+02  0.5411E+03
   4.490  0.2306E+02  0.2287E+02  0.5416E+03
   4.500  0.2319E+02  0.2208E+02  0.5420E+03
   4.510  0.2517E+02  0.2202E+02  0.5425E+03
   4.520  0.2747E+02  0.2250E+02  0.5430E+03
   4.530  0.2896E+02  0.2575E+02  0.5435E+03
   4.540  0.2982E+02  0.2414E+02  0.5441E+03
   4.550  0.3055E+02  0.2495E+02  0.5446E+03
   4.560  0.3042E+02  0.2553E+02  0.5452E+03
   4.570  0.3018E+02  0.2603E+02  0.5457E+03
   4.580  0.2996E+02  0.2693E+02  0.5463E+03
   4.590  0.3068E+02  0.2855E+02  0.5469E+03
   4.600  0.3105E+02  0.2938E+02  0.5475E+03
   4.610  0.3298E+02  0.2986E+02  0.5481E+03
   4.620  0.3070E+02  0.3048E+02  0.5487E+03
   4.630  0.3046E+02  0.3186E+02  0.5493E+03
   4.640  0.3035E+02  0.3355E+02  0.5500E+03
   4.650  0.3895E+02  0.3509E+02  0.5506E+03
   4.660  0.4454E+02  0.3806E+02  0.5514E+03
   4.670  0.3126E+02  0.3036E+02  0.5522E+03
   4.680  0.2636E+02  0.4143E+02  0.5529E+03
   4.690  0.2456E+02  0.3184E+02  0.5534E+03
   4.700  0.2691E+02  0.3174E+02  0.5540E+03
   4.710  0.2777E+02  0.3111E+02  0.5546E+03
   4.720  0.2841E+02  0.3087E+02  0.5552E+03
   4.730  0.2766E+02  0.3168E+02  0.5558E+03
   4.740  0.2764E+02  0.2978E+02  0.5564E+03
   4.750  0.2862E+02  0.2899E+02  0.5570E+03
   4.760  0.2655E+02  0.3430E+02  0.5575E+03
   4.770  0.2317E+02  0.2661E+02  0.5581E+03
   4.780  0.2276E+02  0.2505E+02  0.5586E+03
   4.790  0.2079E+02  0.2418E+02  0.5591E+03
   4.800  0.1943E+02  0.2207E+02  0.5595E+03
   4.810  0.1836E+02  0.2055E+02  0.5599E+03
   4.820  0.1759E+02  0.1940E+02  0.5603E+03
   4.830  0.1710E+02  0.1857E+02  0.5606E+03
   4.840  0.1676E+02  0.1802E+02  0.5610E+03
   4.850  0.1653E+02  0.1759E+02  0.5613E+03
   4.860  0.1624E+02  0.1726E+02  0.5617E+03
   4.870  0.1663E+02  0.1695E+02  0.5620E+03
   4.880  0.1696E+02  0.1663E+02  0.5623E+03
   4.890  0.1465E+02  0.1628E+02  0.5627E+03
   4.900  0.1446E+02  0.1599E+02  0.5630E+03
   4.910  0.1460E+02  0.1738E+02  0.5633E+03
   4.920  0.1518E+02  0.1554E+02  0.5636E+03
   4.930  0.1572E+02  0.1621E+02  0.5639E+03
   4.940  0.1614E+02  0.1668E+02  0.5642E+03
   4.950  0.1566E+02  0.1669E+02  0.5646E+03
   4.960  0.1517E+02  0.1612E+02  0.5649E+03
   4.970  0.1473E+02  0.1592E+02  0.5652E+03
   4.980  0.1456E+02  0.1579E+02  0.5655E+03
   4.990  0.1451E+02  0.1545E+02  0.5658E+03
   5.000  0.1564E+02  0.1486E+02  0.5661E+03
   5.010  0.1730E+02  0.1391E+02  0.5664E+03
   5.020  0.1835E+02  0.1237E+02  0.5667E+03
   5.030  0.1508E+02  0.1303E+02  0.5670E+03
   5.040  0.1348E+02  0.1331E+02  0.5673E+03
   5.050  0.1245E+02  0.1432E+02  0.5676E+03
   5.060  0.1144E+02  0.1499E+02  0.5678E+03
   5.070  0.1062E+02  0.1527E+02  0.5681E+03
   5.080  0.1011E+02  0.1287E+02  0.5683E+03
   5.090  0.9586E+01  0.1159E+02  0.5685E+03
   5.100  0.9078E+01  0.1053E+02  0.5687E+03
   5.110  0.8589E+01  0.9730E+01  0.5689E+03
   5.120  0.8116E+01  0.8972E+01  0.5691E+03
   5.130  0.7689E+01  0.8169E+01  0.5693E+03
   5.140  0.6923E+01  0.7242E+01  0.5694E+03
   5.150  0.5026E+01  0.6694E+01  0.5696E+03
   5.160  0.4369E+01  0.6642E+01  0.5697E+03
   5.170  0.7193E+01  0.6576E+01  0.5698E+03
   5.180  0.1011E+02  0.6480E+01  0.5700E+03
   5.190  0.1125E+02  0.6358E+01  0.5702E+03
   5.200  0.1161E+02  0.6450E+01  0.5703E+03
   5.210  0.1213E+02  0.7850E+01  0.5705E+03
   5.220  0.1276E+02  0.9574E+01  0.5707E+03
   5.230  0.1323E+02  0.1127E+02  0.5710E+03
   5.240  0.1328E+02  0.1348E+02  0.5712E+03
   5.250  0.1332E+02  0.1468E+02  0.5715E+03
   5.260  0.1262E+02  0.1427E+02  0.5718E+03
   5.270  0.1146E+02  0.1397E+02  0.5720E+03
   5.280  0.1020E+02  0.1304E+02  0.5723E+03
   5.290  0.9032E+01  0.1238E+02  0.5725E+03
   5.300  0.7926E+01  0.1132E+02  0.5727E+03
   5.310  0.6859E+01  0.1026E+02  0.5729E+03
   5.320  0.6104E+01  0.9168E+01  0.5730E+03
   5.330  0.6042E+01  0.8059E+01  0.5732E+03
   5.340  0.5916E+01  0.6995E+01  0.5733E+03
   5.350  0.5261E+01  0.6036E+01  0.5734E+03
   5.360  0.4178E+01  0.5187E+01  0.5736E+03
   5.370  0.2968E+01  0.4561E+01  0.5736E+03
   5.380  0.1647E+01  0.3983E+01  0.5737E+03
   5.390  0.4359E+00  0.3523E+01  0.5738E+03
   5.400  0.1330E+00  0.3313E+01  0.5738E+03
   5.410  0.1317E-01  0.3518E+01  0.5738E+03
   5.420  0.1602E-02  0.3616E+01  0.5739E+03
   5.430  0.4660E-03  0.3486E+01  0.5739E+03
   5.440  0.1887E-04  0.3145E+01  0.5739E+03
   5.450  0.0000E+00  0.2590E+01  0.5740E+03
   5.460  0.0000E+00  0.1810E+01  0.5740E+03
   5.470  0.0000E+00  0.8662E+00  0.5740E+03
   5.480  0.0000E+00  0.3570E+00  0.5740E+03
   5.490  0.0000E+00  0.1683E+00  0.5740E+03
   5.500  0.0000E+00  0.5266E-01  0.5740E+03
   5.510  0.0000E+00  0.5389E-02  0.5740E+03
   5.520  0.0000E+00  0.7042E-03  0.5740E+03
   5.530  0.0000E+00  0.1325E-03  0.5740E+03
   5.540  0.0000E+00  0.0000E+00  0.5740E+03
   5.550  0.0000E+00  0.0000E+00  0.5740E+03
   5.560  0.0000E+00  0.0000E+00  0.5740E+03
   5.570  0.0000E+00  0.0000E+00  0.5740E+03
   5.580  0.0000E+00  0.0000E+00  0.5740E+03
   5.590  0.0000E+00  0.0000E+00  0.5740E+03
   5.600  0.0000E+00  0.0000E+00  0.5740E+03
   5.610  0.0000E+00  0.0000E+00  0.5740E+03
   5.620  0.0000E+00  0.0000E+00  0.5740E+03
   5.630  0.0000E+00  0.0000E+00  0.5740E+03
   5.640  0.0000E+00  0.0000E+00  0.5740E+03
   5.650  0.0000E+00  0.0000E+00  0.5740E+03
   5.660  0.0000E+00  0.0000E+00  0.5740E+03
   5.670  0.0000E+00  0.0000E+00  0.5740E+03
   5.680  0.0000E+00  0.0000E+00  0.5740E+03
   5.690  0.0000E+00  0.0000E+00  0.5740E+03
   5.700  0.0000E+00  0.0000E+00  0.5740E+03
   5.710  0.0000E+00  0.0000E+00  0.5740E+03
   5.720  0.0000E+00  0.0000E+00  0.5740E+03
   5.730  0.0000E+00  0.0000E+00  0.5740E+03
   5.740  0.0000E+00  0.0000E+00  0.5740E+03
   5.750  0.0000E+00  0.0000E+00  0.5740E+03
   5.760  0.0000E+00  0.0000E+00  0.5740E+03
   5.770  0.0000E+00  0.0000E+00  0.5740E+03
   5.780  0.0000E+00  0.0000E+00  0.5740E+03
   5.790  0.0000E+00  0.0000E+00  0.5740E+03
   5.800  0.0000E+00  0.0000E+00  0.5740E+03
   5.810  0.0000E+00  0.0000E+00  0.5740E+03
   5.820  0.0000E+00  0.0000E+00  0.5740E+03
   5.830  0.0000E+00  0.0000E+00  0.5740E+03
   5.840  0.0000E+00  0.0000E+00  0.5740E+03
   5.850  0.0000E+00  0.0000E+00  0.5740E+03
   5.860  0.0000E+00  0.0000E+00  0.5740E+03
   5.870  0.0000E+00  0.0000E+00  0.5740E+03
   5.880  0.0000E+00  0.0000E+00  0.5740E+03
   5.890  0.0000E+00  0.0000E+00  0.5740E+03
   5.900  0.0000E+00  0.0000E+00  0.5740E+03
   5.910  0.0000E+00  0.0000E+00  0.5740E+03
   5.920  0.0000E+00  0.0000E+00  0.5740E+03
   5.930  0.0000E+00  0.0000E+00  0.5740E+03
   5.940  0.0000E+00  0.0000E+00  0.5740E+03
   5.950  0.0000E+00  0.0000E+00  0.5740E+03
   5.960  0.0000E+00  0.0000E+00  0.5740E+03
   5.970  0.0000E+00  0.0000E+00  0.5740E+03
   5.980  0.0000E+00  0.0000E+00  0.5740E+03
   5.990  0.0000E+00  0.0000E+00  0.5740E+03
   6.000  0.0000E+00  0.0000E+00  0.5740E+03
   6.010  0.0000E+00  0.0000E+00  0.5740E+03
   6.020  0.0000E+00  0.0000E+00  0.5740E+03
   6.030  0.0000E+00  0.0000E+00  0.5740E+03
   6.040  0.0000E+00  0.0000E+00  0.5740E+03
   6.050  0.0000E+00  0.0000E+00  0.5740E+03
   6.060  0.0000E+00  0.0000E+00  0.5740E+03
   6.070  0.0000E+00  0.0000E+00  0.5740E+03
   6.080  0.0000E+00  0.0000E+00  0.5740E+03
   6.090  0.4424E+01  0.0000E+00  0.5740E+03
   6.100  0.7870E+02  0.0000E+00  0.5744E+03
   6.110  0.8551E+02  0.0000E+00  0.5752E+03
   6.120  0.3681E+02  0.0000E+00  0.5758E+03
   6.130  0.3354E+01  0.0000E+00  0.5760E+03
   6.140  0.0000E+00  0.0000E+00  0.5760E+03
   6.150  0.1411E+00  0.0000E+00  0.5760E+03
   6.160  0.1280E+01  0.0000E+00  0.5760E+03
   6.170  0.4058E+01  0.0000E+00  0.5760E+03
   6.180  0.1196E+02  0.0000E+00  0.5761E+03
   6.190  0.1932E+02  0.0000E+00  0.5763E+03
   6.200  0.2623E+02  0.0000E+00  0.5765E+03
   6.210  0.1588E+02  0.0000E+00  0.5767E+03
   6.220  0.9107E+01  0.0000E+00  0.5768E+03
   6.230  0.1360E+02  0.0000E+00  0.5769E+03
   6.240  0.1963E+02  0.0000E+00  0.5771E+03
   6.250  0.2420E+02  0.0000E+00  0.5773E+03
   6.260  0.2798E+02  0.0000E+00  0.5776E+03
   6.270  0.4706E+02  0.0000E+00  0.5780E+03
   6.280  0.5964E+02  0.0000E+00  0.5785E+03
   6.290  0.2315E+02  0.0000E+00  0.5789E+03
   6.300  0.2742E+01  0.0000E+00  0.5790E+03
   6.310  0.2440E+00  0.0000E+00  0.5790E+03
   6.320  0.4250E-02  0.0000E+00  0.5790E+03
   6.330  0.0000E+00  0.0000E+00  0.5790E+03
   6.340  0.0000E+00  0.0000E+00  0.5790E+03
   6.350  0.0000E+00  0.0000E+00  0.5790E+03
   6.360  0.0000E+00  0.0000E+00  0.5790E+03
   6.370  0.0000E+00  0.0000E+00  0.5790E+03
   6.380  0.0000E+00  0.0000E+00  0.5790E+03
   6.390  0.0000E+00  0.0000E+00  0.5790E+03
   6.400  0.0000E+00  0.0000E+00  0.5790E+03
   6.410  0.0000E+00  0.0000E+00  0.5790E+03
   6.420  0.0000E+00  0.0000E+00  0.5790E+03
   6.430  0.0000E+00  0.0000E+00  0.5790E+03
   6.440  0.0000E+00  0.0000E+00  0.5790E+03
   6.450  0.0000E+00  0.0000E+00  0.5790E+03
   6.460  0.0000E+00  0.0000E+00  0.5790E+03
   6.470  0.0000E+00  0.0000E+00  0.5790E+03
   6.480  0.0000E+00  0.0000E+00  0.5790E+03
   6.490  0.0000E+00  0.0000E+00  0.5790E+03
   6.500  0.0000E+00  0.0000E+00  0.5790E+03
   6.510  0.0000E+00  0.0000E+00  0.5790E+03
   6.520  0.0000E+00  0.0000E+00  0.5790E+03
   6.530  0.0000E+00  0.0000E+00  0.5790E+03
   6.540  0.0000E+00  0.0000E+00  0.5790E+03
   6.550  0.0000E+00  0.0000E+00  0.5790E+03
   6.560  0.0000E+00  0.0000E+00  0.5790E+03
   6.570  0.0000E+00  0.0000E+00  0.5790E+03
   6.580  0.0000E+00  0.0000E+00  0.5790E+03
   6.590  0.0000E+00  0.0000E+00  0.5790E+03
   6.600  0.0000E+00  0.0000E+00  0.5790E+03
   6.610  0.0000E+00  0.0000E+00  0.5790E+03
   6.620  0.0000E+00  0.0000E+00  0.5790E+03
   6.630  0.0000E+00  0.0000E+00  0.5790E+03
   6.640  0.0000E+00  0.0000E+00  0.5790E+03
   6.650  0.0000E+00  0.0000E+00  0.5790E+03
   6.660  0.0000E+00  0.0000E+00  0.5790E+03
   6.670  0.0000E+00  0.0000E+00  0.5790E+03
   6.680  0.0000E+00  0.0000E+00  0.5790E+03
   6.690  0.0000E+00  0.0000E+00  0.5790E+03
   6.700  0.0000E+00  0.0000E+00  0.5790E+03
   6.710  0.0000E+00  0.0000E+00  0.5790E+03
   6.720  0.0000E+00  0.0000E+00  0.5790E+03
   6.730  0.0000E+00  0.0000E+00  0.5790E+03
   6.740  0.0000E+00  0.0000E+00  0.5790E+03
   6.750  0.0000E+00  0.0000E+00  0.5790E+03
   6.760  0.0000E+00  0.0000E+00  0.5790E+03
   6.770  0.0000E+00  0.0000E+00  0.5790E+03
   6.780  0.0000E+00  0.0000E+00  0.5790E+03
   6.790  0.0000E+00  0.0000E+00  0.5790E+03
   6.800  0.0000E+00  0.0000E+00  0.5790E+03
   6.810  0.0000E+00  0.0000E+00  0.5790E+03
   6.820  0.0000E+00  0.0000E+00  0.5790E+03
   6.830  0.0000E+00  0.0000E+00  0.5790E+03
   6.840  0.0000E+00  0.0000E+00  0.5790E+03
   6.850  0.0000E+00  0.0000E+00  0.5790E+03
   6.860  0.0000E+00  0.0000E+00  0.5790E+03
   6.870  0.0000E+00  0.0000E+00  0.5790E+03
   6.880  0.0000E+00  0.0000E+00  0.5790E+03
   6.890  0.0000E+00  0.0000E+00  0.5790E+03
   6.900  0.0000E+00  0.0000E+00  0.5790E+03
   6.910  0.0000E+00  0.0000E+00  0.5790E+03
   6.920  0.0000E+00  0.0000E+00  0.5790E+03
   6.930  0.0000E+00  0.0000E+00  0.5790E+03
   6.940  0.0000E+00  0.0000E+00  0.5790E+03
   6.950  0.0000E+00  0.0000E+00  0.5790E+03
   6.960  0.0000E+00  0.0000E+00  0.5790E+03
   6.970  0.0000E+00  0.0000E+00  0.5790E+03
   6.980  0.0000E+00  0.0000E+00  0.5790E+03
   6.990  0.0000E+00  0.0000E+00  0.5790E+03
   7.000  0.0000E+00  0.0000E+00  0.5790E+03
   7.010  0.0000E+00  0.2005E+02  0.5790E+03
   7.020  0.0000E+00  0.1587E+03  0.5798E+03
   7.030  0.0000E+00  0.5508E+02  0.5807E+03
   7.040  0.0000E+00  0.2513E+01  0.5810E+03
   7.050  0.0000E+00  0.0000E+00  0.5810E+03
   7.060  0.0000E+00  0.0000E+00  0.5810E+03
   7.070  0.0000E+00  0.0000E+00  0.5810E+03
   7.080  0.0000E+00  0.0000E+00  0.5810E+03
   7.090  0.0000E+00  0.0000E+00  0.5810E+03
   7.100  0.0000E+00  0.0000E+00  0.5810E+03
   7.110  0.0000E+00  0.0000E+00  0.5810E+03
   7.120  0.0000E+00  0.0000E+00  0.5810E+03
   7.130  0.0000E+00  0.0000E+00  0.5810E+03
   7.140  0.0000E+00  0.0000E+00  0.5810E+03
   7.150  0.0000E+00  0.0000E+00  0.5810E+03
   7.160  0.0000E+00  0.0000E+00  0.5810E+03
   7.170  0.0000E+00  0.0000E+00  0.5810E+03
   7.180  0.0000E+00  0.0000E+00  0.5810E+03
   7.190  0.0000E+00  0.0000E+00  0.5810E+03
   7.200  0.0000E+00  0.0000E+00  0.5810E+03
   7.210  0.0000E+00  0.0000E+00  0.5810E+03
   7.220  0.0000E+00  0.0000E+00  0.5810E+03
   7.230  0.0000E+00  0.0000E+00  0.5810E+03
   7.240  0.0000E+00  0.0000E+00  0.5810E+03
   7.250  0.0000E+00  0.0000E+00  0.5810E+03
   7.260  0.0000E+00  0.0000E+00  0.5810E+03
   7.270  0.0000E+00  0.0000E+00  0.5810E+03
   7.280  0.0000E+00  0.0000E+00  0.5810E+03
   7.290  0.0000E+00  0.0000E+00  0.5810E+03
   7.300  0.0000E+00  0.0000E+00  0.5810E+03
   7.310  0.0000E+00  0.0000E+00  0.5810E+03
   7.320  0.0000E+00  0.0000E+00  0.5810E+03
   7.330  0.0000E+00  0.0000E+00  0.5810E+03
   7.340  0.0000E+00  0.0000E+00  0.5810E+03
   7.350  0.0000E+00  0.0000E+00  0.5810E+03
   7.360  0.0000E+00  0.0000E+00  0.5810E+03
   7.370  0.0000E+00  0.0000E+00  0.5810E+03
   7.380  0.0000E+00  0.0000E+00  0.5810E+03
   7.390  0.0000E+00  0.0000E+00  0.5810E+03
   7.400  0.0000E+00  0.0000E+00  0.5810E+03
   7.410  0.0000E+00  0.0000E+00  0.5810E+03
   7.420  0.0000E+00  0.0000E+00  0.5810E+03
   7.430  0.0000E+00  0.0000E+00  0.5810E+03
   7.440  0.0000E+00  0.0000E+00  0.5810E+03
   7.450  0.3040E-05  0.0000E+00  0.5810E+03
   7.460  0.5453E-04  0.0000E+00  0.5810E+03
   7.470  0.1697E-03  0.0000E+00  0.5810E+03
   7.480  0.3614E-03  0.0000E+00  0.5810E+03
   7.490  0.7624E-03  0.0000E+00  0.5810E+03
   7.500  0.1408E-02  0.0000E+00  0.5810E+03
   7.510  0.2297E-02  0.0000E+00  0.5810E+03
   7.520  0.3430E-02  0.0000E+00  0.5810E+03
   7.530  0.4808E-02  0.0000E+00  0.5810E+03
   7.540  0.6429E-02  0.1516E-03  0.5810E+03
   7.550  0.8295E-02  0.9253E-03  0.5810E+03
   7.560  0.1040E-01  0.2420E-02  0.5810E+03
   7.570  0.1276E-01  0.4637E-02  0.5810E+03
   7.580  0.1536E-01  0.7575E-02  0.5810E+03
   7.590  0.1820E-01  0.1123E-01  0.5810E+03
   7.600  0.2129E-01  0.1561E-01  0.5810E+03
   7.610  0.2462E-01  0.2072E-01  0.5810E+03
   7.620  0.2819E-01  0.2654E-01  0.5810E+03
   7.630  0.3201E-01  0.3308E-01  0.5810E+03
   7.640  0.3607E-01  0.4035E-01  0.5810E+03
   7.650  0.4038E-01  0.4834E-01  0.5810E+03
   7.660  0.4493E-01  0.5704E-01  0.5810E+03
   7.670  0.4973E-01  0.6647E-01  0.5810E+03
   7.680  0.5476E-01  0.7662E-01  0.5810E+03
   7.690  0.6005E-01  0.8750E-01  0.5810E+03
   7.700  0.6558E-01  0.9909E-01  0.5810E+03
   7.710  0.7135E-01  0.1114E+00  0.5810E+03
   7.720  0.7736E-01  0.1244E+00  0.5810E+03
   7.730  0.8362E-01  0.1382E+00  0.5810E+03
   7.740  0.9013E-01  0.1527E+00  0.5810E+03
   7.750  0.9688E-01  0.1679E+00  0.5810E+03
   7.760  0.1039E+00  0.1838E+00  0.5810E+03
   7.770  0.1111E+00  0.2004E+00  0.5810E+03
   7.780  0.1186E+00  0.2178E+00  0.5810E+03
   7.790  0.1263E+00  0.2359E+00  0.5810E+03
   7.800  0.1343E+00  0.2547E+00  0.5810E+03
   7.810  0.1425E+00  0.2742E+00  0.5810E+03
   7.820  0.1509E+00  0.2945E+00  0.5810E+03
   7.830  0.1596E+00  0.3154E+00  0.5811E+03
   7.840  0.1686E+00  0.3371E+00  0.5811E+03
   7.850  0.1778E+00  0.3595E+00  0.5811E+03
   7.860  0.1865E+00  0.3827E+00  0.5811E+03
   7.870  0.1952E+00  0.4176E+00  0.5811E+03
   7.880  0.2049E+00  0.6068E+00  0.5811E+03
   7.890  0.2161E+00  0.8192E+00  0.5811E+03
   7.900  0.2291E+00  0.1099E+01  0.5811E+03
   7.910  0.2438E+00  0.1455E+01  0.5811E+03
   7.920  0.2576E+00  0.1888E+01  0.5811E+03
   7.930  0.2706E+00  0.2397E+01  0.5812E+03
   7.940  0.2830E+00  0.2982E+01  0.5812E+03
   7.950  0.2948E+00  0.3644E+01  0.5812E+03
   7.960  0.3062E+00  0.4432E+01  0.5813E+03
   7.970  0.3172E+00  0.6482E+01  0.5813E+03
   7.980  0.3279E+00  0.7627E+01  0.5814E+03
   7.990  0.3384E+00  0.8697E+01  0.5815E+03
   8.000  0.3486E+00  0.9371E+01  0.5816E+03
   8.010  0.3587E+00  0.9715E+01  0.5817E+03
   8.020  0.3686E+00  0.1400E+02  0.5818E+03
   8.030  0.3783E+00  0.7703E+01  0.5819E+03
   8.040  0.3879E+00  0.3273E+02  0.5821E+03
   8.050  0.3972E+00  0.4289E+02  0.5825E+03
   8.060  0.4064E+00  0.7767E+02  0.5830E+03
   8.070  0.4154E+00  0.4653E+02  0.5838E+03
   8.080  0.4242E+00  0.6268E+01  0.5841E+03
   8.090  0.4329E+00  0.1205E+01  0.5841E+03
   8.100  0.4413E+00  0.6236E+00  0.5841E+03
   8.110  0.4496E+00  0.6118E+00  0.5842E+03
   8.120  0.4577E+00  0.6186E+00  0.5842E+03
   8.130  0.4656E+00  0.6244E+00  0.5842E+03
   8.140  0.4733E+00  0.6294E+00  0.5842E+03
   8.150  0.4788E+00  0.6334E+00  0.5842E+03
   8.160  0.4818E+00  0.6366E+00  0.5842E+03
   8.170  0.4823E+00  0.6388E+00  0.5842E+03
   8.180  0.4819E+00  0.6403E+00  0.5842E+03
   8.190  0.4835E+00  0.6408E+00  0.5842E+03
   8.200  0.4859E+00  0.6403E+00  0.5843E+03
   8.210  0.4897E+00  0.6325E+00  0.5843E+03
   8.220  0.4932E+00  0.6240E+00  0.5843E+03
   8.230  0.4966E+00  0.6160E+00  0.5843E+03
   8.240  0.4998E+00  0.6070E+00  0.5843E+03
   8.250  0.5033E+00  0.5994E+00  0.5843E+03
   8.260  0.5073E+00  0.5936E+00  0.5843E+03
   8.270  0.5118E+00  0.5891E+00  0.5843E+03
   8.280  0.5171E+00  0.5849E+00  0.5843E+03
   8.290  0.5234E+00  0.5813E+00  0.5844E+03
   8.300  0.5306E+00  0.5786E+00  0.5844E+03
   8.310  0.5388E+00  0.5774E+00  0.5844E+03
   8.320  0.5479E+00  0.5779E+00  0.5844E+03
   8.330  0.5588E+00  0.5802E+00  0.5844E+03
   8.340  0.5713E+00  0.5843E+00  0.5844E+03
   8.350  0.5850E+00  0.5903E+00  0.5844E+03
   8.360  0.5992E+00  0.5981E+00  0.5844E+03
   8.370  0.6136E+00  0.6087E+00  0.5844E+03
   8.380  0.6281E+00  0.6220E+00  0.5845E+03
   8.390  0.6428E+00  0.6363E+00  0.5845E+03
   8.400  0.6576E+00  0.6513E+00  0.5845E+03
   8.410  0.6723E+00  0.6666E+00  0.5845E+03
   8.420  0.6873E+00  0.6823E+00  0.5845E+03
   8.430  0.7024E+00  0.6981E+00  0.5845E+03
   8.440  0.7179E+00  0.7139E+00  0.5845E+03
   8.450  0.7336E+00  0.7300E+00  0.5846E+03
   8.460  0.7498E+00  0.7463E+00  0.5846E+03
   8.470  0.7663E+00  0.7629E+00  0.5846E+03
   8.480  0.7833E+00  0.7799E+00  0.5846E+03
   8.490  0.8007E+00  0.7973E+00  0.5846E+03
   8.500  0.8186E+00  0.8152E+00  0.5846E+03
   8.510  0.8372E+00  0.8337E+00  0.5846E+03
   8.520  0.8563E+00  0.8528E+00  0.5847E+03
   8.530  0.8760E+00  0.8725E+00  0.5847E+03
   8.540  0.8963E+00  0.8927E+00  0.5847E+03
   8.550  0.9172E+00  0.9136E+00  0.5847E+03
   8.560  0.9387E+00  0.9351E+00  0.5847E+03
   8.570  0.9607E+00  0.9572E+00  0.5848E+03
   8.580  0.9834E+00  0.9799E+00  0.5848E+03
   8.590  0.1007E+01  0.1003E+01  0.5848E+03
   8.600  0.1030E+01  0.1027E+01  0.5848E+03
   8.610  0.1055E+01  0.1052E+01  0.5848E+03
   8.620  0.1080E+01  0.1077E+01  0.5849E+03
   8.630  0.1105E+01  0.1102E+01  0.5849E+03
   8.640  0.1132E+01  0.1129E+01  0.5849E+03
   8.650  0.1158E+01  0.1156E+01  0.5849E+03
   8.660  0.1186E+01  0.1183E+01  0.5849E+03
   8.670  0.1213E+01  0.1211E+01  0.5850E+03
   8.680  0.1242E+01  0.1240E+01  0.5850E+03
   8.690  0.1271E+01  0.1269E+01  0.5850E+03
   8.700  0.1301E+01  0.1299E+01  0.5850E+03
   8.710  0.1331E+01  0.1330E+01  0.5851E+03
   8.720  0.1360E+01  0.1361E+01  0.5851E+03
   8.730  0.1384E+01  0.1392E+01  0.5851E+03
   8.740  0.1402E+01  0.1425E+01  0.5852E+03
   8.750  0.1413E+01  0.1458E+01  0.5852E+03
   8.760  0.1424E+01  0.1489E+01  0.5852E+03
   8.770  0.1454E+01  0.1524E+01  0.5852E+03
   8.780  0.1502E+01  0.1578E+01  0.5853E+03
   8.790  0.1570E+01  0.1656E+01  0.5853E+03
   8.800  0.1661E+01  0.1757E+01  0.5853E+03
   8.810  0.1770E+01  0.1875E+01  0.5854E+03
   8.820  0.1912E+01  0.2012E+01  0.5854E+03
   8.830  0.2101E+01  0.2167E+01  0.5854E+03
   8.840  0.2344E+01  0.2331E+01  0.5855E+03
   8.850  0.2637E+01  0.2528E+01  0.5855E+03
   8.860  0.3186E+01  0.2783E+01  0.5856E+03
   8.870  0.5801E+01  0.3317E+01  0.5857E+03
   8.880  0.6807E+01  0.6924E+01  0.5858E+03
   8.890  0.6325E+01  0.6700E+01  0.5859E+03
   8.900  0.6828E+01  0.6457E+01  0.5861E+03
   8.910  0.7265E+01  0.7124E+01  0.5862E+03
   8.920  0.7568E+01  0.7621E+01  0.5863E+03
   8.930  0.7710E+01  0.7868E+01  0.5865E+03
   8.940  0.7746E+01  0.7963E+01  0.5866E+03
   8.950  0.7768E+01  0.7995E+01  0.5868E+03
   8.960  0.7758E+01  0.8003E+01  0.5870E+03
   8.970  0.7713E+01  0.7965E+01  0.5871E+03
   8.980  0.7635E+01  0.7881E+01  0.5873E+03
   8.990  0.7648E+01  0.7746E+01  0.5874E+03
   9.000  0.7699E+01  0.7700E+01  0.5876E+03
   9.010  0.7513E+01  0.7580E+01  0.5877E+03
   9.020  0.7226E+01  0.7259E+01  0.5879E+03
   9.030  0.6891E+01  0.6858E+01  0.5880E+03
   9.040  0.7022E+01  0.6805E+01  0.5882E+03
   9.050  0.7036E+01  0.6645E+01  0.5883E+03
   9.060  0.6520E+01  0.6229E+01  0.5884E+03
   9.070  0.5585E+01  0.5575E+01  0.5886E+03
   9.080  0.5638E+01  0.5037E+01  0.5887E+03
   9.090  0.5950E+01  0.5371E+01  0.5888E+03
   9.100  0.6240E+01  0.5742E+01  0.5889E+03
   9.110  0.6471E+01  0.6064E+01  0.5890E+03
   9.120  0.6691E+01  0.6275E+01  0.5891E+03
   9.130  0.6911E+01  0.6489E+01  0.5893E+03
   9.140  0.7155E+01  0.6697E+01  0.5894E+03
   9.150  0.7409E+01  0.6921E+01  0.5895E+03
   9.160  0.7691E+01  0.7200E+01  0.5897E+03
   9.170  0.7990E+01  0.7476E+01  0.5898E+03
   9.180  0.8308E+01  0.7766E+01  0.5900E+03
   9.190  0.8641E+01  0.8075E+01  0.5902E+03
   9.200  0.8986E+01  0.8400E+01  0.5903E+03
   9.210  0.9343E+01  0.8740E+01  0.5905E+03
   9.220  0.9718E+01  0.9089E+01  0.5907E+03
   9.230  0.1010E+02  0.9443E+01  0.5909E+03
   9.240  0.1047E+02  0.9793E+01  0.5911E+03
   9.250  0.1085E+02  0.1014E+02  0.5913E+03
   9.260  0.1124E+02  0.1052E+02  0.5915E+03
   9.270  0.1163E+02  0.1090E+02  0.5917E+03
   9.280  0.1201E+02  0.1129E+02  0.5920E+03
   9.290  0.1239E+02  0.1167E+02  0.5922E+03
   9.300  0.1276E+02  0.1204E+02  0.5924E+03
   9.310  0.1307E+02  0.1241E+02  0.5927E+03
   9.320  0.1347E+02  0.1279E+02  0.5930E+03
   9.330  0.1414E+02  0.1315E+02  0.5932E+03
   9.340  0.1491E+02  0.1362E+02  0.5935E+03
   9.350  0.1549E+02  0.1434E+02  0.5938E+03
   9.360  0.1588E+02  0.1518E+02  0.5941E+03
   9.370  0.1603E+02  0.1596E+02  0.5944E+03
   9.380  0.1593E+02  0.1654E+02  0.5947E+03
   9.390  0.1584E+02  0.1693E+02  0.5951E+03
   9.400  0.1589E+02  0.1705E+02  0.5954E+03
   9.410  0.1608E+02  0.1721E+02  0.5957E+03
   9.420  0.1641E+02  0.1762E+02  0.5961E+03
   9.430  0.1689E+02  0.1822E+02  0.5964E+03
   9.440  0.1751E+02  0.1909E+02  0.5968E+03
   9.450  0.1683E+02  0.1856E+02  0.5971E+03
   9.460  0.1625E+02  0.1818E+02  0.5975E+03
   9.470  0.1910E+02  0.2023E+02  0.5978E+03
   9.480  0.1675E+02  0.1828E+02  0.5982E+03
   9.490  0.1485E+02  0.1588E+02  0.5985E+03
   9.500  0.1525E+02  0.1377E+02  0.5988E+03
   9.510  0.1545E+02  0.1416E+02  0.5991E+03
   9.520  0.1585E+02  0.1459E+02  0.5994E+03
   9.530  0.1540E+02  0.1400E+02  0.5997E+03
   9.540  0.1616E+02  0.1404E+02  0.6000E+03
   9.550  0.1744E+02  0.1612E+02  0.6003E+03
   9.560  0.1830E+02  0.1783E+02  0.6007E+03
   9.570  0.1795E+02  0.1821E+02  0.6011E+03
   9.580  0.1714E+02  0.1796E+02  0.6014E+03
   9.590  0.1673E+02  0.1759E+02  0.6018E+03
   9.600  0.1656E+02  0.1718E+02  0.6021E+03
   9.610  0.1622E+02  0.1672E+02  0.6024E+03
   9.620  0.1587E+02  0.1625E+02  0.6028E+03
   9.630  0.1600E+02  0.1603E+02  0.6031E+03
   9.640  0.1517E+02  0.1584E+02  0.6034E+03
   9.650  0.1409E+02  0.1461E+02  0.6037E+03
   9.660  0.1255E+02  0.1372E+02  0.6040E+03
   9.670  0.1328E+02  0.1231E+02  0.6042E+03
   9.680  0.1433E+02  0.1311E+02  0.6045E+03
   9.690  0.1559E+02  0.1470E+02  0.6048E+03
   9.700  0.1707E+02  0.1631E+02  0.6051E+03
   9.710  0.1816E+02  0.1778E+02  0.6054E+03
   9.720  0.1931E+02  0.1992E+02  0.6058E+03
   9.730  0.1975E+02  0.2021E+02  0.6062E+03
   9.740  0.2007E+02  0.1966E+02  0.6066E+03
   9.750  0.1978E+02  0.1938E+02  0.6070E+03
   9.760  0.1923E+02  0.1955E+02  0.6074E+03
   9.770  0.1862E+02  0.1915E+02  0.6078E+03
   9.780  0.1798E+02  0.1886E+02  0.6082E+03
   9.790  0.1747E+02  0.1845E+02  0.6085E+03
   9.800  0.1706E+02  0.1817E+02  0.6089E+03
   9.810  0.1706E+02  0.1801E+02  0.6092E+03
   9.820  0.1834E+02  0.1782E+02  0.6096E+03
   9.830  0.2285E+02  0.2025E+02  0.6100E+03
   9.840  0.3061E+02  0.2551E+02  0.6105E+03
   9.850  0.3611E+02  0.3335E+02  0.6111E+03
   9.860  0.3691E+02  0.3694E+02  0.6118E+03
   9.870  0.3680E+02  0.3537E+02  0.6125E+03
   9.880  0.4193E+02  0.3531E+02  0.6133E+03
   9.890  0.3982E+02  0.3843E+02  0.6141E+03
   9.900  0.3903E+02  0.3546E+02  0.6149E+03
   9.910  0.3348E+02  0.3438E+02  0.6156E+03
   9.920  0.3013E+02  0.3159E+02  0.6162E+03
   9.930  0.2996E+02  0.3138E+02  0.6169E+03
   9.940  0.2739E+02  0.3225E+02  0.6175E+03
   9.950  0.2598E+02  0.2859E+02  0.6180E+03
   9.960  0.2893E+02  0.2557E+02  0.6186E+03
   9.970  0.3100E+02  0.2754E+02  0.6191E+03
   9.980  0.3121E+02  0.2891E+02  0.6197E+03
   9.990  0.3027E+02  0.2993E+02  0.6203E+03
  10.000  0.3181E+02  0.3074E+02  0.6210E+03
  10.010  0.3332E+02  0.3133E+02  0.6216E+03
  10.020  0.3411E+02  0.3314E+02  0.6223E+03
  10.030  0.3524E+02  0.3454E+02  0.6229E+03
  10.040  0.3525E+02  0.3495E+02  0.6236E+03
  10.050  0.3385E+02  0.3408E+02  0.6243E+03
  10.060  0.3261E+02  0.3481E+02  0.6250E+03
  10.070  0.3235E+02  0.3259E+02  0.6257E+03
  10.080  0.3278E+02  0.3224E+02  0.6263E+03
  10.090  0.3322E+02  0.3205E+02  0.6270E+03
  10.100  0.3284E+02  0.3201E+02  0.6276E+03
  10.110  0.3208E+02  0.3192E+02  0.6283E+03
  10.120  0.2963E+02  0.2920E+02  0.6289E+03
  10.130  0.2836E+02  0.2765E+02  0.6295E+03
  10.140  0.2791E+02  0.2592E+02  0.6300E+03
  10.150  0.2679E+02  0.2500E+02  0.6305E+03
  10.160  0.2543E+02  0.2488E+02  0.6311E+03
  10.170  0.2401E+02  0.2539E+02  0.6316E+03
  10.180  0.2249E+02  0.2516E+02  0.6320E+03
  10.190  0.2122E+02  0.2370E+02  0.6325E+03
  10.200  0.1992E+02  0.2221E+02  0.6329E+03
  10.210  0.2030E+02  0.2111E+02  0.6334E+03
  10.220  0.2065E+02  0.2131E+02  0.6338E+03
  10.230  0.2083E+02  0.2137E+02  0.6342E+03
  10.240  0.2088E+02  0.2126E+02  0.6346E+03
  10.250  0.2082E+02  0.2108E+02  0.6350E+03
  10.260  0.2061E+02  0.2098E+02  0.6354E+03
  10.270  0.2113E+02  0.2110E+02  0.6359E+03
  10.280  0.2202E+02  0.2141E+02  0.6363E+03
  10.290  0.2208E+02  0.2161E+02  0.6367E+03
  10.300  0.2138E+02  0.2545E+02  0.6372E+03
  10.310  0.2319E+02  0.2461E+02  0.6376E+03
  10.320  0.3715E+02  0.3887E+02  0.6382E+03
  10.330  0.3563E+02  0.3336E+02  0.6390E+03
  10.340  0.4475E+02  0.3309E+02  0.6397E+03
  10.350  0.3517E+02  0.4248E+02  0.6405E+03
  10.360  0.2427E+02  0.3288E+02  0.6412E+03
  10.370  0.1972E+02  0.2223E+02  0.6417E+03
  10.380  0.1780E+02  0.1909E+02  0.6421E+03
  10.390  0.1795E+02  0.1720E+02  0.6424E+03
  10.400  0.2204E+02  0.1741E+02  0.6428E+03
  10.410  0.1991E+02  0.1799E+02  0.6432E+03
  10.420  0.1899E+02  0.1810E+02  0.6436E+03
  10.430  0.2049E+02  0.1850E+02  0.6439E+03
  10.440  0.1710E+02  0.1910E+02  0.6443E+03
  10.450  0.1679E+02  0.2033E+02  0.6447E+03
  10.460  0.1709E+02  0.2160E+02  0.6451E+03
  10.470  0.1694E+02  0.1969E+02  0.6454E+03
  10.480  0.1657E+02  0.1782E+02  0.6458E+03
  10.490  0.1627E+02  0.1715E+02  0.6461E+03
  10.500  0.1603E+02  0.1672E+02  0.6465E+03
  10.510  0.1569E+02  0.1636E+02  0.6468E+03
  10.520  0.1537E+02  0.1601E+02  0.6471E+03
  10.530  0.1453E+02  0.1583E+02  0.6474E+03
  10.540  0.1326E+02  0.1495E+02  0.6477E+03
  10.550  0.1285E+02  0.1375E+02  0.6480E+03
  10.560  0.1267E+02  0.1275E+02  0.6482E+03
  10.570  0.1272E+02  0.1245E+02  0.6485E+03
  10.580  0.1289E+02  0.1243E+02  0.6487E+03
  10.590  0.1306E+02  0.1247E+02  0.6490E+03
  10.600  0.1325E+02  0.1251E+02  0.6493E+03
  10.610  0.1346E+02  0.1258E+02  0.6495E+03
  10.620  0.1370E+02  0.1268E+02  0.6498E+03
  10.630  0.1391E+02  0.1281E+02  0.6500E+03
  10.640  0.1415E+02  0.1291E+02  0.6503E+03
  10.650  0.1473E+02  0.1315E+02  0.6506E+03
  10.660  0.1655E+02  0.1379E+02  0.6509E+03
  10.670  0.1904E+02  0.1640E+02  0.6512E+03
  10.680  0.2048E+02  0.1884E+02  0.6516E+03
  10.690  0.1888E+02  0.1756E+02  0.6520E+03
  10.700  0.1672E+02  0.1568E+02  0.6523E+03
  10.710  0.1574E+02  0.1454E+02  0.6526E+03
  10.720  0.1773E+02  0.1353E+02  0.6529E+03
  10.730  0.1844E+02  0.1337E+02  0.6532E+03
  10.740  0.1834E+02  0.1498E+02  0.6536E+03
  10.750  0.1793E+02  0.1981E+02  0.6539E+03
  10.760  0.1778E+02  0.2112E+02  0.6543E+03
  10.770  0.1760E+02  0.1981E+02  0.6547E+03
  10.780  0.1835E+02  0.1812E+02  0.6551E+03
  10.790  0.1695E+02  0.1936E+02  0.6554E+03
  10.800  0.1782E+02  0.1799E+02  0.6558E+03
  10.810  0.1449E+02  0.1771E+02  0.6561E+03
  10.820  0.1323E+02  0.1651E+02  0.6564E+03
  10.830  0.1173E+02  0.1505E+02  0.6567E+03
  10.840  0.9002E+01  0.1415E+02  0.6570E+03
  10.850  0.7418E+01  0.1183E+02  0.6572E+03
  10.860  0.7614E+01  0.9767E+01  0.6574E+03
  10.870  0.8725E+01  0.8549E+01  0.6575E+03
  10.880  0.1102E+02  0.9088E+01  0.6577E+03
  10.890  0.1167E+02  0.1025E+02  0.6579E+03
  10.900  0.1369E+02  0.1013E+02  0.6581E+03
  10.910  0.1499E+02  0.1194E+02  0.6584E+03
  10.920  0.1491E+02  0.1423E+02  0.6587E+03
  10.930  0.1388E+02  0.1343E+02  0.6590E+03
  10.940  0.1336E+02  0.1330E+02  0.6592E+03
  10.950  0.1297E+02  0.1314E+02  0.6595E+03
  10.960  0.1348E+02  0.1308E+02  0.6598E+03
  10.970  0.1254E+02  0.1318E+02  0.6600E+03
  10.980  0.1175E+02  0.1348E+02  0.6603E+03
  10.990  0.1167E+02  0.1441E+02  0.6605E+03
  11.000  0.1513E+02  0.1381E+02  0.6608E+03
  11.010  0.1627E+02  0.1562E+02  0.6611E+03
  11.020  0.1707E+02  0.1548E+02  0.6614E+03
  11.030  0.1745E+02  0.1646E+02  0.6618E+03
  11.040  0.1747E+02  0.1695E+02  0.6621E+03
  11.050  0.1734E+02  0.1683E+02  0.6625E+03
  11.060  0.1845E+02  0.1676E+02  0.6628E+03
  11.070  0.1791E+02  0.1772E+02  0.6632E+03
  11.080  0.1577E+02  0.1671E+02  0.6635E+03
  11.090  0.1501E+02  0.1485E+02  0.6638E+03
  11.100  0.1357E+02  0.1381E+02  0.6641E+03
  11.110  0.1234E+02  0.1302E+02  0.6644E+03
  11.120  0.1182E+02  0.1229E+02  0.6646E+03
  11.130  0.1120E+02  0.1110E+02  0.6648E+03
  11.140  0.9878E+01  0.1073E+02  0.6651E+03
  11.150  0.8925E+01  0.1054E+02  0.6653E+03
  11.160  0.8369E+01  0.1019E+02  0.6655E+03
  11.170  0.8041E+01  0.9468E+01  0.6656E+03
  11.180  0.7598E+01  0.8673E+01  0.6658E+03
  11.190  0.7261E+01  0.8065E+01  0.6660E+03
  11.200  0.6928E+01  0.7725E+01  0.6661E+03
  11.210  0.6771E+01  0.7433E+01  0.6663E+03
  11.220  0.6776E+01  0.7182E+01  0.6664E+03
  11.230  0.6802E+01  0.7019E+01  0.6665E+03
  11.240  0.6941E+01  0.7000E+01  0.6667E+03
  11.250  0.7066E+01  0.7038E+01  0.6668E+03
  11.260  0.7132E+01  0.7121E+01  0.6670E+03
  11.270  0.7182E+01  0.7257E+01  0.6671E+03
  11.280  0.7349E+01  0.7576E+01  0.6672E+03
  11.290  0.7972E+01  0.8077E+01  0.6674E+03
  11.300  0.8862E+01  0.8613E+01  0.6676E+03
  11.310  0.1013E+02  0.9334E+01  0.6677E+03
  11.320  0.1189E+02  0.1036E+02  0.6680E+03
  11.330  0.1385E+02  0.1164E+02  0.6682E+03
  11.340  0.1553E+02  0.1307E+02  0.6685E+03
  11.350  0.1700E+02  0.1471E+02  0.6688E+03
  11.360  0.1828E+02  0.1663E+02  0.6691E+03
  11.370  0.1924E+02  0.1876E+02  0.6695E+03
  11.380  0.2072E+02  0.2114E+02  0.6699E+03
  11.390  0.2221E+02  0.2331E+02  0.6703E+03
  11.400  0.2390E+02  0.2483E+02  0.6708E+03
  11.410  0.2567E+02  0.2585E+02  0.6713E+03
  11.420  0.2743E+02  0.2704E+02  0.6718E+03
  11.430  0.2926E+02  0.2847E+02  0.6724E+03
  11.440  0.3104E+02  0.2998E+02  0.6730E+03
  11.450  0.3144E+02  0.3037E+02  0.6736E+03
  11.460  0.2934E+02  0.2952E+02  0.6742E+03
  11.470  0.2750E+02  0.2747E+02  0.6747E+03
  11.480  0.2651E+02  0.2724E+02  0.6753E+03
  11.490  0.2497E+02  0.2627E+02  0.6758E+03
  11.500  0.2387E+02  0.2531E+02  0.6763E+03
  11.510  0.2329E+02  0.2415E+02  0.6768E+03
  11.520  0.2317E+02  0.2364E+02  0.6773E+03
  11.530  0.2302E+02  0.2370E+02  0.6777E+03
  11.540  0.2279E+02  0.2348E+02  0.6782E+03
  11.550  0.2229E+02  0.2306E+02  0.6787E+03
  11.560  0.2102E+02  0.2212E+02  0.6791E+03
  11.570  0.2160E+02  0.2112E+02  0.6795E+03
  11.580  0.2253E+02  0.2142E+02  0.6800E+03
  11.590  0.2279E+02  0.2151E+02  0.6804E+03
  11.600  0.2321E+02  0.2196E+02  0.6809E+03
  11.610  0.2407E+02  0.2185E+02  0.6813E+03
  11.620  0.2482E+02  0.2287E+02  0.6818E+03
  11.630  0.2651E+02  0.2517E+02  0.6823E+03
  11.640  0.2615E+02  0.2405E+02  0.6828E+03
  11.650  0.2694E+02  0.2557E+02  0.6833E+03
  11.660  0.2595E+02  0.2556E+02  0.6838E+03
  11.670  0.2437E+02  0.2406E+02  0.6843E+03
  11.680  0.2389E+02  0.2214E+02  0.6848E+03
  11.690  0.2635E+02  0.2191E+02  0.6853E+03
  11.700  0.2305E+02  0.1988E+02  0.6857E+03
  11.710  0.2227E+02  0.2230E+02  0.6862E+03
  11.720  0.2298E+02  0.2543E+02  0.6866E+03
  11.730  0.2713E+02  0.2229E+02  0.6871E+03
  11.740  0.3792E+02  0.2504E+02  0.6877E+03
  11.750  0.2497E+02  0.3081E+02  0.6882E+03
  11.760  0.2501E+02  0.3150E+02  0.6888E+03
  11.770  0.2548E+02  0.2990E+02  0.6894E+03
  11.780  0.2549E+02  0.2664E+02  0.6899E+03
  11.790  0.2508E+02  0.2588E+02  0.6904E+03
  11.800  0.2437E+02  0.2522E+02  0.6909E+03
  11.810  0.2335E+02  0.2427E+02  0.6914E+03
  11.820  0.2241E+02  0.2329E+02  0.6919E+03
  11.830  0.2143E+02  0.2229E+02  0.6923E+03
  11.840  0.2041E+02  0.2144E+02  0.6927E+03
  11.850  0.1943E+02  0.2051E+02  0.6931E+03
  11.860  0.1833E+02  0.1981E+02  0.6935E+03
  11.870  0.1723E+02  0.1880E+02  0.6939E+03
  11.880  0.1611E+02  0.1763E+02  0.6943E+03
  11.890  0.1495E+02  0.1655E+02  0.6946E+03
  11.900  0.1379E+02  0.1547E+02  0.6949E+03
  11.910  0.1266E+02  0.1435E+02  0.6952E+03
  11.920  0.1166E+02  0.1315E+02  0.6954E+03
  11.930  0.1099E+02  0.1230E+02  0.6957E+03
  11.940  0.1055E+02  0.1176E+02  0.6959E+03
  11.950  0.1018E+02  0.1122E+02  0.6961E+03
  11.960  0.9631E+01  0.1063E+02  0.6963E+03
  11.970  0.9080E+01  0.9998E+01  0.6965E+03
  11.980  0.8499E+01  0.9454E+01  0.6967E+03
  11.990  0.7862E+01  0.8875E+01  0.6969E+03
  12.000  0.7239E+01  0.8259E+01  0.6970E+03
  12.010  0.6561E+01  0.7567E+01  0.6972E+03
  12.020  0.5802E+01  0.6863E+01  0.6973E+03
  12.030  0.4945E+01  0.6097E+01  0.6974E+03
  12.040  0.4066E+01  0.5134E+01  0.6975E+03
  12.050  0.3377E+01  0.4105E+01  0.6976E+03
  12.060  0.2771E+01  0.3188E+01  0.6977E+03
  12.070  0.2387E+01  0.2762E+01  0.6977E+03
  12.080  0.2048E+01  0.2356E+01  0.6978E+03
  12.090  0.1745E+01  0.2012E+01  0.6978E+03
  12.100  0.1467E+01  0.1697E+01  0.6979E+03
  12.110  0.1215E+01  0.1409E+01  0.6979E+03
  12.120  0.9881E+00  0.1150E+01  0.6979E+03
  12.130  0.7864E+00  0.9187E+00  0.6979E+03
  12.140  0.6102E+00  0.7156E+00  0.6980E+03
  12.150  0.4593E+00  0.5405E+00  0.6980E+03
  12.160  0.3335E+00  0.3935E+00  0.6980E+03
  12.170  0.2325E+00  0.2746E+00  0.6980E+03
  12.180  0.1560E+00  0.1838E+00  0.6980E+03
  12.190  0.1039E+00  0.1211E+00  0.6980E+03
  12.200  0.7535E-01  0.8561E-01  0.6980E+03
  12.210  0.6341E-01  0.6930E-01  0.6980E+03
  12.220  0.5779E-01  0.6282E-01  0.6980E+03
  12.230  0.5314E-01  0.5784E-01  0.6980E+03
  12.240  0.4870E-01  0.5311E-01  0.6980E+03
  12.250  0.4445E-01  0.4858E-01  0.6980E+03
  12.260  0.4039E-01  0.4426E-01  0.6980E+03
  12.270  0.3653E-01  0.4013E-01  0.6980E+03
  12.280  0.3286E-01  0.3621E-01  0.6980E+03
  12.290  0.2939E-01  0.3249E-01  0.6980E+03
  12.300  0.2611E-01  0.2897E-01  0.6980E+03
  12.310  0.2302E-01  0.2566E-01  0.6980E+03
  12.320  0.2013E-01  0.2254E-01  0.6980E+03
  12.330  0.1744E-01  0.1963E-01  0.6980E+03
  12.340  0.1493E-01  0.1692E-01  0.6980E+03
  12.350  0.1262E-01  0.1441E-01  0.6980E+03
  12.360  0.1051E-01  0.1210E-01  0.6980E+03
  12.370  0.8590E-02  0.9995E-02  0.6980E+03
  12.380  0.6864E-02  0.8090E-02  0.6980E+03
  12.390  0.5332E-02  0.6388E-02  0.6980E+03
  12.400  0.3994E-02  0.4888E-02  0.6980E+03
  12.410  0.2850E-02  0.3589E-02  0.6980E+03
  12.420  0.1901E-02  0.2492E-02  0.6980E+03
  12.430  0.1145E-02  0.1596E-02  0.6980E+03
  12.440  0.5841E-03  0.9029E-03  0.6980E+03
  12.450  0.2170E-03  0.4111E-03  0.6980E+03
  12.460  0.4327E-04  0.1211E-03  0.6980E+03
  12.470  0.0000E+00  0.1429E-04  0.6980E+03
  12.480  0.0000E+00  0.0000E+00  0.6980E+03
  12.490  0.0000E+00  0.0000E+00  0.6980E+03
  12.500  0.0000E+00  0.0000E+00  0.6980E+03
  12.510  0.0000E+00  0.0000E+00  0.6980E+03
  12.520  0.0000E+00  0.0000E+00  0.6980E+03
  12.530  0.0000E+00  0.0000E+00  0.6980E+03
  12.540  0.0000E+00  0.0000E+00  0.6980E+03
  12.550  0.0000E+00  0.0000E+00  0.6980E+03
  12.560  0.0000E+00  0.0000E+00  0.6980E+03
  12.570  0.0000E+00  0.0000E+00  0.6980E+03
  12.580  0.0000E+00  0.0000E+00  0.6980E+03
  12.590  0.0000E+00  0.0000E+00  0.6980E+03
  12.600  0.0000E+00  0.0000E+00  0.6980E+03
  12.610  0.0000E+00  0.0000E+00  0.6980E+03
  12.620  0.0000E+00  0.0000E+00  0.6980E+03
  12.630  0.0000E+00  0.0000E+00  0.6980E+03
  12.640  0.0000E+00  0.0000E+00  0.6980E+03
  12.650  0.0000E+00  0.0000E+00  0.6980E+03
  12.660  0.0000E+00  0.0000E+00  0.6980E+03
  12.670  0.0000E+00  0.0000E+00  0.6980E+03
  12.680  0.0000E+00  0.0000E+00  0.6980E+03
  12.690  0.0000E+00  0.0000E+00  0.6980E+03
  12.700  0.0000E+00  0.0000E+00  0.6980E+03
  12.710  0.0000E+00  0.0000E+00  0.6980E+03
  12.720  0.0000E+00  0.0000E+00  0.6980E+03
  12.730  0.0000E+00  0.0000E+00  0.6980E+03
  12.740  0.0000E+00  0.0000E+00  0.6980E+03
  12.750  0.0000E+00  0.0000E+00  0.6980E+03
  12.760  0.0000E+00  0.0000E+00  0.6980E+03
  12.770  0.0000E+00  0.0000E+00  0.6980E+03
  12.780  0.0000E+00  0.0000E+00  0.6980E+03
  12.790  0.0000E+00  0.0000E+00  0.6980E+03
  12.800  0.0000E+00  0.0000E+00  0.6980E+03
  12.810  0.0000E+00  0.0000E+00  0.6980E+03
  12.820  0.0000E+00  0.0000E+00  0.6980E+03
  12.830  0.0000E+00  0.0000E+00  0.6980E+03
  12.840  0.0000E+00  0.0000E+00  0.6980E+03
  12.850  0.0000E+00  0.0000E+00  0.6980E+03
  12.860  0.0000E+00  0.0000E+00  0.6980E+03
  12.870  0.0000E+00  0.0000E+00  0.6980E+03
  12.880  0.0000E+00  0.0000E+00  0.6980E+03
  12.890  0.0000E+00  0.0000E+00  0.6980E+03
  12.900  0.0000E+00  0.0000E+00  0.6980E+03
  12.910  0.0000E+00  0.0000E+00  0.6980E+03
  12.920  0.0000E+00  0.0000E+00  0.6980E+03
  12.930  0.0000E+00  0.0000E+00  0.6980E+03
  12.940  0.0000E+00  0.0000E+00  0.6980E+03
  12.950  0.0000E+00  0.0000E+00  0.6980E+03
  12.960  0.0000E+00  0.0000E+00  0.6980E+03
  12.970  0.0000E+00  0.0000E+00  0.6980E+03
  12.980  0.0000E+00  0.0000E+00  0.6980E+03
  12.990  0.0000E+00  0.0000E+00  0.6980E+03
  13.000  0.0000E+00  0.0000E+00  0.6980E+03
  13.010  0.0000E+00  0.0000E+00  0.6980E+03
  13.020  0.0000E+00  0.0000E+00  0.6980E+03
  13.030  0.0000E+00  0.0000E+00  0.6980E+03
  13.040  0.0000E+00  0.0000E+00  0.6980E+03
  13.050  0.0000E+00  0.0000E+00  0.6980E+03
  13.060  0.0000E+00  0.0000E+00  0.6980E+03
  13.070  0.0000E+00  0.0000E+00  0.6980E+03
  13.080  0.0000E+00  0.0000E+00  0.6980E+03
  13.090  0.0000E+00  0.0000E+00  0.6980E+03
  13.100  0.0000E+00  0.0000E+00  0.6980E+03
  13.110  0.0000E+00  0.0000E+00  0.6980E+03
  13.120  0.0000E+00  0.0000E+00  0.6980E+03
  13.130  0.0000E+00  0.0000E+00  0.6980E+03
  13.140  0.0000E+00  0.0000E+00  0.6980E+03
  13.150  0.0000E+00  0.0000E+00  0.6980E+03
  13.160  0.0000E+00  0.0000E+00  0.6980E+03
  13.170  0.0000E+00  0.0000E+00  0.6980E+03
  13.180  0.0000E+00  0.0000E+00  0.6980E+03
  13.190  0.0000E+00  0.0000E+00  0.6980E+03
  13.200  0.0000E+00  0.0000E+00  0.6980E+03
  13.210  0.0000E+00  0.0000E+00  0.6980E+03
  13.220  0.0000E+00  0.0000E+00  0.6980E+03
  13.230  0.0000E+00  0.0000E+00  0.6980E+03
  13.240  0.0000E+00  0.0000E+00  0.6980E+03
  13.250  0.0000E+00  0.0000E+00  0.6980E+03
  13.260  0.0000E+00  0.0000E+00  0.6980E+03
  13.270  0.0000E+00  0.0000E+00  0.6980E+03
  13.280  0.0000E+00  0.0000E+00  0.6980E+03
  13.290  0.0000E+00  0.0000E+00  0.6980E+03
  13.300  0.0000E+00  0.0000E+00  0.6980E+03
  13.310  0.0000E+00  0.0000E+00  0.6980E+03
  13.320  0.0000E+00  0.0000E+00  0.6980E+03
  13.330  0.0000E+00  0.0000E+00  0.6980E+03
  13.340  0.0000E+00  0.0000E+00  0.6980E+03
  13.350  0.0000E+00  0.0000E+00  0.6980E+03
  13.360  0.0000E+00  0.0000E+00  0.6980E+03
  13.370  0.0000E+00  0.0000E+00  0.6980E+03
  13.380  0.0000E+00  0.0000E+00  0.6980E+03
  13.390  0.0000E+00  0.0000E+00  0.6980E+03
  13.400  0.0000E+00  0.0000E+00  0.6980E+03
  13.410  0.0000E+00  0.0000E+00  0.6980E+03
  13.420  0.0000E+00  0.0000E+00  0.6980E+03
  13.430  0.0000E+00  0.0000E+00  0.6980E+03
  13.440  0.0000E+00  0.0000E+00  0.6980E+03
  13.450  0.0000E+00  0.0000E+00  0.6980E+03
  13.460  0.0000E+00  0.0000E+00  0.6980E+03
  13.470  0.0000E+00  0.0000E+00  0.6980E+03
  13.480  0.0000E+00  0.0000E+00  0.6980E+03
  13.490  0.0000E+00  0.0000E+00  0.6980E+03
  13.500  0.0000E+00  0.0000E+00  0.6980E+03
  13.510  0.0000E+00  0.0000E+00  0.6980E+03
  13.520  0.0000E+00  0.0000E+00  0.6980E+03
  13.530  0.0000E+00  0.0000E+00  0.6980E+03
  13.540  0.0000E+00  0.0000E+00  0.6980E+03
  13.550  0.0000E+00  0.0000E+00  0.6980E+03
  13.560  0.0000E+00  0.0000E+00  0.6980E+03
  13.570  0.0000E+00  0.0000E+00  0.6980E+03
  13.580  0.0000E+00  0.0000E+00  0.6980E+03
  13.590  0.0000E+00  0.0000E+00  0.6980E+03
  13.600  0.0000E+00  0.0000E+00  0.6980E+03
  13.610  0.0000E+00  0.0000E+00  0.6980E+03
  13.620  0.0000E+00  0.0000E+00  0.6980E+03
  13.630  0.0000E+00  0.0000E+00  0.6980E+03
  13.640  0.0000E+00  0.0000E+00  0.6980E+03
  13.650  0.0000E+00  0.0000E+00  0.6980E+03
  13.660  0.0000E+00  0.0000E+00  0.6980E+03
  13.670  0.0000E+00  0.0000E+00  0.6980E+03
  13.680  0.0000E+00  0.0000E+00  0.6980E+03
  13.690  0.0000E+00  0.0000E+00  0.6980E+03
  13.700  0.0000E+00  0.0000E+00  0.6980E+03
  13.710  0.0000E+00  0.0000E+00  0.6980E+03
  13.720  0.0000E+00  0.0000E+00  0.6980E+03
  13.730  0.0000E+00  0.0000E+00  0.6980E+03
  13.740  0.0000E+00  0.0000E+00  0.6980E+03
  13.750  0.0000E+00  0.0000E+00  0.6980E+03
  13.760  0.0000E+00  0.0000E+00  0.6980E+03
  13.770  0.0000E+00  0.0000E+00  0.6980E+03
  13.780  0.0000E+00  0.0000E+00  0.6980E+03
  13.790  0.0000E+00  0.0000E+00  0.6980E+03
  13.800  0.0000E+00  0.0000E+00  0.6980E+03
  13.810  0.0000E+00  0.0000E+00  0.6980E+03
  13.820  0.0000E+00  0.0000E+00  0.6980E+03
  13.830  0.0000E+00  0.0000E+00  0.6980E+03
  13.840  0.0000E+00  0.0000E+00  0.6980E+03
  13.850  0.0000E+00  0.0000E+00  0.6980E+03
  13.860  0.0000E+00  0.0000E+00  0.6980E+03
  13.870  0.0000E+00  0.0000E+00  0.6980E+03
  13.880  0.0000E+00  0.0000E+00  0.6980E+03
  13.890  0.0000E+00  0.0000E+00  0.6980E+03
  13.900  0.0000E+00  0.0000E+00  0.6980E+03
  13.910  0.0000E+00  0.0000E+00  0.6980E+03
  13.920  0.0000E+00  0.0000E+00  0.6980E+03
  13.930  0.0000E+00  0.0000E+00  0.6980E+03
  13.940  0.0000E+00  0.0000E+00  0.6980E+03
  13.950  0.0000E+00  0.0000E+00  0.6980E+03
  13.960  0.0000E+00  0.0000E+00  0.6980E+03
  13.970  0.0000E+00  0.0000E+00  0.6980E+03
  13.980  0.0000E+00  0.0000E+00  0.6980E+03
  13.990  0.0000E+00  0.0000E+00  0.6980E+03
  14.000  0.0000E+00  0.0000E+00  0.6980E+03
  14.010  0.0000E+00  0.0000E+00  0.6980E+03
  14.020  0.0000E+00  0.0000E+00  0.6980E+03
  14.030  0.0000E+00  0.0000E+00  0.6980E+03
  14.040  0.0000E+00  0.0000E+00  0.6980E+03
  14.050  0.0000E+00  0.0000E+00  0.6980E+03
  14.060  0.0000E+00  0.0000E+00  0.6980E+03
  14.070  0.0000E+00  0.0000E+00  0.6980E+03
  14.080  0.0000E+00  0.0000E+00  0.6980E+03
  14.090  0.0000E+00  0.0000E+00  0.6980E+03
  14.100  0.0000E+00  0.0000E+00  0.6980E+03
  14.110  0.0000E+00  0.0000E+00  0.6980E+03
  14.120  0.0000E+00  0.0000E+00  0.6980E+03
  14.130  0.0000E+00  0.0000E+00  0.6980E+03
  14.140  0.0000E+00  0.0000E+00  0.6980E+03
  14.150  0.0000E+00  0.0000E+00  0.6980E+03
  14.160  0.0000E+00  0.0000E+00  0.6980E+03
  14.170  0.0000E+00  0.0000E+00  0.6980E+03
  14.180  0.0000E+00  0.0000E+00  0.6980E+03
  14.190  0.0000E+00  0.0000E+00  0.6980E+03
  14.200  0.0000E+00  0.0000E+00  0.6980E+03
  14.210  0.0000E+00  0.0000E+00  0.6980E+03
  14.220  0.0000E+00  0.0000E+00  0.6980E+03
  14.230  0.0000E+00  0.0000E+00  0.6980E+03
  14.240  0.0000E+00  0.0000E+00  0.6980E+03
  14.250  0.0000E+00  0.0000E+00  0.6980E+03
  14.260  0.0000E+00  0.0000E+00  0.6980E+03
  14.270  0.0000E+00  0.0000E+00  0.6980E+03
  14.280  0.0000E+00  0.0000E+00  0.6980E+03
  14.290  0.0000E+00  0.0000E+00  0.6980E+03
  14.300  0.0000E+00  0.0000E+00  0.6980E+03
  14.310  0.0000E+00  0.0000E+00  0.6980E+03
  14.320  0.0000E+00  0.0000E+00  0.6980E+03
  14.330  0.0000E+00  0.0000E+00  0.6980E+03
  14.340  0.0000E+00  0.0000E+00  0.6980E+03
  14.350  0.0000E+00  0.0000E+00  0.6980E+03
  14.360  0.0000E+00  0.0000E+00  0.6980E+03
  14.370  0.0000E+00  0.0000E+00  0.6980E+03
  14.380  0.0000E+00  0.0000E+00  0.6980E+03
  14.390  0.0000E+00  0.0000E+00  0.6980E+03
  14.400  0.0000E+00  0.0000E+00  0.6980E+03
  14.410  0.0000E+00  0.0000E+00  0.6980E+03
  14.420  0.0000E+00  0.0000E+00  0.6980E+03
  14.430  0.0000E+00  0.0000E+00  0.6980E+03
  14.440  0.0000E+00  0.0000E+00  0.6980E+03
  14.450  0.0000E+00  0.0000E+00  0.6980E+03
  14.460  0.0000E+00  0.0000E+00  0.6980E+03
  14.470  0.0000E+00  0.0000E+00  0.6980E+03
  14.480  0.0000E+00  0.0000E+00  0.6980E+03
  14.490  0.0000E+00  0.0000E+00  0.6980E+03
  14.500  0.0000E+00  0.0000E+00  0.6980E+03
  14.510  0.0000E+00  0.0000E+00  0.6980E+03
  14.520  0.0000E+00  0.0000E+00  0.6980E+03
  14.530  0.0000E+00  0.0000E+00  0.6980E+03
  14.540  0.0000E+00  0.0000E+00  0.6980E+03
  14.550  0.0000E+00  0.0000E+00  0.6980E+03
  14.560  0.0000E+00  0.0000E+00  0.6980E+03
  14.570  0.0000E+00  0.0000E+00  0.6980E+03
  14.580  0.0000E+00  0.0000E+00  0.6980E+03
  14.590  0.0000E+00  0.0000E+00  0.6980E+03
  14.600  0.0000E+00  0.0000E+00  0.6980E+03
  14.610  0.0000E+00  0.0000E+00  0.6980E+03
  14.620  0.0000E+00  0.0000E+00  0.6980E+03
  14.630  0.0000E+00  0.0000E+00  0.6980E+03
  14.640  0.0000E+00  0.0000E+00  0.6980E+03
  14.650  0.0000E+00  0.0000E+00  0.6980E+03
  14.660  0.0000E+00  0.0000E+00  0.6980E+03
  14.670  0.0000E+00  0.0000E+00  0.6980E+03
  14.680  0.0000E+00  0.0000E+00  0.6980E+03
  14.690  0.0000E+00  0.0000E+00  0.6980E+03
  14.700  0.0000E+00  0.0000E+00  0.6980E+03
  14.710  0.0000E+00  0.0000E+00  0.6980E+03
  14.720  0.0000E+00  0.0000E+00  0.6980E+03
  14.730  0.0000E+00  0.0000E+00  0.6980E+03
  14.740  0.0000E+00  0.0000E+00  0.6980E+03
  14.750  0.0000E+00  0.0000E+00  0.6980E+03
  14.760  0.0000E+00  0.0000E+00  0.6980E+03
  14.770  0.0000E+00  0.0000E+00  0.6980E+03
  14.780  0.0000E+00  0.0000E+00  0.6980E+03
  14.790  0.0000E+00  0.0000E+00  0.6980E+03
  14.800  0.0000E+00  0.0000E+00  0.6980E+03
  14.810  0.0000E+00  0.0000E+00  0.6980E+03
  14.820  0.0000E+00  0.0000E+00  0.6980E+03
  14.830  0.0000E+00  0.0000E+00  0.6980E+03
  14.840  0.0000E+00  0.0000E+00  0.6980E+03
  14.850  0.0000E+00  0.0000E+00  0.6980E+03
  14.860  0.0000E+00  0.0000E+00  0.6980E+03
  14.870  0.0000E+00  0.0000E+00  0.6980E+03
  14.880  0.0000E+00  0.0000E+00  0.6980E+03
  14.890  0.0000E+00  0.0000E+00  0.6980E+03
  14.900  0.0000E+00  0.0000E+00  0.6980E+03
  14.910  0.0000E+00  0.0000E+00  0.6980E+03
  14.920  0.0000E+00  0.0000E+00  0.6980E+03
  14.930  0.0000E+00  0.0000E+00  0.6980E+03
  14.940  0.0000E+00  0.0000E+00  0.6980E+03
  14.950  0.0000E+00  0.0000E+00  0.6980E+03
  14.960  0.0000E+00  0.0000E+00  0.6980E+03
  14.970  0.0000E+00  0.0000E+00  0.6980E+03
  14.980  0.0000E+00  0.0000E+00  0.6980E+03
  14.990  0.0000E+00  0.0000E+00  0.6980E+03
  15.000  0.0000E+00  0.0000E+00  0.6980E+03
