#  E (eV)   dosup(E)     dosdw(E)   Int dos(E) EFermi =    7.973 eV
 -15.000  0.0000E+00  0.0000E+00  0.8000E+01
 -14.990  0.0000E+00  0.0000E+00  0.8000E+01
 -14.980  0.0000E+00  0.0000E+00  0.8000E+01
 -14.970  0.0000E+00  0.0000E+00  0.8000E+01
 -14.960  0.0000E+00  0.0000E+00  0.8000E+01
 -14.950  0.0000E+00  0.0000E+00  0.8000E+01
 -14.940  0.0000E+00  0.0000E+00  0.8000E+01
 -14.930  0.0000E+00  0.0000E+00  0.8000E+01
 -14.920  0.0000E+00  0.0000E+00  0.8000E+01
 -14.910  0.0000E+00  0.0000E+00  0.8000E+01
 -14.900  0.0000E+00  0.0000E+00  0.8000E+01
 -14.890  0.0000E+00  0.0000E+00  0.8000E+01
 -14.880  0.0000E+00  0.0000E+00  0.8000E+01
 -14.870  0.0000E+00  0.0000E+00  0.8000E+01
 -14.860  0.0000E+00  0.0000E+00  0.8000E+01
 -14.850  0.0000E+00  0.0000E+00  0.8000E+01
 -14.840  0.0000E+00  0.0000E+00  0.8000E+01
 -14.830  0.0000E+00  0.0000E+00  0.8000E+01
 -14.820  0.0000E+00  0.0000E+00  0.8000E+01
 -14.810  0.0000E+00  0.0000E+00  0.8000E+01
 -14.800  0.0000E+00  0.0000E+00  0.8000E+01
 -14.790  0.0000E+00  0.0000E+00  0.8000E+01
 -14.780  0.0000E+00  0.0000E+00  0.8000E+01
 -14.770  0.0000E+00  0.0000E+00  0.8000E+01
 -14.760  0.0000E+00  0.0000E+00  0.8000E+01
 -14.750  0.0000E+00  0.0000E+00  0.8000E+01
 -14.740  0.0000E+00  0.0000E+00  0.8000E+01
 -14.730  0.0000E+00  0.0000E+00  0.8000E+01
 -14.720  0.0000E+00  0.0000E+00  0.8000E+01
 -14.710  0.0000E+00  0.0000E+00  0.8000E+01
 -14.700  0.0000E+00  0.0000E+00  0.8000E+01
 -14.690  0.0000E+00  0.0000E+00  0.8000E+01
 -14.680  0.0000E+00  0.0000E+00  0.8000E+01
 -14.670  0.0000E+00  0.0000E+00  0.8000E+01
 -14.660  0.0000E+00  0.0000E+00  0.8000E+01
 -14.650  0.0000E+00  0.0000E+00  0.8000E+01
 -14.640  0.0000E+00  0.0000E+00  0.8000E+01
 -14.630  0.0000E+00  0.0000E+00  0.8000E+01
 -14.620  0.0000E+00  0.0000E+00  0.8000E+01
 -14.610  0.0000E+00  0.0000E+00  0.8000E+01
 -14.600  0.0000E+00  0.0000E+00  0.8000E+01
 -14.590  0.0000E+00  0.0000E+00  0.8000E+01
 -14.580  0.0000E+00  0.0000E+00  0.8000E+01
 -14.570  0.0000E+00  0.0000E+00  0.8000E+01
 -14.560  0.0000E+00  0.0000E+00  0.8000E+01
 -14.550  0.0000E+00  0.0000E+00  0.8000E+01
 -14.540  0.0000E+00  0.0000E+00  0.8000E+01
 -14.530  0.0000E+00  0.0000E+00  0.8000E+01
 -14.520  0.0000E+00  0.0000E+00  0.8000E+01
 -14.510  0.0000E+00  0.0000E+00  0.8000E+01
 -14.500  0.0000E+00  0.0000E+00  0.8000E+01
 -14.490  0.0000E+00  0.0000E+00  0.8000E+01
 -14.480  0.0000E+00  0.0000E+00  0.8000E+01
 -14.470  0.0000E+00  0.0000E+00  0.8000E+01
 -14.460  0.0000E+00  0.0000E+00  0.8000E+01
 -14.450  0.0000E+00  0.0000E+00  0.8000E+01
 -14.440  0.0000E+00  0.0000E+00  0.8000E+01
 -14.430  0.0000E+00  0.0000E+00  0.8000E+01
 -14.420  0.0000E+00  0.0000E+00  0.8000E+01
 -14.410  0.0000E+00  0.0000E+00  0.8000E+01
 -14.400  0.0000E+00  0.0000E+00  0.8000E+01
 -14.390  0.0000E+00  0.0000E+00  0.8000E+01
 -14.380  0.0000E+00  0.0000E+00  0.8000E+01
 -14.370  0.0000E+00  0.0000E+00  0.8000E+01
 -14.360  0.0000E+00  0.0000E+00  0.8000E+01
 -14.350  0.0000E+00  0.0000E+00  0.8000E+01
 -14.340  0.0000E+00  0.0000E+00  0.8000E+01
 -14.330  0.0000E+00  0.0000E+00  0.8000E+01
 -14.320  0.0000E+00  0.0000E+00  0.8000E+01
 -14.310  0.0000E+00  0.0000E+00  0.8000E+01
 -14.300  0.0000E+00  0.0000E+00  0.8000E+01
 -14.290  0.0000E+00  0.0000E+00  0.8000E+01
 -14.280  0.0000E+00  0.0000E+00  0.8000E+01
 -14.270  0.0000E+00  0.0000E+00  0.8000E+01
 -14.260  0.0000E+00  0.0000E+00  0.8000E+01
 -14.250  0.0000E+00  0.0000E+00  0.8000E+01
 -14.240  0.0000E+00  0.0000E+00  0.8000E+01
 -14.230  0.0000E+00  0.0000E+00  0.8000E+01
 -14.220  0.0000E+00  0.0000E+00  0.8000E+01
 -14.210  0.0000E+00  0.0000E+00  0.8000E+01
 -14.200  0.0000E+00  0.0000E+00  0.8000E+01
 -14.190  0.0000E+00  0.0000E+00  0.8000E+01
 -14.180  0.0000E+00  0.0000E+00  0.8000E+01
 -14.170  0.0000E+00  0.0000E+00  0.8000E+01
 -14.160  0.0000E+00  0.0000E+00  0.8000E+01
 -14.150  0.0000E+00  0.0000E+00  0.8000E+01
 -14.140  0.0000E+00  0.0000E+00  0.8000E+01
 -14.130  0.0000E+00  0.0000E+00  0.8000E+01
 -14.120  0.0000E+00  0.0000E+00  0.8000E+01
 -14.110  0.0000E+00  0.0000E+00  0.8000E+01
 -14.100  0.0000E+00  0.0000E+00  0.8000E+01
 -14.090  0.0000E+00  0.0000E+00  0.8000E+01
 -14.080  0.0000E+00  0.0000E+00  0.8000E+01
 -14.070  0.0000E+00  0.0000E+00  0.8000E+01
 -14.060  0.0000E+00  0.0000E+00  0.8000E+01
 -14.050  0.0000E+00  0.0000E+00  0.8000E+01
 -14.040  0.0000E+00  0.0000E+00  0.8000E+01
 -14.030  0.0000E+00  0.0000E+00  0.8000E+01
 -14.020  0.0000E+00  0.0000E+00  0.8000E+01
 -14.010  0.0000E+00  0.0000E+00  0.8000E+01
 -14.000  0.0000E+00  0.0000E+00  0.8000E+01
 -13.990  0.0000E+00  0.0000E+00  0.8000E+01
 -13.980  0.0000E+00  0.0000E+00  0.8000E+01
 -13.970  0.0000E+00  0.0000E+00  0.8000E+01
 -13.960  0.0000E+00  0.0000E+00  0.8000E+01
 -13.950  0.0000E+00  0.0000E+00  0.8000E+01
 -13.940  0.0000E+00  0.0000E+00  0.8000E+01
 -13.930  0.0000E+00  0.0000E+00  0.8000E+01
 -13.920  0.0000E+00  0.0000E+00  0.8000E+01
 -13.910  0.0000E+00  0.0000E+00  0.8000E+01
 -13.900  0.0000E+00  0.0000E+00  0.8000E+01
 -13.890  0.0000E+00  0.0000E+00  0.8000E+01
 -13.880  0.0000E+00  0.0000E+00  0.8000E+01
 -13.870  0.0000E+00  0.0000E+00  0.8000E+01
 -13.860  0.0000E+00  0.0000E+00  0.8000E+01
 -13.850  0.0000E+00  0.0000E+00  0.8000E+01
 -13.840  0.0000E+00  0.0000E+00  0.8000E+01
 -13.830  0.0000E+00  0.0000E+00  0.8000E+01
 -13.820  0.0000E+00  0.0000E+00  0.8000E+01
 -13.810  0.0000E+00  0.0000E+00  0.8000E+01
 -13.800  0.0000E+00  0.0000E+00  0.8000E+01
 -13.790  0.0000E+00  0.0000E+00  0.8000E+01
 -13.780  0.0000E+00  0.0000E+00  0.8000E+01
 -13.770  0.0000E+00  0.0000E+00  0.8000E+01
 -13.760  0.0000E+00  0.0000E+00  0.8000E+01
 -13.750  0.0000E+00  0.0000E+00  0.8000E+01
 -13.740  0.0000E+00  0.0000E+00  0.8000E+01
 -13.730  0.0000E+00  0.0000E+00  0.8000E+01
 -13.720  0.0000E+00  0.0000E+00  0.8000E+01
 -13.710  0.0000E+00  0.0000E+00  0.8000E+01
 -13.700  0.0000E+00  0.0000E+00  0.8000E+01
 -13.690  0.0000E+00  0.0000E+00  0.8000E+01
 -13.680  0.0000E+00  0.0000E+00  0.8000E+01
 -13.670  0.0000E+00  0.0000E+00  0.8000E+01
 -13.660  0.0000E+00  0.0000E+00  0.8000E+01
 -13.650  0.0000E+00  0.0000E+00  0.8000E+01
 -13.640  0.0000E+00  0.0000E+00  0.8000E+01
 -13.630  0.0000E+00  0.0000E+00  0.8000E+01
 -13.620  0.0000E+00  0.0000E+00  0.8000E+01
 -13.610  0.0000E+00  0.0000E+00  0.8000E+01
 -13.600  0.0000E+00  0.0000E+00  0.8000E+01
 -13.590  0.0000E+00  0.0000E+00  0.8000E+01
 -13.580  0.0000E+00  0.0000E+00  0.8000E+01
 -13.570  0.0000E+00  0.0000E+00  0.8000E+01
 -13.560  0.0000E+00  0.0000E+00  0.8000E+01
 -13.550  0.0000E+00  0.0000E+00  0.8000E+01
 -13.540  0.0000E+00  0.0000E+00  0.8000E+01
 -13.530  0.0000E+00  0.0000E+00  0.8000E+01
 -13.520  0.0000E+00  0.0000E+00  0.8000E+01
 -13.510  0.0000E+00  0.0000E+00  0.8000E+01
 -13.500  0.0000E+00  0.0000E+00  0.8000E+01
 -13.490  0.0000E+00  0.0000E+00  0.8000E+01
 -13.480  0.0000E+00  0.0000E+00  0.8000E+01
 -13.470  0.0000E+00  0.0000E+00  0.8000E+01
 -13.460  0.0000E+00  0.0000E+00  0.8000E+01
 -13.450  0.0000E+00  0.0000E+00  0.8000E+01
 -13.440  0.0000E+00  0.0000E+00  0.8000E+01
 -13.430  0.0000E+00  0.0000E+00  0.8000E+01
 -13.420  0.0000E+00  0.0000E+00  0.8000E+01
 -13.410  0.0000E+00  0.0000E+00  0.8000E+01
 -13.400  0.0000E+00  0.0000E+00  0.8000E+01
 -13.390  0.0000E+00  0.0000E+00  0.8000E+01
 -13.380  0.0000E+00  0.0000E+00  0.8000E+01
 -13.370  0.0000E+00  0.0000E+00  0.8000E+01
 -13.360  0.0000E+00  0.0000E+00  0.8000E+01
 -13.350  0.0000E+00  0.0000E+00  0.8000E+01
 -13.340  0.0000E+00  0.0000E+00  0.8000E+01
 -13.330  0.0000E+00  0.0000E+00  0.8000E+01
 -13.320  0.0000E+00  0.0000E+00  0.8000E+01
 -13.310  0.0000E+00  0.0000E+00  0.8000E+01
 -13.300  0.0000E+00  0.0000E+00  0.8000E+01
 -13.290  0.0000E+00  0.0000E+00  0.8000E+01
 -13.280  0.0000E+00  0.0000E+00  0.8000E+01
 -13.270  0.0000E+00  0.0000E+00  0.8000E+01
 -13.260  0.0000E+00  0.0000E+00  0.8000E+01
 -13.250  0.0000E+00  0.0000E+00  0.8000E+01
 -13.240  0.0000E+00  0.0000E+00  0.8000E+01
 -13.230  0.0000E+00  0.0000E+00  0.8000E+01
 -13.220  0.0000E+00  0.0000E+00  0.8000E+01
 -13.210  0.0000E+00  0.0000E+00  0.8000E+01
 -13.200  0.0000E+00  0.0000E+00  0.8000E+01
 -13.190  0.0000E+00  0.0000E+00  0.8000E+01
 -13.180  0.0000E+00  0.0000E+00  0.8000E+01
 -13.170  0.0000E+00  0.0000E+00  0.8000E+01
 -13.160  0.0000E+00  0.0000E+00  0.8000E+01
 -13.150  0.0000E+00  0.0000E+00  0.8000E+01
 -13.140  0.0000E+00  0.0000E+00  0.8000E+01
 -13.130  0.0000E+00  0.0000E+00  0.8000E+01
 -13.120  0.0000E+00  0.0000E+00  0.8000E+01
 -13.110  0.0000E+00  0.0000E+00  0.8000E+01
 -13.100  0.0000E+00  0.0000E+00  0.8000E+01
 -13.090  0.0000E+00  0.0000E+00  0.8000E+01
 -13.080  0.0000E+00  0.0000E+00  0.8000E+01
 -13.070  0.0000E+00  0.0000E+00  0.8000E+01
 -13.060  0.0000E+00  0.0000E+00  0.8000E+01
 -13.050  0.0000E+00  0.0000E+00  0.8000E+01
 -13.040  0.0000E+00  0.0000E+00  0.8000E+01
 -13.030  0.0000E+00  0.0000E+00  0.8000E+01
 -13.020  0.0000E+00  0.0000E+00  0.8000E+01
 -13.010  0.0000E+00  0.0000E+00  0.8000E+01
 -13.000  0.0000E+00  0.0000E+00  0.8000E+01
 -12.990  0.0000E+00  0.0000E+00  0.8000E+01
 -12.980  0.0000E+00  0.0000E+00  0.8000E+01
 -12.970  0.0000E+00  0.0000E+00  0.8000E+01
 -12.960  0.0000E+00  0.0000E+00  0.8000E+01
 -12.950  0.0000E+00  0.0000E+00  0.8000E+01
 -12.940  0.0000E+00  0.0000E+00  0.8000E+01
 -12.930  0.0000E+00  0.0000E+00  0.8000E+01
 -12.920  0.0000E+00  0.0000E+00  0.8000E+01
 -12.910  0.0000E+00  0.0000E+00  0.8000E+01
 -12.900  0.0000E+00  0.0000E+00  0.8000E+01
 -12.890  0.0000E+00  0.0000E+00  0.8000E+01
 -12.880  0.0000E+00  0.0000E+00  0.8000E+01
 -12.870  0.0000E+00  0.0000E+00  0.8000E+01
 -12.860  0.0000E+00  0.0000E+00  0.8000E+01
 -12.850  0.0000E+00  0.0000E+00  0.8000E+01
 -12.840  0.0000E+00  0.0000E+00  0.8000E+01
 -12.830  0.0000E+00  0.0000E+00  0.8000E+01
 -12.820  0.0000E+00  0.0000E+00  0.8000E+01
 -12.810  0.0000E+00  0.0000E+00  0.8000E+01
 -12.800  0.0000E+00  0.0000E+00  0.8000E+01
 -12.790  0.0000E+00  0.0000E+00  0.8000E+01
 -12.780  0.0000E+00  0.0000E+00  0.8000E+01
 -12.770  0.0000E+00  0.0000E+00  0.8000E+01
 -12.760  0.0000E+00  0.0000E+00  0.8000E+01
 -12.750  0.0000E+00  0.0000E+00  0.8000E+01
 -12.740  0.0000E+00  0.0000E+00  0.8000E+01
 -12.730  0.0000E+00  0.0000E+00  0.8000E+01
 -12.720  0.0000E+00  0.0000E+00  0.8000E+01
 -12.710  0.0000E+00  0.0000E+00  0.8000E+01
 -12.700  0.0000E+00  0.0000E+00  0.8000E+01
 -12.690  0.0000E+00  0.0000E+00  0.8000E+01
 -12.680  0.0000E+00  0.0000E+00  0.8000E+01
 -12.670  0.0000E+00  0.0000E+00  0.8000E+01
 -12.660  0.0000E+00  0.0000E+00  0.8000E+01
 -12.650  0.0000E+00  0.0000E+00  0.8000E+01
 -12.640  0.0000E+00  0.0000E+00  0.8000E+01
 -12.630  0.0000E+00  0.0000E+00  0.8000E+01
 -12.620  0.0000E+00  0.0000E+00  0.8000E+01
 -12.610  0.0000E+00  0.0000E+00  0.8000E+01
 -12.600  0.0000E+00  0.0000E+00  0.8000E+01
 -12.590  0.0000E+00  0.0000E+00  0.8000E+01
 -12.580  0.0000E+00  0.0000E+00  0.8000E+01
 -12.570  0.0000E+00  0.0000E+00  0.8000E+01
 -12.560  0.0000E+00  0.0000E+00  0.8000E+01
 -12.550  0.0000E+00  0.0000E+00  0.8000E+01
 -12.540  0.0000E+00  0.0000E+00  0.8000E+01
 -12.530  0.0000E+00  0.0000E+00  0.8000E+01
 -12.520  0.0000E+00  0.0000E+00  0.8000E+01
 -12.510  0.0000E+00  0.0000E+00  0.8000E+01
 -12.500  0.0000E+00  0.0000E+00  0.8000E+01
 -12.490  0.0000E+00  0.0000E+00  0.8000E+01
 -12.480  0.0000E+00  0.0000E+00  0.8000E+01
 -12.470  0.0000E+00  0.0000E+00  0.8000E+01
 -12.460  0.0000E+00  0.0000E+00  0.8000E+01
 -12.450  0.0000E+00  0.0000E+00  0.8000E+01
 -12.440  0.0000E+00  0.0000E+00  0.8000E+01
 -12.430  0.0000E+00  0.0000E+00  0.8000E+01
 -12.420  0.0000E+00  0.0000E+00  0.8000E+01
 -12.410  0.0000E+00  0.0000E+00  0.8000E+01
 -12.400  0.0000E+00  0.0000E+00  0.8000E+01
 -12.390  0.0000E+00  0.0000E+00  0.8000E+01
 -12.380  0.0000E+00  0.0000E+00  0.8000E+01
 -12.370  0.0000E+00  0.0000E+00  0.8000E+01
 -12.360  0.0000E+00  0.0000E+00  0.8000E+01
 -12.350  0.0000E+00  0.0000E+00  0.8000E+01
 -12.340  0.0000E+00  0.0000E+00  0.8000E+01
 -12.330  0.0000E+00  0.0000E+00  0.8000E+01
 -12.320  0.0000E+00  0.0000E+00  0.8000E+01
 -12.310  0.0000E+00  0.0000E+00  0.8000E+01
 -12.300  0.0000E+00  0.0000E+00  0.8000E+01
 -12.290  0.0000E+00  0.0000E+00  0.8000E+01
 -12.280  0.0000E+00  0.0000E+00  0.8000E+01
 -12.270  0.0000E+00  0.0000E+00  0.8000E+01
 -12.260  0.0000E+00  0.0000E+00  0.8000E+01
 -12.250  0.0000E+00  0.0000E+00  0.8000E+01
 -12.240  0.0000E+00  0.0000E+00  0.8000E+01
 -12.230  0.0000E+00  0.0000E+00  0.8000E+01
 -12.220  0.0000E+00  0.0000E+00  0.8000E+01
 -12.210  0.0000E+00  0.0000E+00  0.8000E+01
 -12.200  0.0000E+00  0.0000E+00  0.8000E+01
 -12.190  0.0000E+00  0.0000E+00  0.8000E+01
 -12.180  0.0000E+00  0.0000E+00  0.8000E+01
 -12.170  0.0000E+00  0.0000E+00  0.8000E+01
 -12.160  0.0000E+00  0.0000E+00  0.8000E+01
 -12.150  0.0000E+00  0.0000E+00  0.8000E+01
 -12.140  0.0000E+00  0.0000E+00  0.8000E+01
 -12.130  0.0000E+00  0.0000E+00  0.8000E+01
 -12.120  0.0000E+00  0.0000E+00  0.8000E+01
 -12.110  0.0000E+00  0.0000E+00  0.8000E+01
 -12.100  0.0000E+00  0.0000E+00  0.8000E+01
 -12.090  0.0000E+00  0.0000E+00  0.8000E+01
 -12.080  0.0000E+00  0.0000E+00  0.8000E+01
 -12.070  0.0000E+00  0.0000E+00  0.8000E+01
 -12.060  0.0000E+00  0.0000E+00  0.8000E+01
 -12.050  0.0000E+00  0.0000E+00  0.8000E+01
 -12.040  0.0000E+00  0.0000E+00  0.8000E+01
 -12.030  0.0000E+00  0.0000E+00  0.8000E+01
 -12.020  0.0000E+00  0.0000E+00  0.8000E+01
 -12.010  0.0000E+00  0.0000E+00  0.8000E+01
 -12.000  0.0000E+00  0.0000E+00  0.8000E+01
 -11.990  0.0000E+00  0.0000E+00  0.8000E+01
 -11.980  0.0000E+00  0.0000E+00  0.8000E+01
 -11.970  0.0000E+00  0.0000E+00  0.8000E+01
 -11.960  0.0000E+00  0.0000E+00  0.8000E+01
 -11.950  0.0000E+00  0.0000E+00  0.8000E+01
 -11.940  0.0000E+00  0.0000E+00  0.8000E+01
 -11.930  0.0000E+00  0.0000E+00  0.8000E+01
 -11.920  0.0000E+00  0.0000E+00  0.8000E+01
 -11.910  0.0000E+00  0.0000E+00  0.8000E+01
 -11.900  0.0000E+00  0.0000E+00  0.8000E+01
 -11.890  0.0000E+00  0.0000E+00  0.8000E+01
 -11.880  0.0000E+00  0.0000E+00  0.8000E+01
 -11.870  0.0000E+00  0.0000E+00  0.8000E+01
 -11.860  0.0000E+00  0.0000E+00  0.8000E+01
 -11.850  0.0000E+00  0.0000E+00  0.8000E+01
 -11.840  0.0000E+00  0.0000E+00  0.8000E+01
 -11.830  0.0000E+00  0.0000E+00  0.8000E+01
 -11.820  0.0000E+00  0.0000E+00  0.8000E+01
 -11.810  0.0000E+00  0.0000E+00  0.8000E+01
 -11.800  0.0000E+00  0.0000E+00  0.8000E+01
 -11.790  0.0000E+00  0.0000E+00  0.8000E+01
 -11.780  0.0000E+00  0.0000E+00  0.8000E+01
 -11.770  0.0000E+00  0.0000E+00  0.8000E+01
 -11.760  0.0000E+00  0.0000E+00  0.8000E+01
 -11.750  0.0000E+00  0.0000E+00  0.8000E+01
 -11.740  0.0000E+00  0.0000E+00  0.8000E+01
 -11.730  0.0000E+00  0.0000E+00  0.8000E+01
 -11.720  0.0000E+00  0.0000E+00  0.8000E+01
 -11.710  0.0000E+00  0.0000E+00  0.8000E+01
 -11.700  0.0000E+00  0.0000E+00  0.8000E+01
 -11.690  0.0000E+00  0.0000E+00  0.8000E+01
 -11.680  0.0000E+00  0.0000E+00  0.8000E+01
 -11.670  0.0000E+00  0.0000E+00  0.8000E+01
 -11.660  0.0000E+00  0.0000E+00  0.8000E+01
 -11.650  0.0000E+00  0.0000E+00  0.8000E+01
 -11.640  0.0000E+00  0.0000E+00  0.8000E+01
 -11.630  0.0000E+00  0.0000E+00  0.8000E+01
 -11.620  0.0000E+00  0.0000E+00  0.8000E+01
 -11.610  0.0000E+00  0.0000E+00  0.8000E+01
 -11.600  0.0000E+00  0.0000E+00  0.8000E+01
 -11.590  0.0000E+00  0.0000E+00  0.8000E+01
 -11.580  0.0000E+00  0.0000E+00  0.8000E+01
 -11.570  0.0000E+00  0.0000E+00  0.8000E+01
 -11.560  0.0000E+00  0.0000E+00  0.8000E+01
 -11.550  0.0000E+00  0.0000E+00  0.8000E+01
 -11.540  0.0000E+00  0.0000E+00  0.8000E+01
 -11.530  0.0000E+00  0.0000E+00  0.8000E+01
 -11.520  0.0000E+00  0.0000E+00  0.8000E+01
 -11.510  0.0000E+00  0.0000E+00  0.8000E+01
 -11.500  0.0000E+00  0.0000E+00  0.8000E+01
 -11.490  0.0000E+00  0.0000E+00  0.8000E+01
 -11.480  0.0000E+00  0.0000E+00  0.8000E+01
 -11.470  0.0000E+00  0.0000E+00  0.8000E+01
 -11.460  0.0000E+00  0.0000E+00  0.8000E+01
 -11.450  0.0000E+00  0.0000E+00  0.8000E+01
 -11.440  0.0000E+00  0.0000E+00  0.8000E+01
 -11.430  0.0000E+00  0.0000E+00  0.8000E+01
 -11.420  0.0000E+00  0.0000E+00  0.8000E+01
 -11.410  0.0000E+00  0.0000E+00  0.8000E+01
 -11.400  0.0000E+00  0.0000E+00  0.8000E+01
 -11.390  0.0000E+00  0.0000E+00  0.8000E+01
 -11.380  0.0000E+00  0.0000E+00  0.8000E+01
 -11.370  0.0000E+00  0.0000E+00  0.8000E+01
 -11.360  0.0000E+00  0.0000E+00  0.8000E+01
 -11.350  0.0000E+00  0.0000E+00  0.8000E+01
 -11.340  0.0000E+00  0.0000E+00  0.8000E+01
 -11.330  0.0000E+00  0.0000E+00  0.8000E+01
 -11.320  0.0000E+00  0.0000E+00  0.8000E+01
 -11.310  0.0000E+00  0.0000E+00  0.8000E+01
 -11.300  0.0000E+00  0.0000E+00  0.8000E+01
 -11.290  0.0000E+00  0.0000E+00  0.8000E+01
 -11.280  0.0000E+00  0.0000E+00  0.8000E+01
 -11.270  0.0000E+00  0.0000E+00  0.8000E+01
 -11.260  0.0000E+00  0.0000E+00  0.8000E+01
 -11.250  0.0000E+00  0.0000E+00  0.8000E+01
 -11.240  0.0000E+00  0.0000E+00  0.8000E+01
 -11.230  0.0000E+00  0.0000E+00  0.8000E+01
 -11.220  0.0000E+00  0.0000E+00  0.8000E+01
 -11.210  0.0000E+00  0.0000E+00  0.8000E+01
 -11.200  0.0000E+00  0.0000E+00  0.8000E+01
 -11.190  0.0000E+00  0.0000E+00  0.8000E+01
 -11.180  0.0000E+00  0.0000E+00  0.8000E+01
 -11.170  0.0000E+00  0.0000E+00  0.8000E+01
 -11.160  0.0000E+00  0.0000E+00  0.8000E+01
 -11.150  0.0000E+00  0.0000E+00  0.8000E+01
 -11.140  0.0000E+00  0.0000E+00  0.8000E+01
 -11.130  0.0000E+00  0.0000E+00  0.8000E+01
 -11.120  0.0000E+00  0.0000E+00  0.8000E+01
 -11.110  0.0000E+00  0.0000E+00  0.8000E+01
 -11.100  0.0000E+00  0.0000E+00  0.8000E+01
 -11.090  0.0000E+00  0.0000E+00  0.8000E+01
 -11.080  0.0000E+00  0.0000E+00  0.8000E+01
 -11.070  0.0000E+00  0.0000E+00  0.8000E+01
 -11.060  0.0000E+00  0.0000E+00  0.8000E+01
 -11.050  0.0000E+00  0.0000E+00  0.8000E+01
 -11.040  0.0000E+00  0.0000E+00  0.8000E+01
 -11.030  0.0000E+00  0.0000E+00  0.8000E+01
 -11.020  0.0000E+00  0.0000E+00  0.8000E+01
 -11.010  0.0000E+00  0.0000E+00  0.8000E+01
 -11.000  0.0000E+00  0.0000E+00  0.8000E+01
 -10.990  0.0000E+00  0.0000E+00  0.8000E+01
 -10.980  0.0000E+00  0.0000E+00  0.8000E+01
 -10.970  0.0000E+00  0.0000E+00  0.8000E+01
 -10.960  0.0000E+00  0.0000E+00  0.8000E+01
 -10.950  0.0000E+00  0.0000E+00  0.8000E+01
 -10.940  0.0000E+00  0.0000E+00  0.8000E+01
 -10.930  0.0000E+00  0.0000E+00  0.8000E+01
 -10.920  0.0000E+00  0.0000E+00  0.8000E+01
 -10.910  0.0000E+00  0.0000E+00  0.8000E+01
 -10.900  0.0000E+00  0.0000E+00  0.8000E+01
 -10.890  0.0000E+00  0.0000E+00  0.8000E+01
 -10.880  0.0000E+00  0.0000E+00  0.8000E+01
 -10.870  0.0000E+00  0.0000E+00  0.8000E+01
 -10.860  0.0000E+00  0.0000E+00  0.8000E+01
 -10.850  0.0000E+00  0.0000E+00  0.8000E+01
 -10.840  0.0000E+00  0.0000E+00  0.8000E+01
 -10.830  0.0000E+00  0.0000E+00  0.8000E+01
 -10.820  0.0000E+00  0.0000E+00  0.8000E+01
 -10.810  0.0000E+00  0.0000E+00  0.8000E+01
 -10.800  0.0000E+00  0.0000E+00  0.8000E+01
 -10.790  0.0000E+00  0.0000E+00  0.8000E+01
 -10.780  0.0000E+00  0.0000E+00  0.8000E+01
 -10.770  0.0000E+00  0.0000E+00  0.8000E+01
 -10.760  0.0000E+00  0.0000E+00  0.8000E+01
 -10.750  0.0000E+00  0.0000E+00  0.8000E+01
 -10.740  0.0000E+00  0.0000E+00  0.8000E+01
 -10.730  0.0000E+00  0.0000E+00  0.8000E+01
 -10.720  0.0000E+00  0.0000E+00  0.8000E+01
 -10.710  0.0000E+00  0.0000E+00  0.8000E+01
 -10.700  0.0000E+00  0.0000E+00  0.8000E+01
 -10.690  0.0000E+00  0.0000E+00  0.8000E+01
 -10.680  0.0000E+00  0.0000E+00  0.8000E+01
 -10.670  0.0000E+00  0.0000E+00  0.8000E+01
 -10.660  0.0000E+00  0.0000E+00  0.8000E+01
 -10.650  0.0000E+00  0.0000E+00  0.8000E+01
 -10.640  0.0000E+00  0.0000E+00  0.8000E+01
 -10.630  0.0000E+00  0.0000E+00  0.8000E+01
 -10.620  0.0000E+00  0.0000E+00  0.8000E+01
 -10.610  0.0000E+00  0.0000E+00  0.8000E+01
 -10.600  0.0000E+00  0.0000E+00  0.8000E+01
 -10.590  0.0000E+00  0.0000E+00  0.8000E+01
 -10.580  0.0000E+00  0.0000E+00  0.8000E+01
 -10.570  0.0000E+00  0.0000E+00  0.8000E+01
 -10.560  0.0000E+00  0.0000E+00  0.8000E+01
 -10.550  0.0000E+00  0.0000E+00  0.8000E+01
 -10.540  0.0000E+00  0.0000E+00  0.8000E+01
 -10.530  0.0000E+00  0.0000E+00  0.8000E+01
 -10.520  0.0000E+00  0.0000E+00  0.8000E+01
 -10.510  0.0000E+00  0.0000E+00  0.8000E+01
 -10.500  0.0000E+00  0.0000E+00  0.8000E+01
 -10.490  0.0000E+00  0.0000E+00  0.8000E+01
 -10.480  0.0000E+00  0.0000E+00  0.8000E+01
 -10.470  0.0000E+00  0.0000E+00  0.8000E+01
 -10.460  0.0000E+00  0.0000E+00  0.8000E+01
 -10.450  0.0000E+00  0.0000E+00  0.8000E+01
 -10.440  0.0000E+00  0.0000E+00  0.8000E+01
 -10.430  0.0000E+00  0.0000E+00  0.8000E+01
 -10.420  0.0000E+00  0.0000E+00  0.8000E+01
 -10.410  0.0000E+00  0.0000E+00  0.8000E+01
 -10.400  0.0000E+00  0.0000E+00  0.8000E+01
 -10.390  0.0000E+00  0.0000E+00  0.8000E+01
 -10.380  0.0000E+00  0.0000E+00  0.8000E+01
 -10.370  0.0000E+00  0.0000E+00  0.8000E+01
 -10.360  0.0000E+00  0.0000E+00  0.8000E+01
 -10.350  0.0000E+00  0.0000E+00  0.8000E+01
 -10.340  0.0000E+00  0.0000E+00  0.8000E+01
 -10.330  0.0000E+00  0.0000E+00  0.8000E+01
 -10.320  0.0000E+00  0.0000E+00  0.8000E+01
 -10.310  0.0000E+00  0.0000E+00  0.8000E+01
 -10.300  0.0000E+00  0.0000E+00  0.8000E+01
 -10.290  0.0000E+00  0.0000E+00  0.8000E+01
 -10.280  0.0000E+00  0.0000E+00  0.8000E+01
 -10.270  0.0000E+00  0.0000E+00  0.8000E+01
 -10.260  0.0000E+00  0.0000E+00  0.8000E+01
 -10.250  0.0000E+00  0.0000E+00  0.8000E+01
 -10.240  0.0000E+00  0.0000E+00  0.8000E+01
 -10.230  0.0000E+00  0.0000E+00  0.8000E+01
 -10.220  0.0000E+00  0.0000E+00  0.8000E+01
 -10.210  0.0000E+00  0.0000E+00  0.8000E+01
 -10.200  0.0000E+00  0.0000E+00  0.8000E+01
 -10.190  0.0000E+00  0.0000E+00  0.8000E+01
 -10.180  0.0000E+00  0.0000E+00  0.8000E+01
 -10.170  0.0000E+00  0.0000E+00  0.8000E+01
 -10.160  0.0000E+00  0.0000E+00  0.8000E+01
 -10.150  0.0000E+00  0.0000E+00  0.8000E+01
 -10.140  0.0000E+00  0.0000E+00  0.8000E+01
 -10.130  0.0000E+00  0.0000E+00  0.8000E+01
 -10.120  0.0000E+00  0.0000E+00  0.8000E+01
 -10.110  0.0000E+00  0.0000E+00  0.8000E+01
 -10.100  0.0000E+00  0.0000E+00  0.8000E+01
 -10.090  0.0000E+00  0.0000E+00  0.8000E+01
 -10.080  0.0000E+00  0.0000E+00  0.8000E+01
 -10.070  0.0000E+00  0.0000E+00  0.8000E+01
 -10.060  0.0000E+00  0.0000E+00  0.8000E+01
 -10.050  0.0000E+00  0.0000E+00  0.8000E+01
 -10.040  0.0000E+00  0.0000E+00  0.8000E+01
 -10.030  0.0000E+00  0.0000E+00  0.8000E+01
 -10.020  0.0000E+00  0.0000E+00  0.8000E+01
 -10.010  0.0000E+00  0.0000E+00  0.8000E+01
 -10.000  0.0000E+00  0.0000E+00  0.8000E+01
  -9.990  0.0000E+00  0.0000E+00  0.8000E+01
  -9.980  0.0000E+00  0.0000E+00  0.8000E+01
  -9.970  0.0000E+00  0.0000E+00  0.8000E+01
  -9.960  0.0000E+00  0.0000E+00  0.8000E+01
  -9.950  0.0000E+00  0.0000E+00  0.8000E+01
  -9.940  0.0000E+00  0.0000E+00  0.8000E+01
  -9.930  0.0000E+00  0.0000E+00  0.8000E+01
  -9.920  0.0000E+00  0.0000E+00  0.8000E+01
  -9.910  0.0000E+00  0.0000E+00  0.8000E+01
  -9.900  0.0000E+00  0.0000E+00  0.8000E+01
  -9.890  0.0000E+00  0.0000E+00  0.8000E+01
  -9.880  0.0000E+00  0.0000E+00  0.8000E+01
  -9.870  0.0000E+00  0.0000E+00  0.8000E+01
  -9.860  0.0000E+00  0.0000E+00  0.8000E+01
  -9.850  0.0000E+00  0.0000E+00  0.8000E+01
  -9.840  0.0000E+00  0.0000E+00  0.8000E+01
  -9.830  0.0000E+00  0.0000E+00  0.8000E+01
  -9.820  0.0000E+00  0.0000E+00  0.8000E+01
  -9.810  0.0000E+00  0.0000E+00  0.8000E+01
  -9.800  0.0000E+00  0.0000E+00  0.8000E+01
  -9.790  0.0000E+00  0.0000E+00  0.8000E+01
  -9.780  0.0000E+00  0.0000E+00  0.8000E+01
  -9.770  0.0000E+00  0.0000E+00  0.8000E+01
  -9.760  0.0000E+00  0.0000E+00  0.8000E+01
  -9.750  0.0000E+00  0.0000E+00  0.8000E+01
  -9.740  0.0000E+00  0.0000E+00  0.8000E+01
  -9.730  0.0000E+00  0.0000E+00  0.8000E+01
  -9.720  0.0000E+00  0.0000E+00  0.8000E+01
  -9.710  0.0000E+00  0.0000E+00  0.8000E+01
  -9.700  0.0000E+00  0.0000E+00  0.8000E+01
  -9.690  0.0000E+00  0.0000E+00  0.8000E+01
  -9.680  0.0000E+00  0.0000E+00  0.8000E+01
  -9.670  0.0000E+00  0.0000E+00  0.8000E+01
  -9.660  0.0000E+00  0.0000E+00  0.8000E+01
  -9.650  0.0000E+00  0.0000E+00  0.8000E+01
  -9.640  0.0000E+00  0.0000E+00  0.8000E+01
  -9.630  0.0000E+00  0.0000E+00  0.8000E+01
  -9.620  0.0000E+00  0.0000E+00  0.8000E+01
  -9.610  0.0000E+00  0.0000E+00  0.8000E+01
  -9.600  0.0000E+00  0.0000E+00  0.8000E+01
  -9.590  0.0000E+00  0.0000E+00  0.8000E+01
  -9.580  0.0000E+00  0.0000E+00  0.8000E+01
  -9.570  0.0000E+00  0.0000E+00  0.8000E+01
  -9.560  0.0000E+00  0.0000E+00  0.8000E+01
  -9.550  0.0000E+00  0.0000E+00  0.8000E+01
  -9.540  0.0000E+00  0.0000E+00  0.8000E+01
  -9.530  0.0000E+00  0.0000E+00  0.8000E+01
  -9.520  0.0000E+00  0.0000E+00  0.8000E+01
  -9.510  0.0000E+00  0.0000E+00  0.8000E+01
  -9.500  0.0000E+00  0.0000E+00  0.8000E+01
  -9.490  0.0000E+00  0.0000E+00  0.8000E+01
  -9.480  0.0000E+00  0.0000E+00  0.8000E+01
  -9.470  0.0000E+00  0.0000E+00  0.8000E+01
  -9.460  0.0000E+00  0.0000E+00  0.8000E+01
  -9.450  0.0000E+00  0.0000E+00  0.8000E+01
  -9.440  0.0000E+00  0.0000E+00  0.8000E+01
  -9.430  0.0000E+00  0.0000E+00  0.8000E+01
  -9.420  0.0000E+00  0.0000E+00  0.8000E+01
  -9.410  0.0000E+00  0.0000E+00  0.8000E+01
  -9.400  0.0000E+00  0.0000E+00  0.8000E+01
  -9.390  0.0000E+00  0.0000E+00  0.8000E+01
  -9.380  0.0000E+00  0.0000E+00  0.8000E+01
  -9.370  0.0000E+00  0.0000E+00  0.8000E+01
  -9.360  0.0000E+00  0.0000E+00  0.8000E+01
  -9.350  0.0000E+00  0.0000E+00  0.8000E+01
  -9.340  0.0000E+00  0.0000E+00  0.8000E+01
  -9.330  0.0000E+00  0.0000E+00  0.8000E+01
  -9.320  0.0000E+00  0.0000E+00  0.8000E+01
  -9.310  0.0000E+00  0.0000E+00  0.8000E+01
  -9.300  0.0000E+00  0.0000E+00  0.8000E+01
  -9.290  0.0000E+00  0.0000E+00  0.8000E+01
  -9.280  0.0000E+00  0.0000E+00  0.8000E+01
  -9.270  0.0000E+00  0.0000E+00  0.8000E+01
  -9.260  0.0000E+00  0.0000E+00  0.8000E+01
  -9.250  0.0000E+00  0.0000E+00  0.8000E+01
  -9.240  0.0000E+00  0.0000E+00  0.8000E+01
  -9.230  0.0000E+00  0.0000E+00  0.8000E+01
  -9.220  0.0000E+00  0.0000E+00  0.8000E+01
  -9.210  0.0000E+00  0.0000E+00  0.8000E+01
  -9.200  0.0000E+00  0.0000E+00  0.8000E+01
  -9.190  0.0000E+00  0.0000E+00  0.8000E+01
  -9.180  0.0000E+00  0.0000E+00  0.8000E+01
  -9.170  0.0000E+00  0.0000E+00  0.8000E+01
  -9.160  0.0000E+00  0.0000E+00  0.8000E+01
  -9.150  0.0000E+00  0.0000E+00  0.8000E+01
  -9.140  0.0000E+00  0.0000E+00  0.8000E+01
  -9.130  0.0000E+00  0.0000E+00  0.8000E+01
  -9.120  0.0000E+00  0.0000E+00  0.8000E+01
  -9.110  0.0000E+00  0.0000E+00  0.8000E+01
  -9.100  0.0000E+00  0.0000E+00  0.8000E+01
  -9.090  0.0000E+00  0.0000E+00  0.8000E+01
  -9.080  0.0000E+00  0.0000E+00  0.8000E+01
  -9.070  0.0000E+00  0.0000E+00  0.8000E+01
  -9.060  0.0000E+00  0.0000E+00  0.8000E+01
  -9.050  0.0000E+00  0.0000E+00  0.8000E+01
  -9.040  0.0000E+00  0.0000E+00  0.8000E+01
  -9.030  0.0000E+00  0.0000E+00  0.8000E+01
  -9.020  0.0000E+00  0.0000E+00  0.8000E+01
  -9.010  0.0000E+00  0.0000E+00  0.8000E+01
  -9.000  0.0000E+00  0.0000E+00  0.8000E+01
  -8.990  0.0000E+00  0.0000E+00  0.8000E+01
  -8.980  0.0000E+00  0.0000E+00  0.8000E+01
  -8.970  0.0000E+00  0.0000E+00  0.8000E+01
  -8.960  0.0000E+00  0.0000E+00  0.8000E+01
  -8.950  0.0000E+00  0.0000E+00  0.8000E+01
  -8.940  0.0000E+00  0.0000E+00  0.8000E+01
  -8.930  0.0000E+00  0.0000E+00  0.8000E+01
  -8.920  0.0000E+00  0.0000E+00  0.8000E+01
  -8.910  0.0000E+00  0.0000E+00  0.8000E+01
  -8.900  0.0000E+00  0.0000E+00  0.8000E+01
  -8.890  0.0000E+00  0.0000E+00  0.8000E+01
  -8.880  0.0000E+00  0.0000E+00  0.8000E+01
  -8.870  0.0000E+00  0.0000E+00  0.8000E+01
  -8.860  0.0000E+00  0.0000E+00  0.8000E+01
  -8.850  0.0000E+00  0.0000E+00  0.8000E+01
  -8.840  0.0000E+00  0.0000E+00  0.8000E+01
  -8.830  0.0000E+00  0.0000E+00  0.8000E+01
  -8.820  0.0000E+00  0.0000E+00  0.8000E+01
  -8.810  0.0000E+00  0.0000E+00  0.8000E+01
  -8.800  0.0000E+00  0.0000E+00  0.8000E+01
  -8.790  0.0000E+00  0.0000E+00  0.8000E+01
  -8.780  0.0000E+00  0.0000E+00  0.8000E+01
  -8.770  0.0000E+00  0.0000E+00  0.8000E+01
  -8.760  0.0000E+00  0.0000E+00  0.8000E+01
  -8.750  0.0000E+00  0.0000E+00  0.8000E+01
  -8.740  0.0000E+00  0.0000E+00  0.8000E+01
  -8.730  0.0000E+00  0.0000E+00  0.8000E+01
  -8.720  0.0000E+00  0.0000E+00  0.8000E+01
  -8.710  0.0000E+00  0.0000E+00  0.8000E+01
  -8.700  0.0000E+00  0.0000E+00  0.8000E+01
  -8.690  0.0000E+00  0.0000E+00  0.8000E+01
  -8.680  0.0000E+00  0.0000E+00  0.8000E+01
  -8.670  0.0000E+00  0.0000E+00  0.8000E+01
  -8.660  0.0000E+00  0.0000E+00  0.8000E+01
  -8.650  0.0000E+00  0.0000E+00  0.8000E+01
  -8.640  0.0000E+00  0.0000E+00  0.8000E+01
  -8.630  0.0000E+00  0.0000E+00  0.8000E+01
  -8.620  0.0000E+00  0.0000E+00  0.8000E+01
  -8.610  0.0000E+00  0.0000E+00  0.8000E+01
  -8.600  0.0000E+00  0.0000E+00  0.8000E+01
  -8.590  0.0000E+00  0.0000E+00  0.8000E+01
  -8.580  0.0000E+00  0.0000E+00  0.8000E+01
  -8.570  0.0000E+00  0.0000E+00  0.8000E+01
  -8.560  0.0000E+00  0.0000E+00  0.8000E+01
  -8.550  0.0000E+00  0.0000E+00  0.8000E+01
  -8.540  0.0000E+00  0.0000E+00  0.8000E+01
  -8.530  0.0000E+00  0.0000E+00  0.8000E+01
  -8.520  0.0000E+00  0.0000E+00  0.8000E+01
  -8.510  0.0000E+00  0.0000E+00  0.8000E+01
  -8.500  0.0000E+00  0.0000E+00  0.8000E+01
  -8.490  0.0000E+00  0.0000E+00  0.8000E+01
  -8.480  0.0000E+00  0.0000E+00  0.8000E+01
  -8.470  0.0000E+00  0.0000E+00  0.8000E+01
  -8.460  0.0000E+00  0.0000E+00  0.8000E+01
  -8.450  0.0000E+00  0.0000E+00  0.8000E+01
  -8.440  0.0000E+00  0.0000E+00  0.8000E+01
  -8.430  0.0000E+00  0.0000E+00  0.8000E+01
  -8.420  0.0000E+00  0.0000E+00  0.8000E+01
  -8.410  0.0000E+00  0.0000E+00  0.8000E+01
  -8.400  0.0000E+00  0.0000E+00  0.8000E+01
  -8.390  0.0000E+00  0.0000E+00  0.8000E+01
  -8.380  0.0000E+00  0.0000E+00  0.8000E+01
  -8.370  0.0000E+00  0.0000E+00  0.8000E+01
  -8.360  0.0000E+00  0.0000E+00  0.8000E+01
  -8.350  0.0000E+00  0.0000E+00  0.8000E+01
  -8.340  0.0000E+00  0.0000E+00  0.8000E+01
  -8.330  0.0000E+00  0.0000E+00  0.8000E+01
  -8.320  0.0000E+00  0.0000E+00  0.8000E+01
  -8.310  0.0000E+00  0.0000E+00  0.8000E+01
  -8.300  0.0000E+00  0.0000E+00  0.8000E+01
  -8.290  0.0000E+00  0.0000E+00  0.8000E+01
  -8.280  0.0000E+00  0.0000E+00  0.8000E+01
  -8.270  0.0000E+00  0.0000E+00  0.8000E+01
  -8.260  0.0000E+00  0.0000E+00  0.8000E+01
  -8.250  0.0000E+00  0.0000E+00  0.8000E+01
  -8.240  0.0000E+00  0.0000E+00  0.8000E+01
  -8.230  0.0000E+00  0.0000E+00  0.8000E+01
  -8.220  0.0000E+00  0.0000E+00  0.8000E+01
  -8.210  0.0000E+00  0.0000E+00  0.8000E+01
  -8.200  0.0000E+00  0.0000E+00  0.8000E+01
  -8.190  0.0000E+00  0.0000E+00  0.8000E+01
  -8.180  0.0000E+00  0.0000E+00  0.8000E+01
  -8.170  0.0000E+00  0.0000E+00  0.8000E+01
  -8.160  0.0000E+00  0.0000E+00  0.8000E+01
  -8.150  0.0000E+00  0.0000E+00  0.8000E+01
  -8.140  0.0000E+00  0.0000E+00  0.8000E+01
  -8.130  0.0000E+00  0.0000E+00  0.8000E+01
  -8.120  0.0000E+00  0.0000E+00  0.8000E+01
  -8.110  0.0000E+00  0.0000E+00  0.8000E+01
  -8.100  0.0000E+00  0.0000E+00  0.8000E+01
  -8.090  0.0000E+00  0.0000E+00  0.8000E+01
  -8.080  0.0000E+00  0.0000E+00  0.8000E+01
  -8.070  0.0000E+00  0.0000E+00  0.8000E+01
  -8.060  0.0000E+00  0.0000E+00  0.8000E+01
  -8.050  0.0000E+00  0.0000E+00  0.8000E+01
  -8.040  0.0000E+00  0.0000E+00  0.8000E+01
  -8.030  0.0000E+00  0.0000E+00  0.8000E+01
  -8.020  0.0000E+00  0.0000E+00  0.8000E+01
  -8.010  0.0000E+00  0.0000E+00  0.8000E+01
  -8.000  0.0000E+00  0.0000E+00  0.8000E+01
  -7.990  0.0000E+00  0.0000E+00  0.8000E+01
  -7.980  0.0000E+00  0.0000E+00  0.8000E+01
  -7.970  0.0000E+00  0.0000E+00  0.8000E+01
  -7.960  0.0000E+00  0.0000E+00  0.8000E+01
  -7.950  0.0000E+00  0.0000E+00  0.8000E+01
  -7.940  0.0000E+00  0.0000E+00  0.8000E+01
  -7.930  0.0000E+00  0.0000E+00  0.8000E+01
  -7.920  0.0000E+00  0.0000E+00  0.8000E+01
  -7.910  0.0000E+00  0.0000E+00  0.8000E+01
  -7.900  0.0000E+00  0.0000E+00  0.8000E+01
  -7.890  0.0000E+00  0.0000E+00  0.8000E+01
  -7.880  0.0000E+00  0.0000E+00  0.8000E+01
  -7.870  0.0000E+00  0.0000E+00  0.8000E+01
  -7.860  0.0000E+00  0.0000E+00  0.8000E+01
  -7.850  0.0000E+00  0.0000E+00  0.8000E+01
  -7.840  0.0000E+00  0.0000E+00  0.8000E+01
  -7.830  0.0000E+00  0.0000E+00  0.8000E+01
  -7.820  0.0000E+00  0.0000E+00  0.8000E+01
  -7.810  0.0000E+00  0.0000E+00  0.8000E+01
  -7.800  0.0000E+00  0.0000E+00  0.8000E+01
  -7.790  0.0000E+00  0.0000E+00  0.8000E+01
  -7.780  0.0000E+00  0.0000E+00  0.8000E+01
  -7.770  0.0000E+00  0.0000E+00  0.8000E+01
  -7.760  0.0000E+00  0.0000E+00  0.8000E+01
  -7.750  0.0000E+00  0.0000E+00  0.8000E+01
  -7.740  0.0000E+00  0.0000E+00  0.8000E+01
  -7.730  0.0000E+00  0.0000E+00  0.8000E+01
  -7.720  0.0000E+00  0.0000E+00  0.8000E+01
  -7.710  0.0000E+00  0.0000E+00  0.8000E+01
  -7.700  0.0000E+00  0.0000E+00  0.8000E+01
  -7.690  0.0000E+00  0.0000E+00  0.8000E+01
  -7.680  0.0000E+00  0.0000E+00  0.8000E+01
  -7.670  0.0000E+00  0.0000E+00  0.8000E+01
  -7.660  0.0000E+00  0.0000E+00  0.8000E+01
  -7.650  0.0000E+00  0.0000E+00  0.8000E+01
  -7.640  0.0000E+00  0.0000E+00  0.8000E+01
  -7.630  0.0000E+00  0.0000E+00  0.8000E+01
  -7.620  0.0000E+00  0.0000E+00  0.8000E+01
  -7.610  0.0000E+00  0.0000E+00  0.8000E+01
  -7.600  0.0000E+00  0.0000E+00  0.8000E+01
  -7.590  0.0000E+00  0.0000E+00  0.8000E+01
  -7.580  0.0000E+00  0.0000E+00  0.8000E+01
  -7.570  0.0000E+00  0.0000E+00  0.8000E+01
  -7.560  0.0000E+00  0.0000E+00  0.8000E+01
  -7.550  0.0000E+00  0.0000E+00  0.8000E+01
  -7.540  0.0000E+00  0.0000E+00  0.8000E+01
  -7.530  0.0000E+00  0.0000E+00  0.8000E+01
  -7.520  0.0000E+00  0.0000E+00  0.8000E+01
  -7.510  0.0000E+00  0.0000E+00  0.8000E+01
  -7.500  0.0000E+00  0.0000E+00  0.8000E+01
  -7.490  0.0000E+00  0.0000E+00  0.8000E+01
  -7.480  0.0000E+00  0.0000E+00  0.8000E+01
  -7.470  0.1748E-01  0.9853E-02  0.8000E+01
  -7.460  0.2138E+00  0.1444E+00  0.8001E+01
  -7.450  0.7369E+00  0.6003E+00  0.8009E+01
  -7.440  0.1568E+01  0.1386E+01  0.8030E+01
  -7.430  0.2326E+01  0.2207E+01  0.8068E+01
  -7.420  0.2783E+01  0.2718E+01  0.8119E+01
  -7.410  0.3071E+01  0.3041E+01  0.8177E+01
  -7.400  0.3288E+01  0.3262E+01  0.8240E+01
  -7.390  0.3569E+01  0.3548E+01  0.8309E+01
  -7.380  0.3805E+01  0.3786E+01  0.8382E+01
  -7.370  0.4248E+01  0.4193E+01  0.8462E+01
  -7.360  0.5019E+01  0.4918E+01  0.8553E+01
  -7.350  0.5815E+01  0.5746E+01  0.8660E+01
  -7.340  0.6458E+01  0.6448E+01  0.8784E+01
  -7.330  0.6516E+01  0.6577E+01  0.8915E+01
  -7.320  0.6029E+01  0.6137E+01  0.9042E+01
  -7.310  0.5383E+01  0.5478E+01  0.9157E+01
  -7.300  0.4975E+01  0.5043E+01  0.9261E+01
  -7.290  0.4738E+01  0.4769E+01  0.9358E+01
  -7.280  0.4540E+01  0.4576E+01  0.9451E+01
  -7.270  0.4529E+01  0.4472E+01  0.9541E+01
  -7.260  0.4830E+01  0.4711E+01  0.9633E+01
  -7.250  0.5608E+01  0.5315E+01  0.9734E+01
  -7.240  0.6611E+01  0.6301E+01  0.9853E+01
  -7.230  0.7636E+01  0.7340E+01  0.9993E+01
  -7.220  0.8173E+01  0.8169E+01  0.1015E+02
  -7.210  0.8192E+01  0.8222E+01  0.1031E+02
  -7.200  0.8256E+01  0.8298E+01  0.1048E+02
  -7.190  0.8422E+01  0.8471E+01  0.1065E+02
  -7.180  0.8497E+01  0.8562E+01  0.1082E+02
  -7.170  0.8507E+01  0.8568E+01  0.1099E+02
  -7.160  0.8633E+01  0.8680E+01  0.1116E+02
  -7.150  0.8663E+01  0.8723E+01  0.1133E+02
  -7.140  0.8496E+01  0.8569E+01  0.1151E+02
  -7.130  0.8277E+01  0.8368E+01  0.1167E+02
  -7.120  0.9883E+01  0.9490E+01  0.1185E+02
  -7.110  0.1026E+02  0.1053E+02  0.1205E+02
  -7.100  0.9527E+01  0.9601E+01  0.1225E+02
  -7.090  0.8848E+01  0.8743E+01  0.1243E+02
  -7.080  0.1219E+02  0.1108E+02  0.1263E+02
  -7.070  0.1416E+02  0.1417E+02  0.1289E+02
  -7.060  0.1484E+02  0.1502E+02  0.1319E+02
  -7.050  0.1397E+02  0.1430E+02  0.1348E+02
  -7.040  0.1244E+02  0.1278E+02  0.1375E+02
  -7.030  0.1062E+02  0.1081E+02  0.1398E+02
  -7.020  0.9172E+01  0.9280E+01  0.1418E+02
  -7.010  0.8674E+01  0.8709E+01  0.1436E+02
  -7.000  0.8941E+01  0.8964E+01  0.1453E+02
  -6.990  0.1174E+02  0.1008E+02  0.1472E+02
  -6.980  0.1060E+02  0.1172E+02  0.1498E+02
  -6.970  0.1026E+02  0.1029E+02  0.1518E+02
  -6.960  0.1055E+02  0.1054E+02  0.1539E+02
  -6.950  0.1094E+02  0.1092E+02  0.1560E+02
  -6.940  0.1171E+02  0.1134E+02  0.1583E+02
  -6.930  0.1342E+02  0.1340E+02  0.1614E+02
  -6.920  0.1516E+02  0.1483E+02  0.1642E+02
  -6.910  0.1863E+02  0.1812E+02  0.1675E+02
  -6.900  0.2182E+02  0.2146E+02  0.1715E+02
  -6.890  0.2708E+02  0.2723E+02  0.1762E+02
  -6.880  0.2424E+02  0.2373E+02  0.1812E+02
  -6.870  0.2724E+02  0.2686E+02  0.1863E+02
  -6.860  0.2762E+02  0.2773E+02  0.1920E+02
  -6.850  0.2420E+02  0.2495E+02  0.1973E+02
  -6.840  0.1442E+02  0.1669E+02  0.2014E+02
  -6.830  0.1041E+02  0.1088E+02  0.2040E+02
  -6.820  0.8928E+01  0.8867E+01  0.2058E+02
  -6.810  0.8936E+01  0.8759E+01  0.2076E+02
  -6.800  0.9704E+01  0.9421E+01  0.2094E+02
  -6.790  0.1129E+02  0.1089E+02  0.2115E+02
  -6.780  0.1496E+02  0.1251E+02  0.2139E+02
  -6.770  0.2041E+02  0.2009E+02  0.2175E+02
  -6.760  0.2092E+02  0.2085E+02  0.2216E+02
  -6.750  0.2119E+02  0.2136E+02  0.2258E+02
  -6.740  0.2152E+02  0.2184E+02  0.2301E+02
  -6.730  0.2326E+02  0.2318E+02  0.2345E+02
  -6.720  0.4480E+02  0.4219E+02  0.2413E+02
  -6.710  0.2869E+02  0.2939E+02  0.2477E+02
  -6.700  0.3249E+02  0.3244E+02  0.2551E+02
  -6.690  0.3176E+02  0.3192E+02  0.2616E+02
  -6.680  0.2911E+02  0.2858E+02  0.2676E+02
  -6.670  0.3136E+02  0.3075E+02  0.2735E+02
  -6.660  0.3352E+02  0.3382E+02  0.2801E+02
  -6.650  0.3264E+02  0.3255E+02  0.2867E+02
  -6.640  0.3176E+02  0.3188E+02  0.2931E+02
  -6.630  0.3051E+02  0.2937E+02  0.2993E+02
  -6.620  0.6144E+02  0.6765E+02  0.3091E+02
  -6.610  0.4641E+02  0.4736E+02  0.3195E+02
  -6.600  0.4366E+02  0.4369E+02  0.3285E+02
  -6.590  0.4189E+02  0.3893E+02  0.3367E+02
  -6.580  0.4341E+02  0.4725E+02  0.3463E+02
  -6.570  0.3260E+02  0.3368E+02  0.3537E+02
  -6.560  0.3441E+02  0.3433E+02  0.3603E+02
  -6.550  0.3844E+02  0.3800E+02  0.3676E+02
  -6.540  0.4357E+02  0.4307E+02  0.3757E+02
  -6.530  0.4679E+02  0.4667E+02  0.3848E+02
  -6.520  0.4429E+02  0.4431E+02  0.3940E+02
  -6.510  0.4305E+02  0.4286E+02  0.4027E+02
  -6.500  0.4114E+02  0.4091E+02  0.4111E+02
  -6.490  0.6270E+02  0.6009E+02  0.4206E+02
  -6.480  0.6097E+02  0.6093E+02  0.4338E+02
  -6.470  0.7101E+02  0.6658E+02  0.4465E+02
  -6.460  0.5235E+02  0.5566E+02  0.4586E+02
  -6.450  0.6817E+02  0.6129E+02  0.4684E+02
  -6.440  0.7246E+02  0.7732E+02  0.4871E+02
  -6.430  0.5854E+02  0.5863E+02  0.4991E+02
  -6.420  0.5250E+02  0.5417E+02  0.5105E+02
  -6.410  0.7336E+02  0.8155E+02  0.5229E+02
  -6.400  0.2465E+02  0.2467E+02  0.5311E+02
  -6.390  0.3106E+02  0.2963E+02  0.5362E+02
  -6.380  0.4451E+02  0.4151E+02  0.5436E+02
  -6.370  0.6215E+02  0.5964E+02  0.5535E+02
  -6.360  0.5297E+02  0.5291E+02  0.5649E+02
  -6.350  0.5901E+02  0.5691E+02  0.5769E+02
  -6.340  0.7105E+02  0.6998E+02  0.5901E+02
  -6.330  0.7236E+02  0.7202E+02  0.6053E+02
  -6.320  0.5449E+02  0.5578E+02  0.6177E+02
  -6.310  0.3891E+02  0.4036E+02  0.6284E+02
  -6.300  0.2559E+02  0.2737E+02  0.6356E+02
  -6.290  0.9895E+01  0.1053E+02  0.6392E+02
  -6.280  0.1943E+00  0.2579E+00  0.6400E+02
  -6.270  0.0000E+00  0.0000E+00  0.6400E+02
  -6.260  0.0000E+00  0.0000E+00  0.6400E+02
  -6.250  0.0000E+00  0.0000E+00  0.6400E+02
  -6.240  0.0000E+00  0.0000E+00  0.6400E+02
  -6.230  0.0000E+00  0.0000E+00  0.6400E+02
  -6.220  0.1884E+00  0.0000E+00  0.6400E+02
  -6.210  0.2326E+01  0.0000E+00  0.6401E+02
  -6.200  0.6661E+01  0.0000E+00  0.6405E+02
  -6.190  0.1286E+02  0.0000E+00  0.6415E+02
  -6.180  0.2461E+02  0.1739E+00  0.6432E+02
  -6.170  0.2625E+02  0.2983E+01  0.6461E+02
  -6.160  0.2233E+02  0.8622E+01  0.6492E+02
  -6.150  0.6009E+01  0.1625E+02  0.6517E+02
  -6.140  0.5873E-01  0.2949E+02  0.6543E+02
  -6.130  0.0000E+00  0.2905E+02  0.6572E+02
  -6.120  0.0000E+00  0.1191E+02  0.6593E+02
  -6.110  0.0000E+00  0.1747E+01  0.6600E+02
  -6.100  0.0000E+00  0.0000E+00  0.6600E+02
  -6.090  0.0000E+00  0.0000E+00  0.6600E+02
  -6.080  0.0000E+00  0.0000E+00  0.6600E+02
  -6.070  0.0000E+00  0.0000E+00  0.6600E+02
  -6.060  0.0000E+00  0.0000E+00  0.6600E+02
  -6.050  0.0000E+00  0.0000E+00  0.6600E+02
  -6.040  0.0000E+00  0.0000E+00  0.6600E+02
  -6.030  0.6699E+02  0.0000E+00  0.6609E+02
  -6.020  0.6116E+02  0.0000E+00  0.6673E+02
  -6.010  0.1149E+03  0.0000E+00  0.6743E+02
  -6.000  0.7482E+02  0.0000E+00  0.6829E+02
  -5.990  0.2971E+02  0.7109E+02  0.6933E+02
  -5.980  0.0000E+00  0.6779E+02  0.7004E+02
  -5.970  0.0000E+00  0.8376E+02  0.7100E+02
  -5.960  0.0000E+00  0.1270E+03  0.7179E+02
  -5.950  0.0000E+00  0.0000E+00  0.7200E+02
  -5.940  0.0000E+00  0.0000E+00  0.7200E+02
  -5.930  0.0000E+00  0.0000E+00  0.7200E+02
  -5.920  0.0000E+00  0.0000E+00  0.7200E+02
  -5.910  0.0000E+00  0.0000E+00  0.7200E+02
  -5.900  0.0000E+00  0.0000E+00  0.7200E+02
  -5.890  0.0000E+00  0.0000E+00  0.7200E+02
  -5.880  0.0000E+00  0.0000E+00  0.7200E+02
  -5.870  0.0000E+00  0.0000E+00  0.7200E+02
  -5.860  0.0000E+00  0.0000E+00  0.7200E+02
  -5.850  0.0000E+00  0.0000E+00  0.7200E+02
  -5.840  0.0000E+00  0.0000E+00  0.7200E+02
  -5.830  0.0000E+00  0.0000E+00  0.7200E+02
  -5.820  0.0000E+00  0.0000E+00  0.7200E+02
  -5.810  0.0000E+00  0.0000E+00  0.7200E+02
  -5.800  0.0000E+00  0.0000E+00  0.7200E+02
  -5.790  0.0000E+00  0.0000E+00  0.7200E+02
  -5.780  0.0000E+00  0.0000E+00  0.7200E+02
  -5.770  0.0000E+00  0.0000E+00  0.7200E+02
  -5.760  0.0000E+00  0.0000E+00  0.7200E+02
  -5.750  0.0000E+00  0.0000E+00  0.7200E+02
  -5.740  0.0000E+00  0.0000E+00  0.7200E+02
  -5.730  0.0000E+00  0.0000E+00  0.7200E+02
  -5.720  0.0000E+00  0.0000E+00  0.7200E+02
  -5.710  0.0000E+00  0.0000E+00  0.7200E+02
  -5.700  0.0000E+00  0.0000E+00  0.7200E+02
  -5.690  0.0000E+00  0.0000E+00  0.7200E+02
  -5.680  0.0000E+00  0.0000E+00  0.7200E+02
  -5.670  0.0000E+00  0.0000E+00  0.7200E+02
  -5.660  0.0000E+00  0.0000E+00  0.7200E+02
  -5.650  0.0000E+00  0.0000E+00  0.7200E+02
  -5.640  0.0000E+00  0.0000E+00  0.7200E+02
  -5.630  0.0000E+00  0.0000E+00  0.7200E+02
  -5.620  0.0000E+00  0.0000E+00  0.7200E+02
  -5.610  0.0000E+00  0.0000E+00  0.7200E+02
  -5.600  0.0000E+00  0.0000E+00  0.7200E+02
  -5.590  0.0000E+00  0.0000E+00  0.7200E+02
  -5.580  0.0000E+00  0.0000E+00  0.7200E+02
  -5.570  0.0000E+00  0.0000E+00  0.7200E+02
  -5.560  0.0000E+00  0.0000E+00  0.7200E+02
  -5.550  0.0000E+00  0.0000E+00  0.7200E+02
  -5.540  0.0000E+00  0.0000E+00  0.7200E+02
  -5.530  0.0000E+00  0.0000E+00  0.7200E+02
  -5.520  0.0000E+00  0.0000E+00  0.7200E+02
  -5.510  0.0000E+00  0.0000E+00  0.7200E+02
  -5.500  0.0000E+00  0.0000E+00  0.7200E+02
  -5.490  0.0000E+00  0.0000E+00  0.7200E+02
  -5.480  0.0000E+00  0.0000E+00  0.7200E+02
  -5.470  0.0000E+00  0.0000E+00  0.7200E+02
  -5.460  0.0000E+00  0.0000E+00  0.7200E+02
  -5.450  0.0000E+00  0.0000E+00  0.7200E+02
  -5.440  0.0000E+00  0.0000E+00  0.7200E+02
  -5.430  0.0000E+00  0.0000E+00  0.7200E+02
  -5.420  0.0000E+00  0.0000E+00  0.7200E+02
  -5.410  0.0000E+00  0.0000E+00  0.7200E+02
  -5.400  0.0000E+00  0.0000E+00  0.7200E+02
  -5.390  0.0000E+00  0.0000E+00  0.7200E+02
  -5.380  0.0000E+00  0.0000E+00  0.7200E+02
  -5.370  0.0000E+00  0.0000E+00  0.7200E+02
  -5.360  0.0000E+00  0.0000E+00  0.7200E+02
  -5.350  0.0000E+00  0.0000E+00  0.7200E+02
  -5.340  0.0000E+00  0.0000E+00  0.7200E+02
  -5.330  0.0000E+00  0.0000E+00  0.7200E+02
  -5.320  0.0000E+00  0.0000E+00  0.7200E+02
  -5.310  0.0000E+00  0.0000E+00  0.7200E+02
  -5.300  0.0000E+00  0.0000E+00  0.7200E+02
  -5.290  0.0000E+00  0.0000E+00  0.7200E+02
  -5.280  0.0000E+00  0.0000E+00  0.7200E+02
  -5.270  0.0000E+00  0.0000E+00  0.7200E+02
  -5.260  0.0000E+00  0.0000E+00  0.7200E+02
  -5.250  0.0000E+00  0.0000E+00  0.7200E+02
  -5.240  0.0000E+00  0.0000E+00  0.7200E+02
  -5.230  0.0000E+00  0.0000E+00  0.7200E+02
  -5.220  0.0000E+00  0.0000E+00  0.7200E+02
  -5.210  0.0000E+00  0.0000E+00  0.7200E+02
  -5.200  0.0000E+00  0.0000E+00  0.7200E+02
  -5.190  0.0000E+00  0.0000E+00  0.7200E+02
  -5.180  0.0000E+00  0.0000E+00  0.7200E+02
  -5.170  0.0000E+00  0.0000E+00  0.7200E+02
  -5.160  0.0000E+00  0.0000E+00  0.7200E+02
  -5.150  0.0000E+00  0.0000E+00  0.7200E+02
  -5.140  0.0000E+00  0.0000E+00  0.7200E+02
  -5.130  0.0000E+00  0.0000E+00  0.7200E+02
  -5.120  0.0000E+00  0.0000E+00  0.7200E+02
  -5.110  0.0000E+00  0.0000E+00  0.7200E+02
  -5.100  0.0000E+00  0.0000E+00  0.7200E+02
  -5.090  0.0000E+00  0.0000E+00  0.7200E+02
  -5.080  0.0000E+00  0.0000E+00  0.7200E+02
  -5.070  0.0000E+00  0.0000E+00  0.7200E+02
  -5.060  0.0000E+00  0.0000E+00  0.7200E+02
  -5.050  0.0000E+00  0.0000E+00  0.7200E+02
  -5.040  0.0000E+00  0.0000E+00  0.7200E+02
  -5.030  0.0000E+00  0.0000E+00  0.7200E+02
  -5.020  0.0000E+00  0.0000E+00  0.7200E+02
  -5.010  0.0000E+00  0.0000E+00  0.7200E+02
  -5.000  0.0000E+00  0.0000E+00  0.7200E+02
  -4.990  0.0000E+00  0.0000E+00  0.7200E+02
  -4.980  0.0000E+00  0.0000E+00  0.7200E+02
  -4.970  0.0000E+00  0.0000E+00  0.7200E+02
  -4.960  0.0000E+00  0.0000E+00  0.7200E+02
  -4.950  0.0000E+00  0.0000E+00  0.7200E+02
  -4.940  0.0000E+00  0.0000E+00  0.7200E+02
  -4.930  0.0000E+00  0.0000E+00  0.7200E+02
  -4.920  0.0000E+00  0.0000E+00  0.7200E+02
  -4.910  0.0000E+00  0.0000E+00  0.7200E+02
  -4.900  0.0000E+00  0.0000E+00  0.7200E+02
  -4.890  0.0000E+00  0.0000E+00  0.7200E+02
  -4.880  0.0000E+00  0.0000E+00  0.7200E+02
  -4.870  0.0000E+00  0.0000E+00  0.7200E+02
  -4.860  0.0000E+00  0.0000E+00  0.7200E+02
  -4.850  0.0000E+00  0.0000E+00  0.7200E+02
  -4.840  0.0000E+00  0.0000E+00  0.7200E+02
  -4.830  0.0000E+00  0.0000E+00  0.7200E+02
  -4.820  0.0000E+00  0.0000E+00  0.7200E+02
  -4.810  0.0000E+00  0.0000E+00  0.7200E+02
  -4.800  0.0000E+00  0.0000E+00  0.7200E+02
  -4.790  0.0000E+00  0.0000E+00  0.7200E+02
  -4.780  0.0000E+00  0.0000E+00  0.7200E+02
  -4.770  0.0000E+00  0.0000E+00  0.7200E+02
  -4.760  0.0000E+00  0.0000E+00  0.7200E+02
  -4.750  0.0000E+00  0.0000E+00  0.7200E+02
  -4.740  0.0000E+00  0.0000E+00  0.7200E+02
  -4.730  0.0000E+00  0.0000E+00  0.7200E+02
  -4.720  0.0000E+00  0.0000E+00  0.7200E+02
  -4.710  0.0000E+00  0.0000E+00  0.7200E+02
  -4.700  0.0000E+00  0.0000E+00  0.7200E+02
  -4.690  0.0000E+00  0.0000E+00  0.7200E+02
  -4.680  0.0000E+00  0.0000E+00  0.7200E+02
  -4.670  0.0000E+00  0.0000E+00  0.7200E+02
  -4.660  0.0000E+00  0.0000E+00  0.7200E+02
  -4.650  0.0000E+00  0.0000E+00  0.7200E+02
  -4.640  0.0000E+00  0.0000E+00  0.7200E+02
  -4.630  0.0000E+00  0.0000E+00  0.7200E+02
  -4.620  0.0000E+00  0.0000E+00  0.7200E+02
  -4.610  0.0000E+00  0.0000E+00  0.7200E+02
  -4.600  0.0000E+00  0.0000E+00  0.7200E+02
  -4.590  0.0000E+00  0.0000E+00  0.7200E+02
  -4.580  0.0000E+00  0.0000E+00  0.7200E+02
  -4.570  0.0000E+00  0.0000E+00  0.7200E+02
  -4.560  0.0000E+00  0.0000E+00  0.7200E+02
  -4.550  0.0000E+00  0.0000E+00  0.7200E+02
  -4.540  0.0000E+00  0.0000E+00  0.7200E+02
  -4.530  0.0000E+00  0.0000E+00  0.7200E+02
  -4.520  0.0000E+00  0.0000E+00  0.7200E+02
  -4.510  0.0000E+00  0.0000E+00  0.7200E+02
  -4.500  0.0000E+00  0.0000E+00  0.7200E+02
  -4.490  0.0000E+00  0.0000E+00  0.7200E+02
  -4.480  0.0000E+00  0.0000E+00  0.7200E+02
  -4.470  0.0000E+00  0.0000E+00  0.7200E+02
  -4.460  0.0000E+00  0.0000E+00  0.7200E+02
  -4.450  0.0000E+00  0.0000E+00  0.7200E+02
  -4.440  0.0000E+00  0.0000E+00  0.7200E+02
  -4.430  0.0000E+00  0.0000E+00  0.7200E+02
  -4.420  0.0000E+00  0.0000E+00  0.7200E+02
  -4.410  0.0000E+00  0.0000E+00  0.7200E+02
  -4.400  0.0000E+00  0.0000E+00  0.7200E+02
  -4.390  0.0000E+00  0.0000E+00  0.7200E+02
  -4.380  0.0000E+00  0.0000E+00  0.7200E+02
  -4.370  0.0000E+00  0.0000E+00  0.7200E+02
  -4.360  0.0000E+00  0.0000E+00  0.7200E+02
  -4.350  0.0000E+00  0.0000E+00  0.7200E+02
  -4.340  0.0000E+00  0.0000E+00  0.7200E+02
  -4.330  0.0000E+00  0.0000E+00  0.7200E+02
  -4.320  0.0000E+00  0.0000E+00  0.7200E+02
  -4.310  0.0000E+00  0.0000E+00  0.7200E+02
  -4.300  0.0000E+00  0.0000E+00  0.7200E+02
  -4.290  0.0000E+00  0.0000E+00  0.7200E+02
  -4.280  0.0000E+00  0.0000E+00  0.7200E+02
  -4.270  0.0000E+00  0.0000E+00  0.7200E+02
  -4.260  0.0000E+00  0.0000E+00  0.7200E+02
  -4.250  0.0000E+00  0.0000E+00  0.7200E+02
  -4.240  0.0000E+00  0.0000E+00  0.7200E+02
  -4.230  0.0000E+00  0.0000E+00  0.7200E+02
  -4.220  0.0000E+00  0.0000E+00  0.7200E+02
  -4.210  0.0000E+00  0.0000E+00  0.7200E+02
  -4.200  0.0000E+00  0.0000E+00  0.7200E+02
  -4.190  0.0000E+00  0.0000E+00  0.7200E+02
  -4.180  0.0000E+00  0.0000E+00  0.7200E+02
  -4.170  0.0000E+00  0.0000E+00  0.7200E+02
  -4.160  0.0000E+00  0.0000E+00  0.7200E+02
  -4.150  0.0000E+00  0.0000E+00  0.7200E+02
  -4.140  0.0000E+00  0.0000E+00  0.7200E+02
  -4.130  0.0000E+00  0.0000E+00  0.7200E+02
  -4.120  0.0000E+00  0.0000E+00  0.7200E+02
  -4.110  0.0000E+00  0.0000E+00  0.7200E+02
  -4.100  0.0000E+00  0.0000E+00  0.7200E+02
  -4.090  0.0000E+00  0.0000E+00  0.7200E+02
  -4.080  0.0000E+00  0.0000E+00  0.7200E+02
  -4.070  0.0000E+00  0.0000E+00  0.7200E+02
  -4.060  0.0000E+00  0.0000E+00  0.7200E+02
  -4.050  0.0000E+00  0.0000E+00  0.7200E+02
  -4.040  0.0000E+00  0.0000E+00  0.7200E+02
  -4.030  0.0000E+00  0.0000E+00  0.7200E+02
  -4.020  0.0000E+00  0.0000E+00  0.7200E+02
  -4.010  0.0000E+00  0.0000E+00  0.7200E+02
  -4.000  0.0000E+00  0.0000E+00  0.7200E+02
  -3.990  0.0000E+00  0.0000E+00  0.7200E+02
  -3.980  0.0000E+00  0.0000E+00  0.7200E+02
  -3.970  0.0000E+00  0.0000E+00  0.7200E+02
  -3.960  0.0000E+00  0.0000E+00  0.7200E+02
  -3.950  0.0000E+00  0.0000E+00  0.7200E+02
  -3.940  0.0000E+00  0.0000E+00  0.7200E+02
  -3.930  0.0000E+00  0.0000E+00  0.7200E+02
  -3.920  0.0000E+00  0.0000E+00  0.7200E+02
  -3.910  0.0000E+00  0.0000E+00  0.7200E+02
  -3.900  0.0000E+00  0.0000E+00  0.7200E+02
  -3.890  0.0000E+00  0.0000E+00  0.7200E+02
  -3.880  0.0000E+00  0.0000E+00  0.7200E+02
  -3.870  0.0000E+00  0.0000E+00  0.7200E+02
  -3.860  0.0000E+00  0.0000E+00  0.7200E+02
  -3.850  0.0000E+00  0.0000E+00  0.7200E+02
  -3.840  0.0000E+00  0.0000E+00  0.7200E+02
  -3.830  0.0000E+00  0.0000E+00  0.7200E+02
  -3.820  0.0000E+00  0.0000E+00  0.7200E+02
  -3.810  0.0000E+00  0.0000E+00  0.7200E+02
  -3.800  0.0000E+00  0.0000E+00  0.7200E+02
  -3.790  0.0000E+00  0.0000E+00  0.7200E+02
  -3.780  0.0000E+00  0.0000E+00  0.7200E+02
  -3.770  0.0000E+00  0.0000E+00  0.7200E+02
  -3.760  0.0000E+00  0.0000E+00  0.7200E+02
  -3.750  0.0000E+00  0.0000E+00  0.7200E+02
  -3.740  0.0000E+00  0.0000E+00  0.7200E+02
  -3.730  0.0000E+00  0.0000E+00  0.7200E+02
  -3.720  0.0000E+00  0.0000E+00  0.7200E+02
  -3.710  0.0000E+00  0.0000E+00  0.7200E+02
  -3.700  0.0000E+00  0.0000E+00  0.7200E+02
  -3.690  0.0000E+00  0.0000E+00  0.7200E+02
  -3.680  0.0000E+00  0.0000E+00  0.7200E+02
  -3.670  0.0000E+00  0.0000E+00  0.7200E+02
  -3.660  0.0000E+00  0.0000E+00  0.7200E+02
  -3.650  0.0000E+00  0.0000E+00  0.7200E+02
  -3.640  0.0000E+00  0.0000E+00  0.7200E+02
  -3.630  0.0000E+00  0.0000E+00  0.7200E+02
  -3.620  0.0000E+00  0.0000E+00  0.7200E+02
  -3.610  0.0000E+00  0.0000E+00  0.7200E+02
  -3.600  0.0000E+00  0.0000E+00  0.7200E+02
  -3.590  0.0000E+00  0.0000E+00  0.7200E+02
  -3.580  0.0000E+00  0.0000E+00  0.7200E+02
  -3.570  0.0000E+00  0.0000E+00  0.7200E+02
  -3.560  0.0000E+00  0.0000E+00  0.7200E+02
  -3.550  0.0000E+00  0.0000E+00  0.7200E+02
  -3.540  0.0000E+00  0.0000E+00  0.7200E+02
  -3.530  0.0000E+00  0.0000E+00  0.7200E+02
  -3.520  0.0000E+00  0.0000E+00  0.7200E+02
  -3.510  0.0000E+00  0.0000E+00  0.7200E+02
  -3.500  0.0000E+00  0.0000E+00  0.7200E+02
  -3.490  0.0000E+00  0.0000E+00  0.7200E+02
  -3.480  0.0000E+00  0.0000E+00  0.7200E+02
  -3.470  0.0000E+00  0.0000E+00  0.7200E+02
  -3.460  0.0000E+00  0.0000E+00  0.7200E+02
  -3.450  0.0000E+00  0.0000E+00  0.7200E+02
  -3.440  0.0000E+00  0.0000E+00  0.7200E+02
  -3.430  0.0000E+00  0.0000E+00  0.7200E+02
  -3.420  0.0000E+00  0.0000E+00  0.7200E+02
  -3.410  0.0000E+00  0.0000E+00  0.7200E+02
  -3.400  0.0000E+00  0.0000E+00  0.7200E+02
  -3.390  0.0000E+00  0.0000E+00  0.7200E+02
  -3.380  0.0000E+00  0.0000E+00  0.7200E+02
  -3.370  0.0000E+00  0.0000E+00  0.7200E+02
  -3.360  0.0000E+00  0.0000E+00  0.7200E+02
  -3.350  0.0000E+00  0.0000E+00  0.7200E+02
  -3.340  0.0000E+00  0.0000E+00  0.7200E+02
  -3.330  0.0000E+00  0.0000E+00  0.7200E+02
  -3.320  0.0000E+00  0.0000E+00  0.7200E+02
  -3.310  0.0000E+00  0.0000E+00  0.7200E+02
  -3.300  0.0000E+00  0.0000E+00  0.7200E+02
  -3.290  0.0000E+00  0.0000E+00  0.7200E+02
  -3.280  0.0000E+00  0.0000E+00  0.7200E+02
  -3.270  0.0000E+00  0.0000E+00  0.7200E+02
  -3.260  0.0000E+00  0.0000E+00  0.7200E+02
  -3.250  0.0000E+00  0.0000E+00  0.7200E+02
  -3.240  0.0000E+00  0.0000E+00  0.7200E+02
  -3.230  0.0000E+00  0.0000E+00  0.7200E+02
  -3.220  0.0000E+00  0.0000E+00  0.7200E+02
  -3.210  0.0000E+00  0.0000E+00  0.7200E+02
  -3.200  0.0000E+00  0.0000E+00  0.7200E+02
  -3.190  0.0000E+00  0.0000E+00  0.7200E+02
  -3.180  0.0000E+00  0.0000E+00  0.7200E+02
  -3.170  0.0000E+00  0.0000E+00  0.7200E+02
  -3.160  0.0000E+00  0.0000E+00  0.7200E+02
  -3.150  0.0000E+00  0.0000E+00  0.7200E+02
  -3.140  0.0000E+00  0.0000E+00  0.7200E+02
  -3.130  0.0000E+00  0.0000E+00  0.7200E+02
  -3.120  0.0000E+00  0.0000E+00  0.7200E+02
  -3.110  0.0000E+00  0.0000E+00  0.7200E+02
  -3.100  0.0000E+00  0.0000E+00  0.7200E+02
  -3.090  0.0000E+00  0.0000E+00  0.7200E+02
  -3.080  0.0000E+00  0.0000E+00  0.7200E+02
  -3.070  0.0000E+00  0.0000E+00  0.7200E+02
  -3.060  0.0000E+00  0.0000E+00  0.7200E+02
  -3.050  0.0000E+00  0.0000E+00  0.7200E+02
  -3.040  0.0000E+00  0.0000E+00  0.7200E+02
  -3.030  0.0000E+00  0.0000E+00  0.7200E+02
  -3.020  0.0000E+00  0.0000E+00  0.7200E+02
  -3.010  0.0000E+00  0.0000E+00  0.7200E+02
  -3.000  0.0000E+00  0.0000E+00  0.7200E+02
  -2.990  0.0000E+00  0.0000E+00  0.7200E+02
  -2.980  0.0000E+00  0.0000E+00  0.7200E+02
  -2.970  0.0000E+00  0.0000E+00  0.7200E+02
  -2.960  0.0000E+00  0.0000E+00  0.7200E+02
  -2.950  0.0000E+00  0.0000E+00  0.7200E+02
  -2.940  0.0000E+00  0.0000E+00  0.7200E+02
  -2.930  0.0000E+00  0.0000E+00  0.7200E+02
  -2.920  0.0000E+00  0.0000E+00  0.7200E+02
  -2.910  0.0000E+00  0.0000E+00  0.7200E+02
  -2.900  0.0000E+00  0.0000E+00  0.7200E+02
  -2.890  0.0000E+00  0.0000E+00  0.7200E+02
  -2.880  0.0000E+00  0.0000E+00  0.7200E+02
  -2.870  0.0000E+00  0.0000E+00  0.7200E+02
  -2.860  0.0000E+00  0.0000E+00  0.7200E+02
  -2.850  0.0000E+00  0.0000E+00  0.7200E+02
  -2.840  0.0000E+00  0.0000E+00  0.7200E+02
  -2.830  0.0000E+00  0.0000E+00  0.7200E+02
  -2.820  0.0000E+00  0.0000E+00  0.7200E+02
  -2.810  0.0000E+00  0.0000E+00  0.7200E+02
  -2.800  0.0000E+00  0.0000E+00  0.7200E+02
  -2.790  0.0000E+00  0.0000E+00  0.7200E+02
  -2.780  0.0000E+00  0.0000E+00  0.7200E+02
  -2.770  0.0000E+00  0.0000E+00  0.7200E+02
  -2.760  0.0000E+00  0.0000E+00  0.7200E+02
  -2.750  0.0000E+00  0.0000E+00  0.7200E+02
  -2.740  0.0000E+00  0.0000E+00  0.7200E+02
  -2.730  0.0000E+00  0.0000E+00  0.7200E+02
  -2.720  0.0000E+00  0.0000E+00  0.7200E+02
  -2.710  0.0000E+00  0.0000E+00  0.7200E+02
  -2.700  0.0000E+00  0.0000E+00  0.7200E+02
  -2.690  0.0000E+00  0.0000E+00  0.7200E+02
  -2.680  0.0000E+00  0.0000E+00  0.7200E+02
  -2.670  0.0000E+00  0.0000E+00  0.7200E+02
  -2.660  0.0000E+00  0.0000E+00  0.7200E+02
  -2.650  0.0000E+00  0.0000E+00  0.7200E+02
  -2.640  0.0000E+00  0.0000E+00  0.7200E+02
  -2.630  0.0000E+00  0.0000E+00  0.7200E+02
  -2.620  0.0000E+00  0.0000E+00  0.7200E+02
  -2.610  0.0000E+00  0.0000E+00  0.7200E+02
  -2.600  0.0000E+00  0.0000E+00  0.7200E+02
  -2.590  0.0000E+00  0.0000E+00  0.7200E+02
  -2.580  0.0000E+00  0.0000E+00  0.7200E+02
  -2.570  0.0000E+00  0.0000E+00  0.7200E+02
  -2.560  0.0000E+00  0.0000E+00  0.7200E+02
  -2.550  0.0000E+00  0.0000E+00  0.7200E+02
  -2.540  0.0000E+00  0.0000E+00  0.7200E+02
  -2.530  0.0000E+00  0.0000E+00  0.7200E+02
  -2.520  0.0000E+00  0.0000E+00  0.7200E+02
  -2.510  0.0000E+00  0.0000E+00  0.7200E+02
  -2.500  0.0000E+00  0.0000E+00  0.7200E+02
  -2.490  0.0000E+00  0.0000E+00  0.7200E+02
  -2.480  0.0000E+00  0.0000E+00  0.7200E+02
  -2.470  0.0000E+00  0.0000E+00  0.7200E+02
  -2.460  0.0000E+00  0.0000E+00  0.7200E+02
  -2.450  0.0000E+00  0.0000E+00  0.7200E+02
  -2.440  0.0000E+00  0.0000E+00  0.7200E+02
  -2.430  0.0000E+00  0.0000E+00  0.7200E+02
  -2.420  0.0000E+00  0.0000E+00  0.7200E+02
  -2.410  0.0000E+00  0.0000E+00  0.7200E+02
  -2.400  0.0000E+00  0.0000E+00  0.7200E+02
  -2.390  0.0000E+00  0.0000E+00  0.7200E+02
  -2.380  0.0000E+00  0.0000E+00  0.7200E+02
  -2.370  0.0000E+00  0.0000E+00  0.7200E+02
  -2.360  0.0000E+00  0.0000E+00  0.7200E+02
  -2.350  0.0000E+00  0.0000E+00  0.7200E+02
  -2.340  0.0000E+00  0.0000E+00  0.7200E+02
  -2.330  0.0000E+00  0.0000E+00  0.7200E+02
  -2.320  0.0000E+00  0.0000E+00  0.7200E+02
  -2.310  0.0000E+00  0.0000E+00  0.7200E+02
  -2.300  0.0000E+00  0.0000E+00  0.7200E+02
  -2.290  0.0000E+00  0.0000E+00  0.7200E+02
  -2.280  0.0000E+00  0.0000E+00  0.7200E+02
  -2.270  0.0000E+00  0.0000E+00  0.7200E+02
  -2.260  0.0000E+00  0.0000E+00  0.7200E+02
  -2.250  0.0000E+00  0.0000E+00  0.7200E+02
  -2.240  0.0000E+00  0.0000E+00  0.7200E+02
  -2.230  0.0000E+00  0.0000E+00  0.7200E+02
  -2.220  0.0000E+00  0.0000E+00  0.7200E+02
  -2.210  0.0000E+00  0.0000E+00  0.7200E+02
  -2.200  0.0000E+00  0.0000E+00  0.7200E+02
  -2.190  0.0000E+00  0.0000E+00  0.7200E+02
  -2.180  0.0000E+00  0.0000E+00  0.7200E+02
  -2.170  0.0000E+00  0.0000E+00  0.7200E+02
  -2.160  0.0000E+00  0.0000E+00  0.7200E+02
  -2.150  0.0000E+00  0.0000E+00  0.7200E+02
  -2.140  0.0000E+00  0.0000E+00  0.7200E+02
  -2.130  0.0000E+00  0.0000E+00  0.7200E+02
  -2.120  0.0000E+00  0.0000E+00  0.7200E+02
  -2.110  0.0000E+00  0.0000E+00  0.7200E+02
  -2.100  0.0000E+00  0.0000E+00  0.7200E+02
  -2.090  0.0000E+00  0.0000E+00  0.7200E+02
  -2.080  0.0000E+00  0.0000E+00  0.7200E+02
  -2.070  0.0000E+00  0.0000E+00  0.7200E+02
  -2.060  0.0000E+00  0.0000E+00  0.7200E+02
  -2.050  0.0000E+00  0.0000E+00  0.7200E+02
  -2.040  0.0000E+00  0.0000E+00  0.7200E+02
  -2.030  0.0000E+00  0.0000E+00  0.7200E+02
  -2.020  0.0000E+00  0.0000E+00  0.7200E+02
  -2.010  0.0000E+00  0.0000E+00  0.7200E+02
  -2.000  0.0000E+00  0.0000E+00  0.7200E+02
  -1.990  0.0000E+00  0.0000E+00  0.7200E+02
  -1.980  0.0000E+00  0.0000E+00  0.7200E+02
  -1.970  0.0000E+00  0.0000E+00  0.7200E+02
  -1.960  0.0000E+00  0.0000E+00  0.7200E+02
  -1.950  0.0000E+00  0.0000E+00  0.7200E+02
  -1.940  0.0000E+00  0.0000E+00  0.7200E+02
  -1.930  0.0000E+00  0.0000E+00  0.7200E+02
  -1.920  0.0000E+00  0.0000E+00  0.7200E+02
  -1.910  0.0000E+00  0.0000E+00  0.7200E+02
  -1.900  0.0000E+00  0.0000E+00  0.7200E+02
  -1.890  0.0000E+00  0.0000E+00  0.7200E+02
  -1.880  0.0000E+00  0.0000E+00  0.7200E+02
  -1.870  0.0000E+00  0.0000E+00  0.7200E+02
  -1.860  0.0000E+00  0.0000E+00  0.7200E+02
  -1.850  0.0000E+00  0.0000E+00  0.7200E+02
  -1.840  0.0000E+00  0.0000E+00  0.7200E+02
  -1.830  0.0000E+00  0.0000E+00  0.7200E+02
  -1.820  0.0000E+00  0.0000E+00  0.7200E+02
  -1.810  0.0000E+00  0.0000E+00  0.7200E+02
  -1.800  0.0000E+00  0.0000E+00  0.7200E+02
  -1.790  0.0000E+00  0.0000E+00  0.7200E+02
  -1.780  0.0000E+00  0.0000E+00  0.7200E+02
  -1.770  0.0000E+00  0.0000E+00  0.7200E+02
  -1.760  0.0000E+00  0.0000E+00  0.7200E+02
  -1.750  0.0000E+00  0.0000E+00  0.7200E+02
  -1.740  0.0000E+00  0.0000E+00  0.7200E+02
  -1.730  0.0000E+00  0.0000E+00  0.7200E+02
  -1.720  0.0000E+00  0.0000E+00  0.7200E+02
  -1.710  0.0000E+00  0.0000E+00  0.7200E+02
  -1.700  0.0000E+00  0.0000E+00  0.7200E+02
  -1.690  0.0000E+00  0.0000E+00  0.7200E+02
  -1.680  0.0000E+00  0.0000E+00  0.7200E+02
  -1.670  0.0000E+00  0.0000E+00  0.7200E+02
  -1.660  0.0000E+00  0.0000E+00  0.7200E+02
  -1.650  0.0000E+00  0.0000E+00  0.7200E+02
  -1.640  0.0000E+00  0.0000E+00  0.7200E+02
  -1.630  0.0000E+00  0.0000E+00  0.7200E+02
  -1.620  0.0000E+00  0.0000E+00  0.7200E+02
  -1.610  0.0000E+00  0.0000E+00  0.7200E+02
  -1.600  0.0000E+00  0.0000E+00  0.7200E+02
  -1.590  0.0000E+00  0.0000E+00  0.7200E+02
  -1.580  0.0000E+00  0.0000E+00  0.7200E+02
  -1.570  0.0000E+00  0.0000E+00  0.7200E+02
  -1.560  0.0000E+00  0.0000E+00  0.7200E+02
  -1.550  0.0000E+00  0.0000E+00  0.7200E+02
  -1.540  0.0000E+00  0.0000E+00  0.7200E+02
  -1.530  0.0000E+00  0.0000E+00  0.7200E+02
  -1.520  0.0000E+00  0.0000E+00  0.7200E+02
  -1.510  0.0000E+00  0.0000E+00  0.7200E+02
  -1.500  0.0000E+00  0.0000E+00  0.7200E+02
  -1.490  0.0000E+00  0.0000E+00  0.7200E+02
  -1.480  0.0000E+00  0.0000E+00  0.7200E+02
  -1.470  0.0000E+00  0.0000E+00  0.7200E+02
  -1.460  0.0000E+00  0.0000E+00  0.7200E+02
  -1.450  0.0000E+00  0.0000E+00  0.7200E+02
  -1.440  0.0000E+00  0.0000E+00  0.7200E+02
  -1.430  0.0000E+00  0.0000E+00  0.7200E+02
  -1.420  0.0000E+00  0.0000E+00  0.7200E+02
  -1.410  0.0000E+00  0.0000E+00  0.7200E+02
  -1.400  0.0000E+00  0.0000E+00  0.7200E+02
  -1.390  0.0000E+00  0.0000E+00  0.7200E+02
  -1.380  0.0000E+00  0.0000E+00  0.7200E+02
  -1.370  0.0000E+00  0.0000E+00  0.7200E+02
  -1.360  0.0000E+00  0.0000E+00  0.7200E+02
  -1.350  0.0000E+00  0.0000E+00  0.7200E+02
  -1.340  0.0000E+00  0.0000E+00  0.7200E+02
  -1.330  0.0000E+00  0.0000E+00  0.7200E+02
  -1.320  0.0000E+00  0.0000E+00  0.7200E+02
  -1.310  0.0000E+00  0.0000E+00  0.7200E+02
  -1.300  0.0000E+00  0.0000E+00  0.7200E+02
  -1.290  0.0000E+00  0.0000E+00  0.7200E+02
  -1.280  0.0000E+00  0.0000E+00  0.7200E+02
  -1.270  0.0000E+00  0.0000E+00  0.7200E+02
  -1.260  0.0000E+00  0.0000E+00  0.7200E+02
  -1.250  0.0000E+00  0.0000E+00  0.7200E+02
  -1.240  0.0000E+00  0.0000E+00  0.7200E+02
  -1.230  0.0000E+00  0.0000E+00  0.7200E+02
  -1.220  0.0000E+00  0.0000E+00  0.7200E+02
  -1.210  0.0000E+00  0.0000E+00  0.7200E+02
  -1.200  0.0000E+00  0.0000E+00  0.7200E+02
  -1.190  0.0000E+00  0.0000E+00  0.7200E+02
  -1.180  0.0000E+00  0.0000E+00  0.7200E+02
  -1.170  0.0000E+00  0.0000E+00  0.7200E+02
  -1.160  0.0000E+00  0.0000E+00  0.7200E+02
  -1.150  0.0000E+00  0.0000E+00  0.7200E+02
  -1.140  0.0000E+00  0.0000E+00  0.7200E+02
  -1.130  0.0000E+00  0.0000E+00  0.7200E+02
  -1.120  0.0000E+00  0.0000E+00  0.7200E+02
  -1.110  0.0000E+00  0.0000E+00  0.7200E+02
  -1.100  0.0000E+00  0.0000E+00  0.7200E+02
  -1.090  0.0000E+00  0.0000E+00  0.7200E+02
  -1.080  0.0000E+00  0.0000E+00  0.7200E+02
  -1.070  0.0000E+00  0.0000E+00  0.7200E+02
  -1.060  0.0000E+00  0.0000E+00  0.7200E+02
  -1.050  0.0000E+00  0.0000E+00  0.7200E+02
  -1.040  0.0000E+00  0.0000E+00  0.7200E+02
  -1.030  0.0000E+00  0.0000E+00  0.7200E+02
  -1.020  0.0000E+00  0.0000E+00  0.7200E+02
  -1.010  0.0000E+00  0.0000E+00  0.7200E+02
  -1.000  0.0000E+00  0.0000E+00  0.7200E+02
  -0.990  0.0000E+00  0.0000E+00  0.7200E+02
  -0.980  0.0000E+00  0.0000E+00  0.7200E+02
  -0.970  0.0000E+00  0.0000E+00  0.7200E+02
  -0.960  0.0000E+00  0.0000E+00  0.7200E+02
  -0.950  0.0000E+00  0.0000E+00  0.7200E+02
  -0.940  0.0000E+00  0.0000E+00  0.7200E+02
  -0.930  0.0000E+00  0.0000E+00  0.7200E+02
  -0.920  0.0000E+00  0.0000E+00  0.7200E+02
  -0.910  0.0000E+00  0.0000E+00  0.7200E+02
  -0.900  0.0000E+00  0.0000E+00  0.7200E+02
  -0.890  0.0000E+00  0.0000E+00  0.7200E+02
  -0.880  0.0000E+00  0.0000E+00  0.7200E+02
  -0.870  0.0000E+00  0.0000E+00  0.7200E+02
  -0.860  0.0000E+00  0.0000E+00  0.7200E+02
  -0.850  0.0000E+00  0.0000E+00  0.7200E+02
  -0.840  0.0000E+00  0.0000E+00  0.7200E+02
  -0.830  0.0000E+00  0.0000E+00  0.7200E+02
  -0.820  0.0000E+00  0.0000E+00  0.7200E+02
  -0.810  0.0000E+00  0.0000E+00  0.7200E+02
  -0.800  0.0000E+00  0.0000E+00  0.7200E+02
  -0.790  0.0000E+00  0.0000E+00  0.7200E+02
  -0.780  0.0000E+00  0.0000E+00  0.7200E+02
  -0.770  0.0000E+00  0.0000E+00  0.7200E+02
  -0.760  0.0000E+00  0.0000E+00  0.7200E+02
  -0.750  0.0000E+00  0.0000E+00  0.7200E+02
  -0.740  0.1847E+02  0.1801E+02  0.7210E+02
  -0.730  0.8012E+02  0.8000E+02  0.7312E+02
  -0.720  0.1040E+03  0.1041E+03  0.7507E+02
  -0.710  0.1403E+03  0.1409E+03  0.7742E+02
  -0.700  0.1243E+03  0.1234E+03  0.7995E+02
  -0.690  0.7452E+02  0.7340E+02  0.8179E+02
  -0.680  0.8638E+02  0.8587E+02  0.8345E+02
  -0.670  0.1682E+03  0.1680E+03  0.8627E+02
  -0.660  0.1648E+03  0.1626E+03  0.8957E+02
  -0.650  0.1794E+03  0.1783E+03  0.9329E+02
  -0.640  0.3282E+03  0.3771E+03  0.9772E+02
  -0.630  0.3455E+03  0.3418E+03  0.1030E+03
  -0.620  0.2539E+03  0.2532E+03  0.1087E+03
  -0.610  0.2755E+03  0.2726E+03  0.1144E+03
  -0.600  0.3435E+03  0.3427E+03  0.1212E+03
  -0.590  0.2668E+03  0.2608E+03  0.1264E+03
  -0.580  0.2938E+03  0.2901E+03  0.1322E+03
  -0.570  0.4356E+03  0.4286E+03  0.1392E+03
  -0.560  0.3874E+03  0.3751E+03  0.1469E+03
  -0.550  0.2161E+03  0.2286E+03  0.1529E+03
  -0.540  0.3026E+03  0.2685E+03  0.1568E+03
  -0.530  0.8058E+02  0.8524E+02  0.1599E+03
  -0.520  0.1802E+03  0.1740E+03  0.1645E+03
  -0.510  0.1882E+03  0.1899E+03  0.1683E+03
  -0.500  0.1345E+03  0.1331E+03  0.1716E+03
  -0.490  0.2295E+03  0.2350E+03  0.1750E+03
  -0.480  0.1402E+03  0.1427E+03  0.1787E+03
  -0.470  0.3356E+03  0.2947E+03  0.1823E+03
  -0.460  0.1735E+03  0.1761E+03  0.1855E+03
  -0.450  0.1601E+03  0.1619E+03  0.1900E+03
  -0.440  0.2631E+03  0.2856E+03  0.1935E+03
  -0.430  0.1353E+03  0.1435E+03  0.1977E+03
  -0.420  0.1523E+03  0.1485E+03  0.2001E+03
  -0.410  0.1058E+03  0.1149E+03  0.2040E+03
  -0.400  0.1429E+03  0.2289E+03  0.2067E+03
  -0.390  0.2480E+03  0.2152E+03  0.2108E+03
  -0.380  0.1100E+03  0.7891E+02  0.2142E+03
  -0.370  0.6148E+02  0.5748E+02  0.2161E+03
  -0.360  0.1456E+03  0.2810E+03  0.2186E+03
  -0.350  0.1264E+03  0.1175E+03  0.2218E+03
  -0.340  0.1302E+03  0.1259E+03  0.2243E+03
  -0.330  0.1311E+03  0.1360E+03  0.2269E+03
  -0.320  0.1444E+03  0.1397E+03  0.2296E+03
  -0.310  0.1723E+03  0.1697E+03  0.2327E+03
  -0.300  0.2004E+03  0.1799E+03  0.2363E+03
  -0.290  0.1668E+03  0.1818E+03  0.2406E+03
  -0.280  0.1583E+03  0.1963E+03  0.2443E+03
  -0.270  0.2438E+03  0.2337E+03  0.2491E+03
  -0.260  0.1836E+03  0.1840E+03  0.2542E+03
  -0.250  0.1303E+03  0.9217E+02  0.2568E+03
  -0.240  0.3375E+03  0.3600E+03  0.2604E+03
  -0.230  0.3259E+03  0.3152E+03  0.2693E+03
  -0.220  0.3456E+03  0.3587E+03  0.2763E+03
  -0.210  0.3984E+03  0.4099E+03  0.2839E+03
  -0.200  0.3649E+03  0.3953E+03  0.2924E+03
  -0.190  0.1391E+03  0.1515E+03  0.2984E+03
  -0.180  0.1238E+03  0.1369E+03  0.3011E+03
  -0.170  0.1191E+03  0.1239E+03  0.3035E+03
  -0.160  0.2055E+03  0.1718E+03  0.3059E+03
  -0.150  0.1997E+02  0.1511E+02  0.3100E+03
  -0.140  0.2147E+03  0.2285E+03  0.3129E+03
  -0.130  0.1146E+03  0.1268E+03  0.3160E+03
  -0.120  0.2202E+03  0.2055E+03  0.3198E+03
  -0.110  0.2614E+03  0.2884E+03  0.3251E+03
  -0.100  0.4397E+03  0.4934E+03  0.3312E+03
  -0.090  0.2858E+03  0.2447E+03  0.3368E+03
  -0.080  0.2920E+03  0.3088E+03  0.3426E+03
  -0.070  0.1398E+03  0.3631E+03  0.3489E+03
  -0.060  0.1076E+03  0.1045E+03  0.3510E+03
  -0.050  0.1144E+03  0.1142E+03  0.3532E+03
  -0.040  0.8912E+02  0.9240E+02  0.3553E+03
  -0.030  0.7557E+02  0.7569E+02  0.3568E+03
  -0.020  0.6963E+02  0.7081E+02  0.3583E+03
  -0.010  0.6907E+02  0.6679E+02  0.3596E+03
   0.000  0.7726E+02  0.7745E+02  0.3611E+03
   0.010  0.6274E+02  0.6556E+02  0.3625E+03
   0.020  0.5517E+02  0.5699E+02  0.3637E+03
   0.030  0.5721E+02  0.5652E+02  0.3648E+03
   0.040  0.1426E+03  0.1448E+03  0.3667E+03
   0.050  0.8194E+02  0.8753E+02  0.3689E+03
   0.060  0.4444E+02  0.5097E+02  0.3704E+03
   0.070  0.4836E+02  0.4617E+02  0.3712E+03
   0.080  0.6084E+02  0.5787E+02  0.3723E+03
   0.090  0.3956E+02  0.4254E+02  0.3733E+03
   0.100  0.4946E+02  0.4502E+02  0.3742E+03
   0.110  0.7513E+02  0.7221E+02  0.3755E+03
   0.120  0.1060E+03  0.1104E+03  0.3775E+03
   0.130  0.6725E+02  0.7194E+02  0.3792E+03
   0.140  0.3964E+02  0.4375E+02  0.3804E+03
   0.150  0.2356E+02  0.2605E+02  0.3810E+03
   0.160  0.1479E+02  0.1592E+02  0.3814E+03
   0.170  0.1718E+02  0.1513E+02  0.3817E+03
   0.180  0.5179E+01  0.5516E+01  0.3819E+03
   0.190  0.1933E+01  0.2122E+01  0.3820E+03
   0.200  0.2633E+00  0.3270E+00  0.3820E+03
   0.210  0.0000E+00  0.8559E-05  0.3820E+03
   0.220  0.0000E+00  0.0000E+00  0.3820E+03
   0.230  0.0000E+00  0.0000E+00  0.3820E+03
   0.240  0.0000E+00  0.0000E+00  0.3820E+03
   0.250  0.0000E+00  0.0000E+00  0.3820E+03
   0.260  0.0000E+00  0.0000E+00  0.3820E+03
   0.270  0.0000E+00  0.0000E+00  0.3820E+03
   0.280  0.0000E+00  0.0000E+00  0.3820E+03
   0.290  0.0000E+00  0.0000E+00  0.3820E+03
   0.300  0.0000E+00  0.0000E+00  0.3820E+03
   0.310  0.0000E+00  0.0000E+00  0.3820E+03
   0.320  0.0000E+00  0.0000E+00  0.3820E+03
   0.330  0.0000E+00  0.0000E+00  0.3820E+03
   0.340  0.0000E+00  0.0000E+00  0.3820E+03
   0.350  0.1751E-03  0.1460E-04  0.3820E+03
   0.360  0.3731E-02  0.1590E-02  0.3820E+03
   0.370  0.1688E-01  0.1005E-01  0.3820E+03
   0.380  0.4177E-01  0.3005E-01  0.3820E+03
   0.390  0.7883E-01  0.6176E-01  0.3820E+03
   0.400  0.1288E+00  0.1058E+00  0.3820E+03
   0.410  0.1919E+00  0.1628E+00  0.3820E+03
   0.420  0.2680E+00  0.2328E+00  0.3820E+03
   0.430  0.3571E+00  0.3159E+00  0.3820E+03
   0.440  0.4593E+00  0.4120E+00  0.3820E+03
   0.450  0.5745E+00  0.5212E+00  0.3820E+03
   0.460  0.7027E+00  0.6434E+00  0.3820E+03
   0.470  0.8439E+00  0.7786E+00  0.3821E+03
   0.480  0.1029E+01  0.9326E+00  0.3821E+03
   0.490  0.1499E+01  0.1246E+01  0.3821E+03
   0.500  0.2323E+01  0.1916E+01  0.3821E+03
   0.510  0.3197E+01  0.2825E+01  0.3822E+03
   0.520  0.3834E+01  0.3581E+01  0.3823E+03
   0.530  0.4241E+01  0.4101E+01  0.3823E+03
   0.540  0.4425E+01  0.4392E+01  0.3824E+03
   0.550  0.4385E+01  0.4456E+01  0.3825E+03
   0.560  0.4125E+01  0.4295E+01  0.3826E+03
   0.570  0.3853E+01  0.3960E+01  0.3827E+03
   0.580  0.3992E+01  0.3925E+01  0.3828E+03
   0.590  0.4261E+01  0.4177E+01  0.3828E+03
   0.600  0.4546E+01  0.4463E+01  0.3829E+03
   0.610  0.4844E+01  0.4759E+01  0.3830E+03
   0.620  0.5158E+01  0.5072E+01  0.3831E+03
   0.630  0.5489E+01  0.5401E+01  0.3832E+03
   0.640  0.5837E+01  0.5747E+01  0.3833E+03
   0.650  0.6202E+01  0.6111E+01  0.3835E+03
   0.660  0.6579E+01  0.6491E+01  0.3836E+03
   0.670  0.6928E+01  0.6867E+01  0.3837E+03
   0.680  0.7428E+01  0.7173E+01  0.3839E+03
   0.690  0.9701E+01  0.8966E+01  0.3840E+03
   0.700  0.1071E+02  0.1059E+02  0.3842E+03
   0.710  0.1143E+02  0.1129E+02  0.3844E+03
   0.720  0.1221E+02  0.1201E+02  0.3847E+03
   0.730  0.1291E+02  0.1271E+02  0.3849E+03
   0.740  0.1342E+02  0.1352E+02  0.3852E+03
   0.750  0.1269E+02  0.1349E+02  0.3855E+03
   0.760  0.1145E+02  0.1176E+02  0.3857E+03
   0.770  0.1059E+02  0.1051E+02  0.3859E+03
   0.780  0.1110E+02  0.1067E+02  0.3861E+03
   0.790  0.1173E+02  0.1136E+02  0.3864E+03
   0.800  0.1200E+02  0.1179E+02  0.3866E+03
   0.810  0.1230E+02  0.1211E+02  0.3868E+03
   0.820  0.1255E+02  0.1241E+02  0.3871E+03
   0.830  0.1276E+02  0.1267E+02  0.3873E+03
   0.840  0.1293E+02  0.1288E+02  0.3876E+03
   0.850  0.1307E+02  0.1305E+02  0.3879E+03
   0.860  0.1320E+02  0.1319E+02  0.3881E+03
   0.870  0.1332E+02  0.1333E+02  0.3884E+03
   0.880  0.1374E+02  0.1375E+02  0.3886E+03
   0.890  0.1417E+02  0.1422E+02  0.3889E+03
   0.900  0.1429E+02  0.1436E+02  0.3892E+03
   0.910  0.1557E+02  0.1458E+02  0.3895E+03
   0.920  0.1810E+02  0.1723E+02  0.3898E+03
   0.930  0.1997E+02  0.1967E+02  0.3902E+03
   0.940  0.2068E+02  0.2076E+02  0.3906E+03
   0.950  0.1967E+02  0.1978E+02  0.3910E+03
   0.960  0.2018E+02  0.1966E+02  0.3914E+03
   0.970  0.2346E+02  0.2219E+02  0.3918E+03
   0.980  0.2864E+02  0.2709E+02  0.3923E+03
   0.990  0.3616E+02  0.3522E+02  0.3930E+03
   1.000  0.3712E+02  0.3722E+02  0.3937E+03
   1.010  0.4972E+02  0.4920E+02  0.3946E+03
   1.020  0.5793E+02  0.5262E+02  0.3957E+03
   1.030  0.5571E+02  0.5607E+02  0.3968E+03
   1.040  0.5138E+02  0.5027E+02  0.3979E+03
   1.050  0.4741E+02  0.4622E+02  0.3989E+03
   1.060  0.5325E+02  0.5249E+02  0.3999E+03
   1.070  0.5375E+02  0.5179E+02  0.4009E+03
   1.080  0.6268E+02  0.5940E+02  0.4021E+03
   1.090  0.3260E+02  0.3662E+02  0.4030E+03
   1.100  0.2018E+02  0.2331E+02  0.4036E+03
   1.110  0.1559E+02  0.1582E+02  0.4040E+03
   1.120  0.2766E+02  0.1385E+02  0.4043E+03
   1.130  0.3732E+02  0.3809E+02  0.4049E+03
   1.140  0.1835E+02  0.3048E+02  0.4056E+03
   1.150  0.1336E+02  0.1475E+02  0.4059E+03
   1.160  0.1818E+02  0.1814E+02  0.4062E+03
   1.170  0.2159E+02  0.2095E+02  0.4066E+03
   1.180  0.2132E+02  0.2096E+02  0.4070E+03
   1.190  0.2222E+02  0.2148E+02  0.4075E+03
   1.200  0.2243E+02  0.2207E+02  0.4079E+03
   1.210  0.2273E+02  0.2242E+02  0.4084E+03
   1.220  0.2323E+02  0.2288E+02  0.4088E+03
   1.230  0.2336E+02  0.2302E+02  0.4093E+03
   1.240  0.2413E+02  0.2301E+02  0.4097E+03
   1.250  0.2571E+02  0.2443E+02  0.4102E+03
   1.260  0.2680E+02  0.2582E+02  0.4107E+03
   1.270  0.2721E+02  0.2653E+02  0.4113E+03
   1.280  0.2682E+02  0.2668E+02  0.4118E+03
   1.290  0.2602E+02  0.2612E+02  0.4123E+03
   1.300  0.2489E+02  0.2519E+02  0.4128E+03
   1.310  0.2332E+02  0.2392E+02  0.4133E+03
   1.320  0.2136E+02  0.2232E+02  0.4138E+03
   1.330  0.1907E+02  0.2036E+02  0.4142E+03
   1.340  0.1731E+02  0.1802E+02  0.4146E+03
   1.350  0.1619E+02  0.1646E+02  0.4149E+03
   1.360  0.1541E+02  0.1539E+02  0.4152E+03
   1.370  0.1500E+02  0.1467E+02  0.4155E+03
   1.380  0.1486E+02  0.1430E+02  0.4158E+03
   1.390  0.1493E+02  0.1419E+02  0.4161E+03
   1.400  0.1526E+02  0.1423E+02  0.4164E+03
   1.410  0.1678E+02  0.1458E+02  0.4167E+03
   1.420  0.1876E+02  0.1597E+02  0.4170E+03
   1.430  0.2101E+02  0.1770E+02  0.4174E+03
   1.440  0.1697E+02  0.1976E+02  0.4178E+03
   1.450  0.1566E+02  0.1918E+02  0.4182E+03
   1.460  0.1505E+02  0.1631E+02  0.4185E+03
   1.470  0.1446E+02  0.1539E+02  0.4188E+03
   1.480  0.1389E+02  0.1472E+02  0.4191E+03
   1.490  0.1335E+02  0.1408E+02  0.4194E+03
   1.500  0.1285E+02  0.1347E+02  0.4196E+03
   1.510  0.1275E+02  0.1289E+02  0.4199E+03
   1.520  0.1294E+02  0.1238E+02  0.4201E+03
   1.530  0.1325E+02  0.1234E+02  0.4204E+03
   1.540  0.1354E+02  0.1244E+02  0.4207E+03
   1.550  0.1328E+02  0.1251E+02  0.4209E+03
   1.560  0.1287E+02  0.1306E+02  0.4212E+03
   1.570  0.1230E+02  0.1277E+02  0.4214E+03
   1.580  0.1175E+02  0.1225E+02  0.4217E+03
   1.590  0.1145E+02  0.1183E+02  0.4219E+03
   1.600  0.1113E+02  0.1157E+02  0.4221E+03
   1.610  0.1080E+02  0.1126E+02  0.4224E+03
   1.620  0.1044E+02  0.1090E+02  0.4226E+03
   1.630  0.1009E+02  0.1050E+02  0.4228E+03
   1.640  0.1001E+02  0.1016E+02  0.4230E+03
   1.650  0.9982E+01  0.9917E+01  0.4232E+03
   1.660  0.1021E+02  0.9729E+01  0.4234E+03
   1.670  0.1027E+02  0.9778E+01  0.4236E+03
   1.680  0.9924E+01  0.9569E+01  0.4238E+03
   1.690  0.9557E+01  0.9062E+01  0.4240E+03
   1.700  0.9262E+01  0.8705E+01  0.4242E+03
   1.710  0.8729E+01  0.8536E+01  0.4243E+03
   1.720  0.7825E+01  0.8241E+01  0.4245E+03
   1.730  0.6895E+01  0.7685E+01  0.4247E+03
   1.740  0.7513E+01  0.7161E+01  0.4248E+03
   1.750  0.9392E+01  0.7610E+01  0.4250E+03
   1.760  0.1255E+02  0.8589E+01  0.4252E+03
   1.770  0.1155E+02  0.1369E+02  0.4254E+03
   1.780  0.8445E+01  0.1084E+02  0.4256E+03
   1.790  0.7010E+01  0.1045E+02  0.4258E+03
   1.800  0.7099E+01  0.8316E+01  0.4259E+03
   1.810  0.7485E+01  0.7138E+01  0.4261E+03
   1.820  0.7980E+01  0.7198E+01  0.4262E+03
   1.830  0.8430E+01  0.7599E+01  0.4264E+03
   1.840  0.8786E+01  0.8059E+01  0.4266E+03
   1.850  0.9096E+01  0.8446E+01  0.4267E+03
   1.860  0.9331E+01  0.8710E+01  0.4269E+03
   1.870  0.9080E+01  0.8937E+01  0.4271E+03
   1.880  0.8937E+01  0.9110E+01  0.4273E+03
   1.890  0.8981E+01  0.9231E+01  0.4275E+03
   1.900  0.8982E+01  0.9299E+01  0.4276E+03
   1.910  0.8933E+01  0.9313E+01  0.4278E+03
   1.920  0.8836E+01  0.9275E+01  0.4280E+03
   1.930  0.8684E+01  0.9178E+01  0.4282E+03
   1.940  0.8487E+01  0.8719E+01  0.4284E+03
   1.950  0.8259E+01  0.8413E+01  0.4285E+03
   1.960  0.8056E+01  0.8185E+01  0.4287E+03
   1.970  0.7891E+01  0.8001E+01  0.4289E+03
   1.980  0.7725E+01  0.7819E+01  0.4290E+03
   1.990  0.7553E+01  0.7636E+01  0.4292E+03
   2.000  0.7542E+01  0.7452E+01  0.4293E+03
   2.010  0.9075E+01  0.7294E+01  0.4295E+03
   2.020  0.1013E+02  0.7123E+01  0.4296E+03
   2.030  0.9503E+01  0.7164E+01  0.4298E+03
   2.040  0.7727E+01  0.1387E+02  0.4300E+03
   2.050  0.6406E+01  0.8637E+01  0.4302E+03
   2.060  0.5665E+01  0.7462E+01  0.4303E+03
   2.070  0.5187E+01  0.6267E+01  0.4304E+03
   2.080  0.5006E+01  0.5207E+01  0.4305E+03
   2.090  0.4971E+01  0.4771E+01  0.4306E+03
   2.100  0.4984E+01  0.4731E+01  0.4307E+03
   2.110  0.5056E+01  0.4744E+01  0.4308E+03
   2.120  0.5217E+01  0.4764E+01  0.4309E+03
   2.130  0.5633E+01  0.4788E+01  0.4310E+03
   2.140  0.7391E+01  0.4829E+01  0.4311E+03
   2.150  0.8785E+01  0.4913E+01  0.4313E+03
   2.160  0.9525E+01  0.5044E+01  0.4314E+03
   2.170  0.1015E+02  0.5303E+01  0.4316E+03
   2.180  0.1073E+02  0.5818E+01  0.4317E+03
   2.190  0.1066E+02  0.6984E+01  0.4319E+03
   2.200  0.1035E+02  0.8670E+01  0.4321E+03
   2.210  0.9570E+01  0.1545E+02  0.4323E+03
   2.220  0.8445E+01  0.1631E+02  0.4326E+03
   2.230  0.7493E+01  0.1075E+02  0.4328E+03
   2.240  0.6631E+01  0.8758E+01  0.4329E+03
   2.250  0.6040E+01  0.7459E+01  0.4331E+03
   2.260  0.5805E+01  0.6748E+01  0.4332E+03
   2.270  0.5648E+01  0.6443E+01  0.4333E+03
   2.280  0.5526E+01  0.6178E+01  0.4335E+03
   2.290  0.5444E+01  0.5947E+01  0.4336E+03
   2.300  0.5409E+01  0.5749E+01  0.4337E+03
   2.310  0.5430E+01  0.5583E+01  0.4338E+03
   2.320  0.5485E+01  0.5444E+01  0.4339E+03
   2.330  0.5505E+01  0.5330E+01  0.4340E+03
   2.340  0.5515E+01  0.5239E+01  0.4341E+03
   2.350  0.5506E+01  0.5189E+01  0.4342E+03
   2.360  0.5480E+01  0.5132E+01  0.4343E+03
   2.370  0.5435E+01  0.5041E+01  0.4344E+03
   2.380  0.5370E+01  0.4904E+01  0.4345E+03
   2.390  0.5281E+01  0.4735E+01  0.4346E+03
   2.400  0.5178E+01  0.4569E+01  0.4347E+03
   2.410  0.5074E+01  0.4432E+01  0.4348E+03
   2.420  0.5164E+01  0.4334E+01  0.4349E+03
   2.430  0.5703E+01  0.4319E+01  0.4350E+03
   2.440  0.6430E+01  0.4440E+01  0.4351E+03
   2.450  0.7031E+01  0.4670E+01  0.4353E+03
   2.460  0.7407E+01  0.5560E+01  0.4354E+03
   2.470  0.7798E+01  0.6989E+01  0.4355E+03
   2.480  0.8099E+01  0.7859E+01  0.4357E+03
   2.490  0.8357E+01  0.8423E+01  0.4358E+03
   2.500  0.8882E+01  0.8953E+01  0.4360E+03
   2.510  0.9701E+01  0.9361E+01  0.4362E+03
   2.520  0.1049E+02  0.9809E+01  0.4364E+03
   2.530  0.1113E+02  0.1023E+02  0.4366E+03
   2.540  0.1168E+02  0.1119E+02  0.4368E+03
   2.550  0.1219E+02  0.1184E+02  0.4370E+03
   2.560  0.1269E+02  0.1254E+02  0.4373E+03
   2.570  0.1310E+02  0.1317E+02  0.4376E+03
   2.580  0.1347E+02  0.1379E+02  0.4378E+03
   2.590  0.1382E+02  0.1440E+02  0.4381E+03
   2.600  0.1415E+02  0.1503E+02  0.4384E+03
   2.610  0.1447E+02  0.1570E+02  0.4387E+03
   2.620  0.1485E+02  0.1629E+02  0.4390E+03
   2.630  0.1530E+02  0.1679E+02  0.4393E+03
   2.640  0.1609E+02  0.1734E+02  0.4396E+03
   2.650  0.1690E+02  0.1805E+02  0.4400E+03
   2.660  0.1762E+02  0.1862E+02  0.4403E+03
   2.670  0.1828E+02  0.1907E+02  0.4407E+03
   2.680  0.1885E+02  0.1942E+02  0.4411E+03
   2.690  0.2011E+02  0.1967E+02  0.4415E+03
   2.700  0.2260E+02  0.2024E+02  0.4419E+03
   2.710  0.2573E+02  0.2180E+02  0.4423E+03
   2.720  0.3434E+02  0.2564E+02  0.4428E+03
   2.730  0.3950E+02  0.3275E+02  0.4435E+03
   2.740  0.4332E+02  0.4250E+02  0.4443E+03
   2.750  0.4335E+02  0.4167E+02  0.4452E+03
   2.760  0.3286E+02  0.3957E+02  0.4460E+03
   2.770  0.1648E+02  0.3167E+02  0.4467E+03
   2.780  0.1709E+02  0.1622E+02  0.4471E+03
   2.790  0.1898E+02  0.1459E+02  0.4474E+03
   2.800  0.1735E+02  0.1494E+02  0.4477E+03
   2.810  0.1795E+02  0.1690E+02  0.4481E+03
   2.820  0.2218E+02  0.2026E+02  0.4485E+03
   2.830  0.2484E+02  0.2534E+02  0.4489E+03
   2.840  0.2692E+02  0.2877E+02  0.4494E+03
   2.850  0.2943E+02  0.2942E+02  0.4500E+03
   2.860  0.2696E+02  0.2450E+02  0.4506E+03
   2.870  0.2032E+02  0.2491E+02  0.4510E+03
   2.880  0.1312E+02  0.1721E+02  0.4514E+03
   2.890  0.1141E+02  0.1353E+02  0.4517E+03
   2.900  0.1184E+02  0.1155E+02  0.4519E+03
   2.910  0.1232E+02  0.1129E+02  0.4522E+03
   2.920  0.1261E+02  0.1089E+02  0.4524E+03
   2.930  0.1344E+02  0.1079E+02  0.4526E+03
   2.940  0.1474E+02  0.1164E+02  0.4529E+03
   2.950  0.1597E+02  0.1362E+02  0.4532E+03
   2.960  0.1726E+02  0.1623E+02  0.4535E+03
   2.970  0.1838E+02  0.1677E+02  0.4538E+03
   2.980  0.2021E+02  0.1782E+02  0.4542E+03
   2.990  0.2113E+02  0.1982E+02  0.4546E+03
   3.000  0.2191E+02  0.2119E+02  0.4550E+03
   3.010  0.2252E+02  0.2179E+02  0.4554E+03
   3.020  0.2316E+02  0.2199E+02  0.4559E+03
   3.030  0.2547E+02  0.2219E+02  0.4563E+03
   3.040  0.2753E+02  0.2241E+02  0.4568E+03
   3.050  0.2767E+02  0.2313E+02  0.4573E+03
   3.060  0.2769E+02  0.2416E+02  0.4578E+03
   3.070  0.2779E+02  0.2548E+02  0.4584E+03
   3.080  0.2902E+02  0.2738E+02  0.4589E+03
   3.090  0.3113E+02  0.2838E+02  0.4595E+03
   3.100  0.3383E+02  0.2807E+02  0.4601E+03
   3.110  0.3519E+02  0.2721E+02  0.4607E+03
   3.120  0.3397E+02  0.2813E+02  0.4614E+03
   3.130  0.3002E+02  0.3040E+02  0.4620E+03
   3.140  0.2560E+02  0.3265E+02  0.4626E+03
   3.150  0.2594E+02  0.3152E+02  0.4631E+03
   3.160  0.2577E+02  0.3156E+02  0.4637E+03
   3.170  0.1972E+02  0.3179E+02  0.4643E+03
   3.180  0.1790E+02  0.2991E+02  0.4648E+03
   3.190  0.1683E+02  0.2345E+02  0.4652E+03
   3.200  0.1576E+02  0.2100E+02  0.4656E+03
   3.210  0.1516E+02  0.1934E+02  0.4660E+03
   3.220  0.1487E+02  0.1733E+02  0.4663E+03
   3.230  0.1407E+02  0.1589E+02  0.4666E+03
   3.240  0.1348E+02  0.1424E+02  0.4669E+03
   3.250  0.1422E+02  0.1330E+02  0.4672E+03
   3.260  0.1571E+02  0.1389E+02  0.4674E+03
   3.270  0.1778E+02  0.1535E+02  0.4678E+03
   3.280  0.2762E+02  0.1745E+02  0.4681E+03
   3.290  0.2584E+02  0.3486E+02  0.4687E+03
   3.300  0.2746E+02  0.2416E+02  0.4692E+03
   3.310  0.2945E+02  0.2551E+02  0.4697E+03
   3.320  0.3085E+02  0.2642E+02  0.4703E+03
   3.330  0.3081E+02  0.2738E+02  0.4708E+03
   3.340  0.2931E+02  0.2787E+02  0.4714E+03
   3.350  0.2927E+02  0.2821E+02  0.4720E+03
   3.360  0.2965E+02  0.2848E+02  0.4726E+03
   3.370  0.2904E+02  0.2863E+02  0.4731E+03
   3.380  0.2857E+02  0.2915E+02  0.4737E+03
   3.390  0.2806E+02  0.2872E+02  0.4743E+03
   3.400  0.2823E+02  0.2851E+02  0.4749E+03
   3.410  0.2894E+02  0.2789E+02  0.4754E+03
   3.420  0.2968E+02  0.2776E+02  0.4760E+03
   3.430  0.2999E+02  0.2808E+02  0.4766E+03
   3.440  0.3116E+02  0.2846E+02  0.4772E+03
   3.450  0.3233E+02  0.2897E+02  0.4778E+03
   3.460  0.3311E+02  0.2944E+02  0.4784E+03
   3.470  0.3377E+02  0.3001E+02  0.4790E+03
   3.480  0.3425E+02  0.3051E+02  0.4797E+03
   3.490  0.3424E+02  0.3114E+02  0.4803E+03
   3.500  0.3291E+02  0.3169E+02  0.4810E+03
   3.510  0.3263E+02  0.3157E+02  0.4816E+03
   3.520  0.3301E+02  0.3110E+02  0.4823E+03
   3.530  0.3324E+02  0.3130E+02  0.4829E+03
   3.540  0.3395E+02  0.3154E+02  0.4835E+03
   3.550  0.3452E+02  0.3193E+02  0.4842E+03
   3.560  0.3345E+02  0.3253E+02  0.4849E+03
   3.570  0.3271E+02  0.3221E+02  0.4855E+03
   3.580  0.3213E+02  0.3170E+02  0.4862E+03
   3.590  0.3095E+02  0.3179E+02  0.4868E+03
   3.600  0.2971E+02  0.3166E+02  0.4874E+03
   3.610  0.3024E+02  0.3133E+02  0.4880E+03
   3.620  0.3029E+02  0.3123E+02  0.4887E+03
   3.630  0.3037E+02  0.2995E+02  0.4893E+03
   3.640  0.3041E+02  0.3022E+02  0.4899E+03
   3.650  0.2907E+02  0.3029E+02  0.4905E+03
   3.660  0.3017E+02  0.3170E+02  0.4911E+03
   3.670  0.3083E+02  0.2727E+02  0.4917E+03
   3.680  0.3225E+02  0.2824E+02  0.4922E+03
   3.690  0.3219E+02  0.2836E+02  0.4929E+03
   3.700  0.3082E+02  0.2940E+02  0.4935E+03
   3.710  0.2892E+02  0.2835E+02  0.4940E+03
   3.720  0.2809E+02  0.2759E+02  0.4946E+03
   3.730  0.2732E+02  0.2673E+02  0.4952E+03
   3.740  0.2630E+02  0.2597E+02  0.4957E+03
   3.750  0.2440E+02  0.2563E+02  0.4962E+03
   3.760  0.2083E+02  0.2546E+02  0.4967E+03
   3.770  0.2292E+02  0.2487E+02  0.4972E+03
   3.780  0.2604E+02  0.2689E+02  0.4977E+03
   3.790  0.3264E+02  0.2778E+02  0.4982E+03
   3.800  0.3839E+02  0.3338E+02  0.4989E+03
   3.810  0.4844E+02  0.4007E+02  0.4997E+03
   3.820  0.3911E+02  0.3719E+02  0.5005E+03
   3.830  0.4176E+02  0.3507E+02  0.5013E+03
   3.840  0.4366E+02  0.3576E+02  0.5021E+03
   3.850  0.3505E+02  0.3810E+02  0.5029E+03
   3.860  0.3112E+02  0.3628E+02  0.5036E+03
   3.870  0.3159E+02  0.3473E+02  0.5042E+03
   3.880  0.2955E+02  0.3336E+02  0.5049E+03
   3.890  0.2950E+02  0.3608E+02  0.5055E+03
   3.900  0.2837E+02  0.3629E+02  0.5062E+03
   3.910  0.2895E+02  0.2908E+02  0.5068E+03
   3.920  0.3019E+02  0.2630E+02  0.5073E+03
   3.930  0.3046E+02  0.2567E+02  0.5079E+03
   3.940  0.2824E+02  0.2596E+02  0.5085E+03
   3.950  0.3109E+02  0.2650E+02  0.5090E+03
   3.960  0.2774E+02  0.2672E+02  0.5096E+03
   3.970  0.2620E+02  0.2621E+02  0.5101E+03
   3.980  0.2664E+02  0.2638E+02  0.5106E+03
   3.990  0.2759E+02  0.2521E+02  0.5112E+03
   4.000  0.2618E+02  0.2342E+02  0.5117E+03
   4.010  0.2562E+02  0.2395E+02  0.5122E+03
   4.020  0.2561E+02  0.2464E+02  0.5127E+03
   4.030  0.2577E+02  0.2532E+02  0.5132E+03
   4.040  0.2601E+02  0.2575E+02  0.5137E+03
   4.050  0.2687E+02  0.2630E+02  0.5142E+03
   4.060  0.2837E+02  0.2712E+02  0.5148E+03
   4.070  0.2965E+02  0.2856E+02  0.5153E+03
   4.080  0.3074E+02  0.3011E+02  0.5159E+03
   4.090  0.3248E+02  0.3498E+02  0.5165E+03
   4.100  0.3281E+02  0.3041E+02  0.5172E+03
   4.110  0.3229E+02  0.2938E+02  0.5178E+03
   4.120  0.3183E+02  0.2935E+02  0.5184E+03
   4.130  0.3235E+02  0.2857E+02  0.5191E+03
   4.140  0.3271E+02  0.2803E+02  0.5197E+03
   4.150  0.3334E+02  0.2778E+02  0.5203E+03
   4.160  0.3459E+02  0.2794E+02  0.5209E+03
   4.170  0.3371E+02  0.2870E+02  0.5215E+03
   4.180  0.3274E+02  0.3048E+02  0.5221E+03
   4.190  0.3135E+02  0.3238E+02  0.5228E+03
   4.200  0.2976E+02  0.3312E+02  0.5234E+03
   4.210  0.2918E+02  0.3235E+02  0.5240E+03
   4.220  0.2886E+02  0.3219E+02  0.5246E+03
   4.230  0.2903E+02  0.3196E+02  0.5253E+03
   4.240  0.2966E+02  0.3072E+02  0.5259E+03
   4.250  0.3070E+02  0.3113E+02  0.5265E+03
   4.260  0.3229E+02  0.3102E+02  0.5271E+03
   4.270  0.3408E+02  0.3056E+02  0.5277E+03
   4.280  0.3555E+02  0.3046E+02  0.5284E+03
   4.290  0.3646E+02  0.3080E+02  0.5291E+03
   4.300  0.3573E+02  0.3312E+02  0.5297E+03
   4.310  0.3782E+02  0.3661E+02  0.5305E+03
   4.320  0.3812E+02  0.3898E+02  0.5312E+03
   4.330  0.3466E+02  0.3993E+02  0.5320E+03
   4.340  0.3317E+02  0.4022E+02  0.5327E+03
   4.350  0.3024E+02  0.4148E+02  0.5335E+03
   4.360  0.2795E+02  0.4323E+02  0.5342E+03
   4.370  0.2657E+02  0.3958E+02  0.5349E+03
   4.380  0.2526E+02  0.3593E+02  0.5355E+03
   4.390  0.2542E+02  0.3304E+02  0.5361E+03
   4.400  0.2771E+02  0.3113E+02  0.5367E+03
   4.410  0.2590E+02  0.2929E+02  0.5373E+03
   4.420  0.2488E+02  0.2685E+02  0.5378E+03
   4.430  0.2361E+02  0.2453E+02  0.5383E+03
   4.440  0.2252E+02  0.2223E+02  0.5388E+03
   4.450  0.2193E+02  0.1957E+02  0.5392E+03
   4.460  0.2275E+02  0.1852E+02  0.5396E+03
   4.470  0.2357E+02  0.1834E+02  0.5400E+03
   4.480  0.2346E+02  0.2044E+02  0.5404E+03
   4.490  0.2293E+02  0.2206E+02  0.5409E+03
   4.500  0.2255E+02  0.2337E+02  0.5414E+03
   4.510  0.2261E+02  0.2293E+02  0.5418E+03
   4.520  0.2320E+02  0.2306E+02  0.5423E+03
   4.530  0.2534E+02  0.2300E+02  0.5427E+03
   4.540  0.2541E+02  0.2360E+02  0.5432E+03
   4.550  0.2725E+02  0.2459E+02  0.5437E+03
   4.560  0.2960E+02  0.2666E+02  0.5443E+03
   4.570  0.3041E+02  0.2632E+02  0.5449E+03
   4.580  0.3116E+02  0.2703E+02  0.5454E+03
   4.590  0.3140E+02  0.2786E+02  0.5460E+03
   4.600  0.3255E+02  0.2845E+02  0.5466E+03
   4.610  0.3329E+02  0.2957E+02  0.5472E+03
   4.620  0.3419E+02  0.3047E+02  0.5479E+03
   4.630  0.3473E+02  0.3065E+02  0.5485E+03
   4.640  0.3507E+02  0.3138E+02  0.5492E+03
   4.650  0.3392E+02  0.3243E+02  0.5499E+03
   4.660  0.3049E+02  0.3110E+02  0.5505E+03
   4.670  0.4686E+02  0.2619E+02  0.5511E+03
   4.680  0.2922E+02  0.3274E+02  0.5518E+03
   4.690  0.2664E+02  0.3301E+02  0.5524E+03
   4.700  0.2746E+02  0.3214E+02  0.5531E+03
   4.710  0.2891E+02  0.2827E+02  0.5536E+03
   4.720  0.2900E+02  0.3168E+02  0.5542E+03
   4.730  0.2792E+02  0.3393E+02  0.5548E+03
   4.740  0.2618E+02  0.3617E+02  0.5555E+03
   4.750  0.2878E+02  0.3012E+02  0.5561E+03
   4.760  0.2823E+02  0.2861E+02  0.5567E+03
   4.770  0.2015E+02  0.3099E+02  0.5572E+03
   4.780  0.2205E+02  0.3901E+02  0.5578E+03
   4.790  0.2228E+02  0.2708E+02  0.5583E+03
   4.800  0.2248E+02  0.2459E+02  0.5588E+03
   4.810  0.2039E+02  0.2379E+02  0.5592E+03
   4.820  0.1898E+02  0.2170E+02  0.5597E+03
   4.830  0.1805E+02  0.2018E+02  0.5601E+03
   4.840  0.1750E+02  0.1914E+02  0.5604E+03
   4.850  0.1709E+02  0.1852E+02  0.5608E+03
   4.860  0.1676E+02  0.1811E+02  0.5611E+03
   4.870  0.1638E+02  0.1778E+02  0.5615E+03
   4.880  0.1607E+02  0.1746E+02  0.5618E+03
   4.890  0.1583E+02  0.1714E+02  0.5622E+03
   4.900  0.1999E+02  0.1681E+02  0.5625E+03
   4.910  0.1471E+02  0.1644E+02  0.5628E+03
   4.920  0.1515E+02  0.1616E+02  0.5631E+03
   4.930  0.1545E+02  0.1715E+02  0.5635E+03
   4.940  0.1584E+02  0.1908E+02  0.5638E+03
   4.950  0.1581E+02  0.1746E+02  0.5641E+03
   4.960  0.1533E+02  0.1722E+02  0.5645E+03
   4.970  0.1512E+02  0.1666E+02  0.5648E+03
   4.980  0.1454E+02  0.1627E+02  0.5651E+03
   4.990  0.1397E+02  0.1618E+02  0.5654E+03
   5.000  0.1391E+02  0.1594E+02  0.5657E+03
   5.010  0.1440E+02  0.1553E+02  0.5660E+03
   5.020  0.1622E+02  0.1492E+02  0.5663E+03
   5.030  0.1877E+02  0.1381E+02  0.5666E+03
   5.040  0.1613E+02  0.1208E+02  0.5669E+03
   5.050  0.1372E+02  0.1268E+02  0.5672E+03
   5.060  0.1246E+02  0.1282E+02  0.5675E+03
   5.070  0.1129E+02  0.1332E+02  0.5677E+03
   5.080  0.1051E+02  0.1456E+02  0.5680E+03
   5.090  0.9956E+01  0.1423E+02  0.5682E+03
   5.100  0.9404E+01  0.1269E+02  0.5685E+03
   5.110  0.8891E+01  0.1130E+02  0.5687E+03
   5.120  0.8372E+01  0.1030E+02  0.5689E+03
   5.130  0.7922E+01  0.9346E+01  0.5690E+03
   5.140  0.7650E+01  0.8337E+01  0.5692E+03
   5.150  0.7639E+01  0.7219E+01  0.5694E+03
   5.160  0.8057E+01  0.6595E+01  0.5695E+03
   5.170  0.5531E+01  0.6451E+01  0.5696E+03
   5.180  0.4511E+01  0.6408E+01  0.5697E+03
   5.190  0.7003E+01  0.6363E+01  0.5699E+03
   5.200  0.1071E+02  0.6320E+01  0.5700E+03
   5.210  0.1262E+02  0.6282E+01  0.5702E+03
   5.220  0.1280E+02  0.7292E+01  0.5704E+03
   5.230  0.1306E+02  0.9329E+01  0.5706E+03
   5.240  0.1352E+02  0.1108E+02  0.5708E+03
   5.250  0.1387E+02  0.1261E+02  0.5711E+03
   5.260  0.1366E+02  0.1422E+02  0.5714E+03
   5.270  0.1277E+02  0.1511E+02  0.5716E+03
   5.280  0.1158E+02  0.1524E+02  0.5719E+03
   5.290  0.1036E+02  0.1334E+02  0.5722E+03
   5.300  0.9316E+01  0.1261E+02  0.5724E+03
   5.310  0.8252E+01  0.1179E+02  0.5726E+03
   5.320  0.7081E+01  0.1065E+02  0.5728E+03
   5.330  0.6081E+01  0.9485E+01  0.5730E+03
   5.340  0.5321E+01  0.8313E+01  0.5731E+03
   5.350  0.4933E+01  0.7186E+01  0.5732E+03
   5.360  0.4900E+01  0.6157E+01  0.5734E+03
   5.370  0.4608E+01  0.5209E+01  0.5735E+03
   5.380  0.4115E+01  0.4635E+01  0.5736E+03
   5.390  0.3416E+01  0.4070E+01  0.5736E+03
   5.400  0.2506E+01  0.3586E+01  0.5737E+03
   5.410  0.1372E+01  0.3221E+01  0.5738E+03
   5.420  0.4121E+00  0.3173E+01  0.5738E+03
   5.430  0.1525E+00  0.3435E+01  0.5738E+03
   5.440  0.2735E-01  0.3480E+01  0.5739E+03
   5.450  0.1750E-02  0.3319E+01  0.5739E+03
   5.460  0.6045E-03  0.2951E+01  0.5739E+03
   5.470  0.5917E-04  0.2374E+01  0.5740E+03
   5.480  0.0000E+00  0.1579E+01  0.5740E+03
   5.490  0.0000E+00  0.6870E+00  0.5740E+03
   5.500  0.0000E+00  0.3078E+00  0.5740E+03
   5.510  0.0000E+00  0.1406E+00  0.5740E+03
   5.520  0.0000E+00  0.3957E-01  0.5740E+03
   5.530  0.0000E+00  0.3243E-02  0.5740E+03
   5.540  0.0000E+00  0.5197E-03  0.5740E+03
   5.550  0.0000E+00  0.6336E-04  0.5740E+03
   5.560  0.0000E+00  0.0000E+00  0.5740E+03
   5.570  0.0000E+00  0.0000E+00  0.5740E+03
   5.580  0.0000E+00  0.0000E+00  0.5740E+03
   5.590  0.0000E+00  0.0000E+00  0.5740E+03
   5.600  0.0000E+00  0.0000E+00  0.5740E+03
   5.610  0.0000E+00  0.0000E+00  0.5740E+03
   5.620  0.0000E+00  0.0000E+00  0.5740E+03
   5.630  0.0000E+00  0.0000E+00  0.5740E+03
   5.640  0.0000E+00  0.0000E+00  0.5740E+03
   5.650  0.0000E+00  0.0000E+00  0.5740E+03
   5.660  0.0000E+00  0.0000E+00  0.5740E+03
   5.670  0.0000E+00  0.0000E+00  0.5740E+03
   5.680  0.0000E+00  0.0000E+00  0.5740E+03
   5.690  0.0000E+00  0.0000E+00  0.5740E+03
   5.700  0.0000E+00  0.0000E+00  0.5740E+03
   5.710  0.0000E+00  0.0000E+00  0.5740E+03
   5.720  0.0000E+00  0.0000E+00  0.5740E+03
   5.730  0.0000E+00  0.0000E+00  0.5740E+03
   5.740  0.0000E+00  0.0000E+00  0.5740E+03
   5.750  0.0000E+00  0.0000E+00  0.5740E+03
   5.760  0.0000E+00  0.0000E+00  0.5740E+03
   5.770  0.0000E+00  0.0000E+00  0.5740E+03
   5.780  0.0000E+00  0.0000E+00  0.5740E+03
   5.790  0.0000E+00  0.0000E+00  0.5740E+03
   5.800  0.0000E+00  0.0000E+00  0.5740E+03
   5.810  0.0000E+00  0.0000E+00  0.5740E+03
   5.820  0.0000E+00  0.0000E+00  0.5740E+03
   5.830  0.0000E+00  0.0000E+00  0.5740E+03
   5.840  0.0000E+00  0.0000E+00  0.5740E+03
   5.850  0.0000E+00  0.0000E+00  0.5740E+03
   5.860  0.0000E+00  0.0000E+00  0.5740E+03
   5.870  0.0000E+00  0.0000E+00  0.5740E+03
   5.880  0.0000E+00  0.0000E+00  0.5740E+03
   5.890  0.0000E+00  0.0000E+00  0.5740E+03
   5.900  0.0000E+00  0.0000E+00  0.5740E+03
   5.910  0.0000E+00  0.0000E+00  0.5740E+03
   5.920  0.0000E+00  0.0000E+00  0.5740E+03
   5.930  0.0000E+00  0.0000E+00  0.5740E+03
   5.940  0.0000E+00  0.0000E+00  0.5740E+03
   5.950  0.0000E+00  0.0000E+00  0.5740E+03
   5.960  0.0000E+00  0.0000E+00  0.5740E+03
   5.970  0.0000E+00  0.0000E+00  0.5740E+03
   5.980  0.0000E+00  0.0000E+00  0.5740E+03
   5.990  0.0000E+00  0.0000E+00  0.5740E+03
   6.000  0.0000E+00  0.0000E+00  0.5740E+03
   6.010  0.0000E+00  0.0000E+00  0.5740E+03
   6.020  0.0000E+00  0.0000E+00  0.5740E+03
   6.030  0.0000E+00  0.0000E+00  0.5740E+03
   6.040  0.0000E+00  0.0000E+00  0.5740E+03
   6.050  0.0000E+00  0.0000E+00  0.5740E+03
   6.060  0.0000E+00  0.0000E+00  0.5740E+03
   6.070  0.0000E+00  0.0000E+00  0.5740E+03
   6.080  0.0000E+00  0.0000E+00  0.5740E+03
   6.090  0.0000E+00  0.0000E+00  0.5740E+03
   6.100  0.0000E+00  0.0000E+00  0.5740E+03
   6.110  0.0000E+00  0.0000E+00  0.5740E+03
   6.120  0.0000E+00  0.0000E+00  0.5740E+03
   6.130  0.0000E+00  0.0000E+00  0.5740E+03
   6.140  0.0000E+00  0.0000E+00  0.5740E+03
   6.150  0.0000E+00  0.0000E+00  0.5740E+03
   6.160  0.0000E+00  0.0000E+00  0.5740E+03
   6.170  0.0000E+00  0.0000E+00  0.5740E+03
   6.180  0.0000E+00  0.0000E+00  0.5740E+03
   6.190  0.0000E+00  0.0000E+00  0.5740E+03
   6.200  0.0000E+00  0.0000E+00  0.5740E+03
   6.210  0.0000E+00  0.0000E+00  0.5740E+03
   6.220  0.0000E+00  0.0000E+00  0.5740E+03
   6.230  0.0000E+00  0.0000E+00  0.5740E+03
   6.240  0.0000E+00  0.0000E+00  0.5740E+03
   6.250  0.0000E+00  0.0000E+00  0.5740E+03
   6.260  0.0000E+00  0.0000E+00  0.5740E+03
   6.270  0.0000E+00  0.0000E+00  0.5740E+03
   6.280  0.0000E+00  0.0000E+00  0.5740E+03
   6.290  0.0000E+00  0.0000E+00  0.5740E+03
   6.300  0.0000E+00  0.0000E+00  0.5740E+03
   6.310  0.0000E+00  0.0000E+00  0.5740E+03
   6.320  0.0000E+00  0.0000E+00  0.5740E+03
   6.330  0.0000E+00  0.0000E+00  0.5740E+03
   6.340  0.0000E+00  0.0000E+00  0.5740E+03
   6.350  0.0000E+00  0.0000E+00  0.5740E+03
   6.360  0.0000E+00  0.0000E+00  0.5740E+03
   6.370  0.0000E+00  0.0000E+00  0.5740E+03
   6.380  0.0000E+00  0.0000E+00  0.5740E+03
   6.390  0.0000E+00  0.0000E+00  0.5740E+03
   6.400  0.0000E+00  0.0000E+00  0.5740E+03
   6.410  0.0000E+00  0.0000E+00  0.5740E+03
   6.420  0.0000E+00  0.0000E+00  0.5740E+03
   6.430  0.0000E+00  0.0000E+00  0.5740E+03
   6.440  0.0000E+00  0.0000E+00  0.5740E+03
   6.450  0.0000E+00  0.0000E+00  0.5740E+03
   6.460  0.0000E+00  0.0000E+00  0.5740E+03
   6.470  0.0000E+00  0.0000E+00  0.5740E+03
   6.480  0.0000E+00  0.0000E+00  0.5740E+03
   6.490  0.0000E+00  0.0000E+00  0.5740E+03
   6.500  0.0000E+00  0.0000E+00  0.5740E+03
   6.510  0.0000E+00  0.0000E+00  0.5740E+03
   6.520  0.0000E+00  0.0000E+00  0.5740E+03
   6.530  0.0000E+00  0.0000E+00  0.5740E+03
   6.540  0.0000E+00  0.0000E+00  0.5740E+03
   6.550  0.2995E+00  0.0000E+00  0.5740E+03
   6.560  0.2820E+01  0.0000E+00  0.5740E+03
   6.570  0.1141E+02  0.0000E+00  0.5741E+03
   6.580  0.3556E+02  0.0000E+00  0.5743E+03
   6.590  0.5558E+02  0.0000E+00  0.5747E+03
   6.600  0.5325E+02  0.0000E+00  0.5753E+03
   6.610  0.6576E+02  0.0000E+00  0.5759E+03
   6.620  0.4746E+02  0.0000E+00  0.5767E+03
   6.630  0.3953E+02  0.0000E+00  0.5771E+03
   6.640  0.3357E+02  0.0000E+00  0.5775E+03
   6.650  0.3842E+02  0.0000E+00  0.5778E+03
   6.660  0.6417E+02  0.0000E+00  0.5783E+03
   6.670  0.2065E+02  0.0000E+00  0.5789E+03
   6.680  0.1427E+01  0.0000E+00  0.5790E+03
   6.690  0.3202E-04  0.0000E+00  0.5790E+03
   6.700  0.0000E+00  0.0000E+00  0.5790E+03
   6.710  0.0000E+00  0.0000E+00  0.5790E+03
   6.720  0.0000E+00  0.0000E+00  0.5790E+03
   6.730  0.0000E+00  0.0000E+00  0.5790E+03
   6.740  0.0000E+00  0.0000E+00  0.5790E+03
   6.750  0.0000E+00  0.0000E+00  0.5790E+03
   6.760  0.0000E+00  0.0000E+00  0.5790E+03
   6.770  0.0000E+00  0.0000E+00  0.5790E+03
   6.780  0.0000E+00  0.0000E+00  0.5790E+03
   6.790  0.0000E+00  0.0000E+00  0.5790E+03
   6.800  0.0000E+00  0.0000E+00  0.5790E+03
   6.810  0.0000E+00  0.0000E+00  0.5790E+03
   6.820  0.0000E+00  0.0000E+00  0.5790E+03
   6.830  0.0000E+00  0.0000E+00  0.5790E+03
   6.840  0.0000E+00  0.0000E+00  0.5790E+03
   6.850  0.0000E+00  0.0000E+00  0.5790E+03
   6.860  0.0000E+00  0.0000E+00  0.5790E+03
   6.870  0.0000E+00  0.0000E+00  0.5790E+03
   6.880  0.0000E+00  0.0000E+00  0.5790E+03
   6.890  0.0000E+00  0.0000E+00  0.5790E+03
   6.900  0.0000E+00  0.0000E+00  0.5790E+03
   6.910  0.0000E+00  0.0000E+00  0.5790E+03
   6.920  0.0000E+00  0.0000E+00  0.5790E+03
   6.930  0.0000E+00  0.0000E+00  0.5790E+03
   6.940  0.0000E+00  0.0000E+00  0.5790E+03
   6.950  0.0000E+00  0.0000E+00  0.5790E+03
   6.960  0.0000E+00  0.0000E+00  0.5790E+03
   6.970  0.0000E+00  0.0000E+00  0.5790E+03
   6.980  0.0000E+00  0.0000E+00  0.5790E+03
   6.990  0.0000E+00  0.0000E+00  0.5790E+03
   7.000  0.0000E+00  0.0000E+00  0.5790E+03
   7.010  0.0000E+00  0.0000E+00  0.5790E+03
   7.020  0.0000E+00  0.0000E+00  0.5790E+03
   7.030  0.0000E+00  0.0000E+00  0.5790E+03
   7.040  0.0000E+00  0.0000E+00  0.5790E+03
   7.050  0.0000E+00  0.0000E+00  0.5790E+03
   7.060  0.0000E+00  0.0000E+00  0.5790E+03
   7.070  0.0000E+00  0.0000E+00  0.5790E+03
   7.080  0.0000E+00  0.0000E+00  0.5790E+03
   7.090  0.0000E+00  0.0000E+00  0.5790E+03
   7.100  0.0000E+00  0.0000E+00  0.5790E+03
   7.110  0.0000E+00  0.0000E+00  0.5790E+03
   7.120  0.0000E+00  0.0000E+00  0.5790E+03
   7.130  0.0000E+00  0.0000E+00  0.5790E+03
   7.140  0.0000E+00  0.0000E+00  0.5790E+03
   7.150  0.0000E+00  0.0000E+00  0.5790E+03
   7.160  0.0000E+00  0.0000E+00  0.5790E+03
   7.170  0.0000E+00  0.0000E+00  0.5790E+03
   7.180  0.0000E+00  0.0000E+00  0.5790E+03
   7.190  0.0000E+00  0.0000E+00  0.5790E+03
   7.200  0.0000E+00  0.0000E+00  0.5790E+03
   7.210  0.0000E+00  0.0000E+00  0.5790E+03
   7.220  0.0000E+00  0.0000E+00  0.5790E+03
   7.230  0.0000E+00  0.0000E+00  0.5790E+03
   7.240  0.0000E+00  0.0000E+00  0.5790E+03
   7.250  0.0000E+00  0.0000E+00  0.5790E+03
   7.260  0.0000E+00  0.0000E+00  0.5790E+03
   7.270  0.0000E+00  0.0000E+00  0.5790E+03
   7.280  0.0000E+00  0.0000E+00  0.5790E+03
   7.290  0.0000E+00  0.0000E+00  0.5790E+03
   7.300  0.0000E+00  0.0000E+00  0.5790E+03
   7.310  0.0000E+00  0.0000E+00  0.5790E+03
   7.320  0.0000E+00  0.0000E+00  0.5790E+03
   7.330  0.0000E+00  0.0000E+00  0.5790E+03
   7.340  0.0000E+00  0.0000E+00  0.5790E+03
   7.350  0.0000E+00  0.0000E+00  0.5790E+03
   7.360  0.0000E+00  0.0000E+00  0.5790E+03
   7.370  0.0000E+00  0.0000E+00  0.5790E+03
   7.380  0.0000E+00  0.0000E+00  0.5790E+03
   7.390  0.0000E+00  0.0000E+00  0.5790E+03
   7.400  0.0000E+00  0.0000E+00  0.5790E+03
   7.410  0.0000E+00  0.0000E+00  0.5790E+03
   7.420  0.0000E+00  0.0000E+00  0.5790E+03
   7.430  0.0000E+00  0.0000E+00  0.5790E+03
   7.440  0.0000E+00  0.0000E+00  0.5790E+03
   7.450  0.0000E+00  0.0000E+00  0.5790E+03
   7.460  0.1983E-04  0.0000E+00  0.5790E+03
   7.470  0.1011E-03  0.0000E+00  0.5790E+03
   7.480  0.2451E-03  0.0000E+00  0.5790E+03
   7.490  0.5230E-03  0.0000E+00  0.5790E+03
   7.500  0.1039E-02  0.0000E+00  0.5790E+03
   7.510  0.1793E-02  0.0000E+00  0.5790E+03
   7.520  0.2786E-02  0.0000E+00  0.5790E+03
   7.530  0.4019E-02  0.0000E+00  0.5790E+03
   7.540  0.5489E-02  0.0000E+00  0.5790E+03
   7.550  0.7199E-02  0.6720E-04  0.5790E+03
   7.560  0.9147E-02  0.6575E-03  0.5790E+03
   7.570  0.1133E-01  0.1857E-02  0.5790E+03
   7.580  0.1376E-01  0.3665E-02  0.5790E+03
   7.590  0.1642E-01  0.6081E-02  0.5790E+03
   7.600  0.1933E-01  0.9107E-02  0.5790E+03
   7.610  0.2247E-01  0.1274E-01  0.5790E+03
   7.620  0.2585E-01  0.1698E-01  0.5790E+03
   7.630  0.2947E-01  0.2184E-01  0.5790E+03
   7.640  0.3333E-01  0.2730E-01  0.5790E+03
   7.650  0.3743E-01  0.3337E-01  0.5790E+03
   7.660  0.4176E-01  0.4005E-01  0.5790E+03
   7.670  0.4634E-01  0.4733E-01  0.5790E+03
   7.680  0.5115E-01  0.5523E-01  0.5790E+03
   7.690  0.5620E-01  0.6373E-01  0.5790E+03
   7.700  0.6149E-01  0.7285E-01  0.5790E+03
   7.710  0.6702E-01  0.8257E-01  0.5790E+03
   7.720  0.7279E-01  0.9290E-01  0.5790E+03
   7.730  0.7880E-01  0.1038E+00  0.5790E+03
   7.740  0.8505E-01  0.1154E+00  0.5790E+03
   7.750  0.9153E-01  0.1275E+00  0.5790E+03
   7.760  0.9825E-01  0.1403E+00  0.5790E+03
   7.770  0.1052E+00  0.1537E+00  0.5790E+03
   7.780  0.1124E+00  0.1677E+00  0.5790E+03
   7.790  0.1199E+00  0.1823E+00  0.5790E+03
   7.800  0.1275E+00  0.1975E+00  0.5790E+03
   7.810  0.1355E+00  0.2133E+00  0.5790E+03
   7.820  0.1436E+00  0.2297E+00  0.5790E+03
   7.830  0.1520E+00  0.2467E+00  0.5790E+03
   7.840  0.1606E+00  0.2644E+00  0.5790E+03
   7.850  0.1695E+00  0.2826E+00  0.5791E+03
   7.860  0.1786E+00  0.3015E+00  0.5791E+03
   7.870  0.1871E+00  0.3242E+00  0.5791E+03
   7.880  0.1958E+00  0.3957E+00  0.5791E+03
   7.890  0.2056E+00  0.5310E+00  0.5791E+03
   7.900  0.2170E+00  0.7275E+00  0.5791E+03
   7.910  0.2305E+00  0.8138E+00  0.5791E+03
   7.920  0.2453E+00  0.8450E+00  0.5791E+03
   7.930  0.2590E+00  0.5944E+01  0.5791E+03
   7.940  0.2721E+00  0.2362E+02  0.5793E+03
   7.950  0.2845E+00  0.1375E+03  0.5798E+03
   7.960  0.2964E+00  0.4525E+02  0.5806E+03
   7.970  0.3078E+00  0.2622E+02  0.5809E+03
   7.980  0.3189E+00  0.3639E+01  0.5811E+03
   7.990  0.3297E+00  0.4686E+00  0.5811E+03
   8.000  0.3402E+00  0.4755E+00  0.5811E+03
   8.010  0.3505E+00  0.4825E+00  0.5811E+03
   8.020  0.3607E+00  0.4895E+00  0.5811E+03
   8.030  0.3706E+00  0.4966E+00  0.5811E+03
   8.040  0.3804E+00  0.5037E+00  0.5811E+03
   8.050  0.3900E+00  0.5108E+00  0.5811E+03
   8.060  0.3995E+00  0.5179E+00  0.5812E+03
   8.070  0.4087E+00  0.5251E+00  0.5812E+03
   8.080  0.4178E+00  0.5324E+00  0.5812E+03
   8.090  0.4267E+00  0.5396E+00  0.5812E+03
   8.100  0.4354E+00  0.5469E+00  0.5812E+03
   8.110  0.4439E+00  0.5543E+00  0.5812E+03
   8.120  0.4522E+00  0.5616E+00  0.5812E+03
   8.130  0.4604E+00  0.5691E+00  0.5812E+03
   8.140  0.4684E+00  0.5753E+00  0.5812E+03
   8.150  0.4759E+00  0.5786E+00  0.5812E+03
   8.160  0.4809E+00  0.5801E+00  0.5813E+03
   8.170  0.4834E+00  0.5795E+00  0.5813E+03
   8.180  0.4834E+00  0.5787E+00  0.5813E+03
   8.190  0.4834E+00  0.5793E+00  0.5813E+03
   8.200  0.4851E+00  0.5814E+00  0.5813E+03
   8.210  0.4878E+00  0.5834E+00  0.5813E+03
   8.220  0.4916E+00  0.5853E+00  0.5813E+03
   8.230  0.4952E+00  0.5874E+00  0.5813E+03
   8.240  0.4985E+00  0.5904E+00  0.5813E+03
   8.250  0.5018E+00  0.5948E+00  0.5814E+03
   8.260  0.5054E+00  0.6007E+00  0.5814E+03
   8.270  0.5096E+00  0.6081E+00  0.5814E+03
   8.280  0.5143E+00  0.6171E+00  0.5814E+03
   8.290  0.5199E+00  0.6276E+00  0.5814E+03
   8.300  0.5265E+00  0.6398E+00  0.5814E+03
   8.310  0.5340E+00  0.6535E+00  0.5814E+03
   8.320  0.5424E+00  0.6692E+00  0.5814E+03
   8.330  0.5521E+00  0.6872E+00  0.5814E+03
   8.340  0.5635E+00  0.7067E+00  0.5815E+03
   8.350  0.5766E+00  0.7264E+00  0.5815E+03
   8.360  0.5905E+00  0.7463E+00  0.5815E+03
   8.370  0.6049E+00  0.7663E+00  0.5815E+03
   8.380  0.6194E+00  0.7865E+00  0.5815E+03
   8.390  0.6341E+00  0.8064E+00  0.5815E+03
   8.400  0.6490E+00  0.8263E+00  0.5815E+03
   8.410  0.6639E+00  0.8466E+00  0.5816E+03
   8.420  0.6788E+00  0.8675E+00  0.5816E+03
   8.430  0.6939E+00  0.8891E+00  0.5816E+03
   8.440  0.7093E+00  0.9114E+00  0.5816E+03
   8.450  0.7249E+00  0.9345E+00  0.5816E+03
   8.460  0.7410E+00  0.9586E+00  0.5816E+03
   8.470  0.7574E+00  0.9836E+00  0.5817E+03
   8.480  0.7742E+00  0.1010E+01  0.5817E+03
   8.490  0.7914E+00  0.1037E+01  0.5817E+03
   8.500  0.8091E+00  0.1065E+01  0.5817E+03
   8.510  0.8275E+00  0.1094E+01  0.5817E+03
   8.520  0.8464E+00  0.1124E+01  0.5817E+03
   8.530  0.8659E+00  0.1154E+01  0.5818E+03
   8.540  0.8860E+00  0.1186E+01  0.5818E+03
   8.550  0.9067E+00  0.1219E+01  0.5818E+03
   8.560  0.9280E+00  0.1253E+01  0.5818E+03
   8.570  0.9499E+00  0.1288E+01  0.5819E+03
   8.580  0.9724E+00  0.1324E+01  0.5819E+03
   8.590  0.9955E+00  0.1360E+01  0.5819E+03
   8.600  0.1019E+01  0.1393E+01  0.5819E+03
   8.610  0.1043E+01  0.1422E+01  0.5819E+03
   8.620  0.1068E+01  0.1445E+01  0.5820E+03
   8.630  0.1094E+01  0.1463E+01  0.5820E+03
   8.640  0.1120E+01  0.1473E+01  0.5820E+03
   8.650  0.1146E+01  0.1476E+01  0.5820E+03
   8.660  0.1174E+01  0.1471E+01  0.5821E+03
   8.670  0.1202E+01  0.1459E+01  0.5821E+03
   8.680  0.1230E+01  0.1440E+01  0.5821E+03
   8.690  0.1259E+01  0.1414E+01  0.5822E+03
   8.700  0.1289E+01  0.1382E+01  0.5822E+03
   8.710  0.1319E+01  0.1340E+01  0.5822E+03
   8.720  0.1350E+01  0.1293E+01  0.5822E+03
   8.730  0.1379E+01  0.1257E+01  0.5823E+03
   8.740  0.1402E+01  0.1241E+01  0.5823E+03
   8.750  0.1419E+01  0.1263E+01  0.5823E+03
   8.760  0.1430E+01  0.1344E+01  0.5823E+03
   8.770  0.1447E+01  0.1503E+01  0.5824E+03
   8.780  0.1487E+01  0.1787E+01  0.5824E+03
   8.790  0.1544E+01  0.2084E+01  0.5824E+03
   8.800  0.1621E+01  0.2541E+01  0.5825E+03
   8.810  0.1720E+01  0.3407E+01  0.5825E+03
   8.820  0.1837E+01  0.4666E+01  0.5826E+03
   8.830  0.1996E+01  0.6511E+01  0.5827E+03
   8.840  0.2203E+01  0.8717E+01  0.5827E+03
   8.850  0.2469E+01  0.1079E+02  0.5829E+03
   8.860  0.2797E+01  0.1387E+02  0.5830E+03
   8.870  0.3573E+01  0.1849E+02  0.5832E+03
   8.880  0.8140E+01  0.8631E+01  0.5835E+03
   8.890  0.6533E+01  0.8319E+01  0.5836E+03
   8.900  0.6565E+01  0.8419E+01  0.5838E+03
   8.910  0.7124E+01  0.8545E+01  0.5839E+03
   8.920  0.7504E+01  0.8720E+01  0.5841E+03
   8.930  0.7738E+01  0.8957E+01  0.5843E+03
   8.940  0.7801E+01  0.9338E+01  0.5844E+03
   8.950  0.7828E+01  0.9747E+01  0.5846E+03
   8.960  0.7828E+01  0.1021E+02  0.5848E+03
   8.970  0.7790E+01  0.1169E+02  0.5850E+03
   8.980  0.7715E+01  0.3756E+02  0.5853E+03
   8.990  0.7623E+01  0.2463E+02  0.5857E+03
   9.000  0.7656E+01  0.1745E+02  0.5860E+03
   9.010  0.7570E+01  0.1269E+02  0.5862E+03
   9.020  0.7303E+01  0.1167E+02  0.5864E+03
   9.030  0.6970E+01  0.1547E+02  0.5866E+03
   9.040  0.6907E+01  0.1943E+02  0.5869E+03
   9.050  0.6975E+01  0.2157E+02  0.5872E+03
   9.060  0.6702E+01  0.2386E+02  0.5875E+03
   9.070  0.6048E+01  0.2285E+02  0.5878E+03
   9.080  0.5469E+01  0.2138E+02  0.5880E+03
   9.090  0.5786E+01  0.1719E+02  0.5883E+03
   9.100  0.6087E+01  0.9735E+01  0.5885E+03
   9.110  0.6336E+01  0.7007E+01  0.5886E+03
   9.120  0.6551E+01  0.6625E+01  0.5888E+03
   9.130  0.6768E+01  0.6427E+01  0.5889E+03
   9.140  0.6999E+01  0.6415E+01  0.5890E+03
   9.150  0.7239E+01  0.6530E+01  0.5892E+03
   9.160  0.7518E+01  0.6715E+01  0.5893E+03
   9.170  0.7805E+01  0.6923E+01  0.5894E+03
   9.180  0.8112E+01  0.7139E+01  0.5896E+03
   9.190  0.8436E+01  0.7326E+01  0.5897E+03
   9.200  0.8775E+01  0.7527E+01  0.5899E+03
   9.210  0.9125E+01  0.7740E+01  0.5901E+03
   9.220  0.9486E+01  0.7972E+01  0.5902E+03
   9.230  0.9859E+01  0.8232E+01  0.5904E+03
   9.240  0.1024E+02  0.8503E+01  0.5906E+03
   9.250  0.1062E+02  0.8760E+01  0.5908E+03
   9.260  0.1100E+02  0.9012E+01  0.5910E+03
   9.270  0.1139E+02  0.9261E+01  0.5912E+03
   9.280  0.1178E+02  0.9499E+01  0.5914E+03
   9.290  0.1217E+02  0.9731E+01  0.5916E+03
   9.300  0.1254E+02  0.9955E+01  0.5918E+03
   9.310  0.1291E+02  0.1017E+02  0.5921E+03
   9.320  0.1321E+02  0.1038E+02  0.5923E+03
   9.330  0.1367E+02  0.1055E+02  0.5925E+03
   9.340  0.1444E+02  0.1069E+02  0.5928E+03
   9.350  0.1519E+02  0.1079E+02  0.5931E+03
   9.360  0.1574E+02  0.1098E+02  0.5933E+03
   9.370  0.1610E+02  0.1136E+02  0.5936E+03
   9.380  0.1617E+02  0.1187E+02  0.5939E+03
   9.390  0.1602E+02  0.1257E+02  0.5941E+03
   9.400  0.1602E+02  0.1333E+02  0.5944E+03
   9.410  0.1617E+02  0.1413E+02  0.5947E+03
   9.420  0.1646E+02  0.1490E+02  0.5950E+03
   9.430  0.1692E+02  0.1524E+02  0.5954E+03
   9.440  0.1756E+02  0.1596E+02  0.5957E+03
   9.450  0.1759E+02  0.1629E+02  0.5960E+03
   9.460  0.1676E+02  0.1721E+02  0.5964E+03
   9.470  0.1817E+02  0.1992E+02  0.5967E+03
   9.480  0.1829E+02  0.2583E+02  0.5971E+03
   9.490  0.1561E+02  0.3162E+02  0.5976E+03
   9.500  0.1464E+02  0.4945E+02  0.5981E+03
   9.510  0.1474E+02  0.2858E+02  0.5986E+03
   9.520  0.1511E+02  0.1687E+02  0.5990E+03
   9.530  0.1493E+02  0.1168E+02  0.5993E+03
   9.540  0.1508E+02  0.9753E+01  0.5995E+03
   9.550  0.1689E+02  0.1076E+02  0.5998E+03
   9.560  0.1809E+02  0.1321E+02  0.6001E+03
   9.570  0.1820E+02  0.1610E+02  0.6004E+03
   9.580  0.1765E+02  0.1901E+02  0.6008E+03
   9.590  0.1706E+02  0.1955E+02  0.6012E+03
   9.600  0.1664E+02  0.1934E+02  0.6015E+03
   9.610  0.1631E+02  0.1884E+02  0.6019E+03
   9.620  0.1592E+02  0.1815E+02  0.6022E+03
   9.630  0.1559E+02  0.1744E+02  0.6026E+03
   9.640  0.1513E+02  0.1674E+02  0.6029E+03
   9.650  0.1440E+02  0.1605E+02  0.6032E+03
   9.660  0.1318E+02  0.1544E+02  0.6035E+03
   9.670  0.1228E+02  0.1510E+02  0.6038E+03
   9.680  0.1368E+02  0.1431E+02  0.6040E+03
   9.690  0.1494E+02  0.1487E+02  0.6043E+03
   9.700  0.1636E+02  0.1484E+02  0.6046E+03
   9.710  0.1793E+02  0.1515E+02  0.6049E+03
   9.720  0.1908E+02  0.1608E+02  0.6053E+03
   9.730  0.2009E+02  0.2323E+02  0.6057E+03
   9.740  0.1999E+02  0.1924E+02  0.6061E+03
   9.750  0.2036E+02  0.1975E+02  0.6065E+03
   9.760  0.1989E+02  0.2017E+02  0.6069E+03
   9.770  0.1923E+02  0.2030E+02  0.6073E+03
   9.780  0.1860E+02  0.2012E+02  0.6077E+03
   9.790  0.1808E+02  0.1990E+02  0.6081E+03
   9.800  0.1769E+02  0.2040E+02  0.6084E+03
   9.810  0.1741E+02  0.2097E+02  0.6088E+03
   9.820  0.1786E+02  0.2147E+02  0.6092E+03
   9.830  0.2192E+02  0.2219E+02  0.6096E+03
   9.840  0.2759E+02  0.2468E+02  0.6101E+03
   9.850  0.3468E+02  0.2781E+02  0.6107E+03
   9.860  0.3589E+02  0.3123E+02  0.6113E+03
   9.870  0.3322E+02  0.3092E+02  0.6120E+03
   9.880  0.3875E+02  0.2931E+02  0.6126E+03
   9.890  0.3626E+02  0.3009E+02  0.6133E+03
   9.900  0.3877E+02  0.3254E+02  0.6140E+03
   9.910  0.3569E+02  0.3447E+02  0.6147E+03
   9.920  0.3242E+02  0.3318E+02  0.6154E+03
   9.930  0.3031E+02  0.2996E+02  0.6160E+03
   9.940  0.2922E+02  0.2797E+02  0.6166E+03
   9.950  0.2657E+02  0.2748E+02  0.6172E+03
   9.960  0.2459E+02  0.3272E+02  0.6177E+03
   9.970  0.2669E+02  0.2671E+02  0.6183E+03
   9.980  0.2975E+02  0.2642E+02  0.6188E+03
   9.990  0.3168E+02  0.2729E+02  0.6194E+03
  10.000  0.3182E+02  0.2862E+02  0.6200E+03
  10.010  0.3261E+02  0.3061E+02  0.6206E+03
  10.020  0.3391E+02  0.3233E+02  0.6213E+03
  10.030  0.3437E+02  0.3288E+02  0.6220E+03
  10.040  0.3428E+02  0.3210E+02  0.6226E+03
  10.050  0.3353E+02  0.3195E+02  0.6233E+03
  10.060  0.3519E+02  0.3337E+02  0.6240E+03
  10.070  0.3262E+02  0.3241E+02  0.6246E+03
  10.080  0.3239E+02  0.3356E+02  0.6253E+03
  10.090  0.3238E+02  0.3263E+02  0.6259E+03
  10.100  0.3263E+02  0.3186E+02  0.6266E+03
  10.110  0.3240E+02  0.3117E+02  0.6272E+03
  10.120  0.3056E+02  0.3078E+02  0.6279E+03
  10.130  0.2887E+02  0.2675E+02  0.6284E+03
  10.140  0.2745E+02  0.2509E+02  0.6290E+03
  10.150  0.2718E+02  0.2365E+02  0.6295E+03
  10.160  0.2626E+02  0.2252E+02  0.6300E+03
  10.170  0.2509E+02  0.2185E+02  0.6305E+03
  10.180  0.2377E+02  0.2119E+02  0.6309E+03
  10.190  0.2240E+02  0.2070E+02  0.6314E+03
  10.200  0.2101E+02  0.2044E+02  0.6318E+03
  10.210  0.2012E+02  0.1954E+02  0.6322E+03
  10.220  0.2037E+02  0.2125E+02  0.6326E+03
  10.230  0.2068E+02  0.2459E+02  0.6330E+03
  10.240  0.2084E+02  0.2653E+02  0.6335E+03
  10.250  0.2083E+02  0.3072E+02  0.6340E+03
  10.260  0.2092E+02  0.2558E+02  0.6345E+03
  10.270  0.2125E+02  0.2385E+02  0.6350E+03
  10.280  0.2135E+02  0.2261E+02  0.6354E+03
  10.290  0.2181E+02  0.2110E+02  0.6358E+03
  10.300  0.2791E+02  0.1956E+02  0.6363E+03
  10.310  0.2352E+02  0.2068E+02  0.6367E+03
  10.320  0.2984E+02  0.2606E+02  0.6372E+03
  10.330  0.3639E+02  0.6922E+02  0.6380E+03
  10.340  0.3752E+02  0.3603E+02  0.6388E+03
  10.350  0.4262E+02  0.2788E+02  0.6396E+03
  10.360  0.3042E+02  0.3363E+02  0.6402E+03
  10.370  0.2049E+02  0.3771E+02  0.6408E+03
  10.380  0.1801E+02  0.2445E+02  0.6413E+03
  10.390  0.1616E+02  0.2147E+02  0.6417E+03
  10.400  0.1733E+02  0.1926E+02  0.6421E+03
  10.410  0.1948E+02  0.1829E+02  0.6425E+03
  10.420  0.1950E+02  0.1798E+02  0.6428E+03
  10.430  0.1967E+02  0.1827E+02  0.6432E+03
  10.440  0.1981E+02  0.1898E+02  0.6436E+03
  10.450  0.2142E+02  0.1871E+02  0.6440E+03
  10.460  0.1847E+02  0.1831E+02  0.6444E+03
  10.470  0.1752E+02  0.1868E+02  0.6448E+03
  10.480  0.1699E+02  0.1942E+02  0.6451E+03
  10.490  0.1658E+02  0.1987E+02  0.6455E+03
  10.500  0.1629E+02  0.2035E+02  0.6458E+03
  10.510  0.1598E+02  0.2067E+02  0.6462E+03
  10.520  0.1571E+02  0.2061E+02  0.6466E+03
  10.530  0.1550E+02  0.2022E+02  0.6469E+03
  10.540  0.1455E+02  0.1861E+02  0.6473E+03
  10.550  0.1339E+02  0.1724E+02  0.6476E+03
  10.560  0.1284E+02  0.1549E+02  0.6479E+03
  10.570  0.1262E+02  0.1471E+02  0.6482E+03
  10.580  0.1264E+02  0.1336E+02  0.6485E+03
  10.590  0.1271E+02  0.1221E+02  0.6487E+03
  10.600  0.1282E+02  0.1219E+02  0.6490E+03
  10.610  0.1295E+02  0.1207E+02  0.6492E+03
  10.620  0.1311E+02  0.1195E+02  0.6495E+03
  10.630  0.1330E+02  0.1185E+02  0.6497E+03
  10.640  0.1341E+02  0.1177E+02  0.6500E+03
  10.650  0.1371E+02  0.1167E+02  0.6502E+03
  10.660  0.1441E+02  0.1158E+02  0.6505E+03
  10.670  0.1655E+02  0.1174E+02  0.6507E+03
  10.680  0.1875E+02  0.1309E+02  0.6510E+03
  10.690  0.1905E+02  0.1519E+02  0.6514E+03
  10.700  0.1687E+02  0.1348E+02  0.6517E+03
  10.710  0.1579E+02  0.1294E+02  0.6520E+03
  10.720  0.1559E+02  0.1206E+02  0.6523E+03
  10.730  0.1794E+02  0.1132E+02  0.6526E+03
  10.740  0.1924E+02  0.1111E+02  0.6529E+03
  10.750  0.1887E+02  0.1128E+02  0.6532E+03
  10.760  0.1819E+02  0.1180E+02  0.6535E+03
  10.770  0.1741E+02  0.1336E+02  0.6538E+03
  10.780  0.1731E+02  0.1744E+02  0.6541E+03
  10.790  0.1780E+02  0.2114E+02  0.6545E+03
  10.800  0.1654E+02  0.2250E+02  0.6549E+03
  10.810  0.1624E+02  0.2318E+02  0.6553E+03
  10.820  0.1528E+02  0.2203E+02  0.6556E+03
  10.830  0.1428E+02  0.1807E+02  0.6560E+03
  10.840  0.1378E+02  0.1710E+02  0.6563E+03
  10.850  0.9886E+01  0.1631E+02  0.6566E+03
  10.860  0.7727E+01  0.1745E+02  0.6568E+03
  10.870  0.7789E+01  0.1873E+02  0.6571E+03
  10.880  0.8325E+01  0.1667E+02  0.6574E+03
  10.890  0.9454E+01  0.9731E+01  0.6576E+03
  10.900  0.1139E+02  0.9193E+01  0.6578E+03
  10.910  0.1411E+02  0.9000E+01  0.6580E+03
  10.920  0.1440E+02  0.1083E+02  0.6582E+03
  10.930  0.1419E+02  0.1173E+02  0.6585E+03
  10.940  0.1382E+02  0.1241E+02  0.6588E+03
  10.950  0.1356E+02  0.1260E+02  0.6590E+03
  10.960  0.1351E+02  0.1305E+02  0.6593E+03
  10.970  0.1371E+02  0.1324E+02  0.6596E+03
  10.980  0.1442E+02  0.1335E+02  0.6598E+03
  10.990  0.1295E+02  0.1343E+02  0.6601E+03
  11.000  0.1344E+02  0.1361E+02  0.6604E+03
  11.010  0.1504E+02  0.1365E+02  0.6606E+03
  11.020  0.1589E+02  0.1570E+02  0.6609E+03
  11.030  0.1688E+02  0.1698E+02  0.6613E+03
  11.040  0.1735E+02  0.1689E+02  0.6616E+03
  11.050  0.1724E+02  0.1614E+02  0.6619E+03
  11.060  0.1660E+02  0.1537E+02  0.6623E+03
  11.070  0.1735E+02  0.1523E+02  0.6626E+03
  11.080  0.1690E+02  0.1533E+02  0.6630E+03
  11.090  0.1490E+02  0.1589E+02  0.6633E+03
  11.100  0.1385E+02  0.1561E+02  0.6636E+03
  11.110  0.1293E+02  0.1446E+02  0.6639E+03
  11.120  0.1154E+02  0.1286E+02  0.6641E+03
  11.130  0.1109E+02  0.1217E+02  0.6643E+03
  11.140  0.1091E+02  0.1179E+02  0.6646E+03
  11.150  0.1059E+02  0.1158E+02  0.6648E+03
  11.160  0.9871E+01  0.1095E+02  0.6650E+03
  11.170  0.9060E+01  0.1014E+02  0.6652E+03
  11.180  0.8284E+01  0.9779E+01  0.6654E+03
  11.190  0.7877E+01  0.9804E+01  0.6656E+03
  11.200  0.7527E+01  0.9559E+01  0.6658E+03
  11.210  0.7202E+01  0.9134E+01  0.6659E+03
  11.220  0.6967E+01  0.8647E+01  0.6661E+03
  11.230  0.6902E+01  0.8157E+01  0.6662E+03
  11.240  0.6910E+01  0.7759E+01  0.6664E+03
  11.250  0.6962E+01  0.7530E+01  0.6665E+03
  11.260  0.7081E+01  0.7475E+01  0.6667E+03
  11.270  0.7255E+01  0.7486E+01  0.6668E+03
  11.280  0.7402E+01  0.7630E+01  0.6670E+03
  11.290  0.7869E+01  0.7993E+01  0.6671E+03
  11.300  0.8460E+01  0.8436E+01  0.6673E+03
  11.310  0.9256E+01  0.8964E+01  0.6675E+03
  11.320  0.1037E+02  0.9733E+01  0.6677E+03
  11.330  0.1174E+02  0.1081E+02  0.6679E+03
  11.340  0.1334E+02  0.1199E+02  0.6681E+03
  11.350  0.1516E+02  0.1329E+02  0.6684E+03
  11.360  0.1725E+02  0.1481E+02  0.6687E+03
  11.370  0.1941E+02  0.1658E+02  0.6690E+03
  11.380  0.2154E+02  0.1851E+02  0.6694E+03
  11.390  0.2322E+02  0.2060E+02  0.6698E+03
  11.400  0.2415E+02  0.2275E+02  0.6703E+03
  11.410  0.2520E+02  0.2463E+02  0.6708E+03
  11.420  0.2698E+02  0.2712E+02  0.6713E+03
  11.430  0.2837E+02  0.2937E+02  0.6718E+03
  11.440  0.3019E+02  0.3046E+02  0.6724E+03
  11.450  0.3058E+02  0.3042E+02  0.6730E+03
  11.460  0.2950E+02  0.2959E+02  0.6736E+03
  11.470  0.2667E+02  0.2701E+02  0.6742E+03
  11.480  0.2691E+02  0.2595E+02  0.6747E+03
  11.490  0.2585E+02  0.2631E+02  0.6753E+03
  11.500  0.2462E+02  0.2553E+02  0.6758E+03
  11.510  0.2364E+02  0.2535E+02  0.6763E+03
  11.520  0.2327E+02  0.2494E+02  0.6767E+03
  11.530  0.2314E+02  0.2475E+02  0.6772E+03
  11.540  0.2275E+02  0.2460E+02  0.6777E+03
  11.550  0.2241E+02  0.2321E+02  0.6782E+03
  11.560  0.2198E+02  0.2274E+02  0.6786E+03
  11.570  0.2130E+02  0.2222E+02  0.6791E+03
  11.580  0.2176E+02  0.2141E+02  0.6795E+03
  11.590  0.2272E+02  0.2170E+02  0.6799E+03
  11.600  0.2296E+02  0.2182E+02  0.6804E+03
  11.610  0.2367E+02  0.2152E+02  0.6808E+03
  11.620  0.2456E+02  0.2124E+02  0.6813E+03
  11.630  0.2563E+02  0.2202E+02  0.6817E+03
  11.640  0.2630E+02  0.2216E+02  0.6822E+03
  11.650  0.2595E+02  0.2249E+02  0.6827E+03
  11.660  0.2553E+02  0.2371E+02  0.6832E+03
  11.670  0.2394E+02  0.2407E+02  0.6837E+03
  11.680  0.2312E+02  0.2360E+02  0.6842E+03
  11.690  0.2295E+02  0.2277E+02  0.6846E+03
  11.700  0.2702E+02  0.2243E+02  0.6851E+03
  11.710  0.2238E+02  0.2066E+02  0.6856E+03
  11.720  0.2179E+02  0.1755E+02  0.6860E+03
  11.730  0.2207E+02  0.1891E+02  0.6864E+03
  11.740  0.2561E+02  0.2031E+02  0.6868E+03
  11.750  0.3689E+02  0.2347E+02  0.6873E+03
  11.760  0.2506E+02  0.2478E+02  0.6879E+03
  11.770  0.2550E+02  0.2855E+02  0.6884E+03
  11.780  0.2545E+02  0.3026E+02  0.6890E+03
  11.790  0.2563E+02  0.3038E+02  0.6895E+03
  11.800  0.2524E+02  0.3032E+02  0.6901E+03
  11.810  0.2435E+02  0.2951E+02  0.6906E+03
  11.820  0.2334E+02  0.2737E+02  0.6911E+03
  11.830  0.2245E+02  0.2462E+02  0.6916E+03
  11.840  0.2149E+02  0.2298E+02  0.6921E+03
  11.850  0.2062E+02  0.2188E+02  0.6925E+03
  11.860  0.1962E+02  0.2093E+02  0.6929E+03
  11.870  0.1845E+02  0.2004E+02  0.6933E+03
  11.880  0.1733E+02  0.1912E+02  0.6937E+03
  11.890  0.1621E+02  0.1804E+02  0.6941E+03
  11.900  0.1505E+02  0.1706E+02  0.6944E+03
  11.910  0.1385E+02  0.1617E+02  0.6947E+03
  11.920  0.1276E+02  0.1528E+02  0.6950E+03
  11.930  0.1194E+02  0.1434E+02  0.6953E+03
  11.940  0.1133E+02  0.1363E+02  0.6955E+03
  11.950  0.1093E+02  0.1312E+02  0.6958E+03
  11.960  0.1038E+02  0.1214E+02  0.6960E+03
  11.970  0.9763E+01  0.1137E+02  0.6962E+03
  11.980  0.9174E+01  0.1083E+02  0.6964E+03
  11.990  0.8544E+01  0.1029E+02  0.6966E+03
  12.000  0.7859E+01  0.9730E+01  0.6968E+03
  12.010  0.7182E+01  0.9202E+01  0.6970E+03
  12.020  0.6434E+01  0.8664E+01  0.6971E+03
  12.030  0.5578E+01  0.8007E+01  0.6973E+03
  12.040  0.4620E+01  0.7171E+01  0.6974E+03
  12.050  0.3852E+01  0.6224E+01  0.6975E+03
  12.060  0.3097E+01  0.5267E+01  0.6976E+03
  12.070  0.2646E+01  0.3897E+01  0.6977E+03
  12.080  0.2281E+01  0.3132E+01  0.6977E+03
  12.090  0.1957E+01  0.2661E+01  0.6978E+03
  12.100  0.1659E+01  0.2251E+01  0.6978E+03
  12.110  0.1387E+01  0.1889E+01  0.6979E+03
  12.120  0.1140E+01  0.1562E+01  0.6979E+03
  12.130  0.9194E+00  0.1268E+01  0.6979E+03
  12.140  0.7240E+00  0.1007E+01  0.6979E+03
  12.150  0.5543E+00  0.7784E+00  0.6980E+03
  12.160  0.4101E+00  0.5828E+00  0.6980E+03
  12.170  0.2914E+00  0.4201E+00  0.6980E+03
  12.180  0.1984E+00  0.2904E+00  0.6980E+03
  12.190  0.1309E+00  0.1935E+00  0.6980E+03
  12.200  0.8902E-01  0.1295E+00  0.6980E+03
  12.210  0.6859E-01  0.9421E-01  0.6980E+03
  12.220  0.6074E-01  0.7710E-01  0.6980E+03
  12.230  0.5582E-01  0.6920E-01  0.6980E+03
  12.240  0.5119E-01  0.6261E-01  0.6980E+03
  12.250  0.4676E-01  0.5674E-01  0.6980E+03
  12.260  0.4253E-01  0.5154E-01  0.6980E+03
  12.270  0.3850E-01  0.4680E-01  0.6980E+03
  12.280  0.3467E-01  0.4236E-01  0.6980E+03
  12.290  0.3104E-01  0.3814E-01  0.6980E+03
  12.300  0.2762E-01  0.3413E-01  0.6980E+03
  12.310  0.2439E-01  0.3036E-01  0.6980E+03
  12.320  0.2136E-01  0.2680E-01  0.6980E+03
  12.330  0.1854E-01  0.2346E-01  0.6980E+03
  12.340  0.1592E-01  0.2035E-01  0.6980E+03
  12.350  0.1349E-01  0.1746E-01  0.6980E+03
  12.360  0.1127E-01  0.1479E-01  0.6980E+03
  12.370  0.9245E-02  0.1234E-01  0.6980E+03
  12.380  0.7423E-02  0.1012E-01  0.6980E+03
  12.390  0.5802E-02  0.8111E-02  0.6980E+03
  12.400  0.4380E-02  0.6329E-02  0.6980E+03
  12.410  0.3160E-02  0.4769E-02  0.6980E+03
  12.420  0.2140E-02  0.3431E-02  0.6980E+03
  12.430  0.1321E-02  0.2315E-02  0.6980E+03
  12.440  0.7018E-03  0.1421E-02  0.6980E+03
  12.450  0.2836E-03  0.7486E-03  0.6980E+03
  12.460  0.6592E-04  0.2983E-03  0.6980E+03
  12.470  0.1693E-05  0.6980E-04  0.6980E+03
  12.480  0.0000E+00  0.1705E-05  0.6980E+03
  12.490  0.0000E+00  0.0000E+00  0.6980E+03
  12.500  0.0000E+00  0.0000E+00  0.6980E+03
  12.510  0.0000E+00  0.0000E+00  0.6980E+03
  12.520  0.0000E+00  0.0000E+00  0.6980E+03
  12.530  0.0000E+00  0.0000E+00  0.6980E+03
  12.540  0.0000E+00  0.0000E+00  0.6980E+03
  12.550  0.0000E+00  0.0000E+00  0.6980E+03
  12.560  0.0000E+00  0.0000E+00  0.6980E+03
  12.570  0.0000E+00  0.0000E+00  0.6980E+03
  12.580  0.0000E+00  0.0000E+00  0.6980E+03
  12.590  0.0000E+00  0.0000E+00  0.6980E+03
  12.600  0.0000E+00  0.0000E+00  0.6980E+03
  12.610  0.0000E+00  0.0000E+00  0.6980E+03
  12.620  0.0000E+00  0.0000E+00  0.6980E+03
  12.630  0.0000E+00  0.0000E+00  0.6980E+03
  12.640  0.0000E+00  0.0000E+00  0.6980E+03
  12.650  0.0000E+00  0.0000E+00  0.6980E+03
  12.660  0.0000E+00  0.0000E+00  0.6980E+03
  12.670  0.0000E+00  0.0000E+00  0.6980E+03
  12.680  0.0000E+00  0.0000E+00  0.6980E+03
  12.690  0.0000E+00  0.0000E+00  0.6980E+03
  12.700  0.0000E+00  0.0000E+00  0.6980E+03
  12.710  0.0000E+00  0.0000E+00  0.6980E+03
  12.720  0.0000E+00  0.0000E+00  0.6980E+03
  12.730  0.0000E+00  0.0000E+00  0.6980E+03
  12.740  0.0000E+00  0.0000E+00  0.6980E+03
  12.750  0.0000E+00  0.0000E+00  0.6980E+03
  12.760  0.0000E+00  0.0000E+00  0.6980E+03
  12.770  0.0000E+00  0.0000E+00  0.6980E+03
  12.780  0.0000E+00  0.0000E+00  0.6980E+03
  12.790  0.0000E+00  0.0000E+00  0.6980E+03
  12.800  0.0000E+00  0.0000E+00  0.6980E+03
  12.810  0.0000E+00  0.0000E+00  0.6980E+03
  12.820  0.0000E+00  0.0000E+00  0.6980E+03
  12.830  0.0000E+00  0.0000E+00  0.6980E+03
  12.840  0.0000E+00  0.0000E+00  0.6980E+03
  12.850  0.0000E+00  0.0000E+00  0.6980E+03
  12.860  0.0000E+00  0.0000E+00  0.6980E+03
  12.870  0.0000E+00  0.0000E+00  0.6980E+03
  12.880  0.0000E+00  0.0000E+00  0.6980E+03
  12.890  0.0000E+00  0.0000E+00  0.6980E+03
  12.900  0.0000E+00  0.0000E+00  0.6980E+03
  12.910  0.0000E+00  0.0000E+00  0.6980E+03
  12.920  0.0000E+00  0.0000E+00  0.6980E+03
  12.930  0.0000E+00  0.0000E+00  0.6980E+03
  12.940  0.0000E+00  0.0000E+00  0.6980E+03
  12.950  0.0000E+00  0.0000E+00  0.6980E+03
  12.960  0.0000E+00  0.0000E+00  0.6980E+03
  12.970  0.0000E+00  0.0000E+00  0.6980E+03
  12.980  0.0000E+00  0.0000E+00  0.6980E+03
  12.990  0.0000E+00  0.0000E+00  0.6980E+03
  13.000  0.0000E+00  0.0000E+00  0.6980E+03
  13.010  0.0000E+00  0.0000E+00  0.6980E+03
  13.020  0.0000E+00  0.0000E+00  0.6980E+03
  13.030  0.0000E+00  0.0000E+00  0.6980E+03
  13.040  0.0000E+00  0.0000E+00  0.6980E+03
  13.050  0.0000E+00  0.0000E+00  0.6980E+03
  13.060  0.0000E+00  0.0000E+00  0.6980E+03
  13.070  0.0000E+00  0.0000E+00  0.6980E+03
  13.080  0.0000E+00  0.0000E+00  0.6980E+03
  13.090  0.0000E+00  0.0000E+00  0.6980E+03
  13.100  0.0000E+00  0.0000E+00  0.6980E+03
  13.110  0.0000E+00  0.0000E+00  0.6980E+03
  13.120  0.0000E+00  0.0000E+00  0.6980E+03
  13.130  0.0000E+00  0.0000E+00  0.6980E+03
  13.140  0.0000E+00  0.0000E+00  0.6980E+03
  13.150  0.0000E+00  0.0000E+00  0.6980E+03
  13.160  0.0000E+00  0.0000E+00  0.6980E+03
  13.170  0.0000E+00  0.0000E+00  0.6980E+03
  13.180  0.0000E+00  0.0000E+00  0.6980E+03
  13.190  0.0000E+00  0.0000E+00  0.6980E+03
  13.200  0.0000E+00  0.0000E+00  0.6980E+03
  13.210  0.0000E+00  0.0000E+00  0.6980E+03
  13.220  0.0000E+00  0.0000E+00  0.6980E+03
  13.230  0.0000E+00  0.0000E+00  0.6980E+03
  13.240  0.0000E+00  0.0000E+00  0.6980E+03
  13.250  0.0000E+00  0.0000E+00  0.6980E+03
  13.260  0.0000E+00  0.0000E+00  0.6980E+03
  13.270  0.0000E+00  0.0000E+00  0.6980E+03
  13.280  0.0000E+00  0.0000E+00  0.6980E+03
  13.290  0.0000E+00  0.0000E+00  0.6980E+03
  13.300  0.0000E+00  0.0000E+00  0.6980E+03
  13.310  0.0000E+00  0.0000E+00  0.6980E+03
  13.320  0.0000E+00  0.0000E+00  0.6980E+03
  13.330  0.0000E+00  0.0000E+00  0.6980E+03
  13.340  0.0000E+00  0.0000E+00  0.6980E+03
  13.350  0.0000E+00  0.0000E+00  0.6980E+03
  13.360  0.0000E+00  0.0000E+00  0.6980E+03
  13.370  0.0000E+00  0.0000E+00  0.6980E+03
  13.380  0.0000E+00  0.0000E+00  0.6980E+03
  13.390  0.0000E+00  0.0000E+00  0.6980E+03
  13.400  0.0000E+00  0.0000E+00  0.6980E+03
  13.410  0.0000E+00  0.0000E+00  0.6980E+03
  13.420  0.0000E+00  0.0000E+00  0.6980E+03
  13.430  0.0000E+00  0.0000E+00  0.6980E+03
  13.440  0.0000E+00  0.0000E+00  0.6980E+03
  13.450  0.0000E+00  0.0000E+00  0.6980E+03
  13.460  0.0000E+00  0.0000E+00  0.6980E+03
  13.470  0.0000E+00  0.0000E+00  0.6980E+03
  13.480  0.0000E+00  0.0000E+00  0.6980E+03
  13.490  0.0000E+00  0.0000E+00  0.6980E+03
  13.500  0.0000E+00  0.0000E+00  0.6980E+03
  13.510  0.0000E+00  0.0000E+00  0.6980E+03
  13.520  0.0000E+00  0.0000E+00  0.6980E+03
  13.530  0.0000E+00  0.0000E+00  0.6980E+03
  13.540  0.0000E+00  0.0000E+00  0.6980E+03
  13.550  0.0000E+00  0.0000E+00  0.6980E+03
  13.560  0.0000E+00  0.0000E+00  0.6980E+03
  13.570  0.0000E+00  0.0000E+00  0.6980E+03
  13.580  0.0000E+00  0.0000E+00  0.6980E+03
  13.590  0.0000E+00  0.0000E+00  0.6980E+03
  13.600  0.0000E+00  0.0000E+00  0.6980E+03
  13.610  0.0000E+00  0.0000E+00  0.6980E+03
  13.620  0.0000E+00  0.0000E+00  0.6980E+03
  13.630  0.0000E+00  0.0000E+00  0.6980E+03
  13.640  0.0000E+00  0.0000E+00  0.6980E+03
  13.650  0.0000E+00  0.0000E+00  0.6980E+03
  13.660  0.0000E+00  0.0000E+00  0.6980E+03
  13.670  0.0000E+00  0.0000E+00  0.6980E+03
  13.680  0.0000E+00  0.0000E+00  0.6980E+03
  13.690  0.0000E+00  0.0000E+00  0.6980E+03
  13.700  0.0000E+00  0.0000E+00  0.6980E+03
  13.710  0.0000E+00  0.0000E+00  0.6980E+03
  13.720  0.0000E+00  0.0000E+00  0.6980E+03
  13.730  0.0000E+00  0.0000E+00  0.6980E+03
  13.740  0.0000E+00  0.0000E+00  0.6980E+03
  13.750  0.0000E+00  0.0000E+00  0.6980E+03
  13.760  0.0000E+00  0.0000E+00  0.6980E+03
  13.770  0.0000E+00  0.0000E+00  0.6980E+03
  13.780  0.0000E+00  0.0000E+00  0.6980E+03
  13.790  0.0000E+00  0.0000E+00  0.6980E+03
  13.800  0.0000E+00  0.0000E+00  0.6980E+03
  13.810  0.0000E+00  0.0000E+00  0.6980E+03
  13.820  0.0000E+00  0.0000E+00  0.6980E+03
  13.830  0.0000E+00  0.0000E+00  0.6980E+03
  13.840  0.0000E+00  0.0000E+00  0.6980E+03
  13.850  0.0000E+00  0.0000E+00  0.6980E+03
  13.860  0.0000E+00  0.0000E+00  0.6980E+03
  13.870  0.0000E+00  0.0000E+00  0.6980E+03
  13.880  0.0000E+00  0.0000E+00  0.6980E+03
  13.890  0.0000E+00  0.0000E+00  0.6980E+03
  13.900  0.0000E+00  0.0000E+00  0.6980E+03
  13.910  0.0000E+00  0.0000E+00  0.6980E+03
  13.920  0.0000E+00  0.0000E+00  0.6980E+03
  13.930  0.0000E+00  0.0000E+00  0.6980E+03
  13.940  0.0000E+00  0.0000E+00  0.6980E+03
  13.950  0.0000E+00  0.0000E+00  0.6980E+03
  13.960  0.0000E+00  0.0000E+00  0.6980E+03
  13.970  0.0000E+00  0.0000E+00  0.6980E+03
  13.980  0.0000E+00  0.0000E+00  0.6980E+03
  13.990  0.0000E+00  0.0000E+00  0.6980E+03
  14.000  0.0000E+00  0.0000E+00  0.6980E+03
  14.010  0.0000E+00  0.0000E+00  0.6980E+03
  14.020  0.0000E+00  0.0000E+00  0.6980E+03
  14.030  0.0000E+00  0.0000E+00  0.6980E+03
  14.040  0.0000E+00  0.0000E+00  0.6980E+03
  14.050  0.0000E+00  0.0000E+00  0.6980E+03
  14.060  0.0000E+00  0.0000E+00  0.6980E+03
  14.070  0.0000E+00  0.0000E+00  0.6980E+03
  14.080  0.0000E+00  0.0000E+00  0.6980E+03
  14.090  0.0000E+00  0.0000E+00  0.6980E+03
  14.100  0.0000E+00  0.0000E+00  0.6980E+03
  14.110  0.0000E+00  0.0000E+00  0.6980E+03
  14.120  0.0000E+00  0.0000E+00  0.6980E+03
  14.130  0.0000E+00  0.0000E+00  0.6980E+03
  14.140  0.0000E+00  0.0000E+00  0.6980E+03
  14.150  0.0000E+00  0.0000E+00  0.6980E+03
  14.160  0.0000E+00  0.0000E+00  0.6980E+03
  14.170  0.0000E+00  0.0000E+00  0.6980E+03
  14.180  0.0000E+00  0.0000E+00  0.6980E+03
  14.190  0.0000E+00  0.0000E+00  0.6980E+03
  14.200  0.0000E+00  0.0000E+00  0.6980E+03
  14.210  0.0000E+00  0.0000E+00  0.6980E+03
  14.220  0.0000E+00  0.0000E+00  0.6980E+03
  14.230  0.0000E+00  0.0000E+00  0.6980E+03
  14.240  0.0000E+00  0.0000E+00  0.6980E+03
  14.250  0.0000E+00  0.0000E+00  0.6980E+03
  14.260  0.0000E+00  0.0000E+00  0.6980E+03
  14.270  0.0000E+00  0.0000E+00  0.6980E+03
  14.280  0.0000E+00  0.0000E+00  0.6980E+03
  14.290  0.0000E+00  0.0000E+00  0.6980E+03
  14.300  0.0000E+00  0.0000E+00  0.6980E+03
  14.310  0.0000E+00  0.0000E+00  0.6980E+03
  14.320  0.0000E+00  0.0000E+00  0.6980E+03
  14.330  0.0000E+00  0.0000E+00  0.6980E+03
  14.340  0.0000E+00  0.0000E+00  0.6980E+03
  14.350  0.0000E+00  0.0000E+00  0.6980E+03
  14.360  0.0000E+00  0.0000E+00  0.6980E+03
  14.370  0.0000E+00  0.0000E+00  0.6980E+03
  14.380  0.0000E+00  0.0000E+00  0.6980E+03
  14.390  0.0000E+00  0.0000E+00  0.6980E+03
  14.400  0.0000E+00  0.0000E+00  0.6980E+03
  14.410  0.0000E+00  0.0000E+00  0.6980E+03
  14.420  0.0000E+00  0.0000E+00  0.6980E+03
  14.430  0.0000E+00  0.0000E+00  0.6980E+03
  14.440  0.0000E+00  0.0000E+00  0.6980E+03
  14.450  0.0000E+00  0.0000E+00  0.6980E+03
  14.460  0.0000E+00  0.0000E+00  0.6980E+03
  14.470  0.0000E+00  0.0000E+00  0.6980E+03
  14.480  0.0000E+00  0.0000E+00  0.6980E+03
  14.490  0.0000E+00  0.0000E+00  0.6980E+03
  14.500  0.0000E+00  0.0000E+00  0.6980E+03
  14.510  0.0000E+00  0.0000E+00  0.6980E+03
  14.520  0.0000E+00  0.0000E+00  0.6980E+03
  14.530  0.0000E+00  0.0000E+00  0.6980E+03
  14.540  0.0000E+00  0.0000E+00  0.6980E+03
  14.550  0.0000E+00  0.0000E+00  0.6980E+03
  14.560  0.0000E+00  0.0000E+00  0.6980E+03
  14.570  0.0000E+00  0.0000E+00  0.6980E+03
  14.580  0.0000E+00  0.0000E+00  0.6980E+03
  14.590  0.0000E+00  0.0000E+00  0.6980E+03
  14.600  0.0000E+00  0.0000E+00  0.6980E+03
  14.610  0.0000E+00  0.0000E+00  0.6980E+03
  14.620  0.0000E+00  0.0000E+00  0.6980E+03
  14.630  0.0000E+00  0.0000E+00  0.6980E+03
  14.640  0.0000E+00  0.0000E+00  0.6980E+03
  14.650  0.0000E+00  0.0000E+00  0.6980E+03
  14.660  0.0000E+00  0.0000E+00  0.6980E+03
  14.670  0.0000E+00  0.0000E+00  0.6980E+03
  14.680  0.0000E+00  0.0000E+00  0.6980E+03
  14.690  0.0000E+00  0.0000E+00  0.6980E+03
  14.700  0.0000E+00  0.0000E+00  0.6980E+03
  14.710  0.0000E+00  0.0000E+00  0.6980E+03
  14.720  0.0000E+00  0.0000E+00  0.6980E+03
  14.730  0.0000E+00  0.0000E+00  0.6980E+03
  14.740  0.0000E+00  0.0000E+00  0.6980E+03
  14.750  0.0000E+00  0.0000E+00  0.6980E+03
  14.760  0.0000E+00  0.0000E+00  0.6980E+03
  14.770  0.0000E+00  0.0000E+00  0.6980E+03
  14.780  0.0000E+00  0.0000E+00  0.6980E+03
  14.790  0.0000E+00  0.0000E+00  0.6980E+03
  14.800  0.0000E+00  0.0000E+00  0.6980E+03
  14.810  0.0000E+00  0.0000E+00  0.6980E+03
  14.820  0.0000E+00  0.0000E+00  0.6980E+03
  14.830  0.0000E+00  0.0000E+00  0.6980E+03
  14.840  0.0000E+00  0.0000E+00  0.6980E+03
  14.850  0.0000E+00  0.0000E+00  0.6980E+03
  14.860  0.0000E+00  0.0000E+00  0.6980E+03
  14.870  0.0000E+00  0.0000E+00  0.6980E+03
  14.880  0.0000E+00  0.0000E+00  0.6980E+03
  14.890  0.0000E+00  0.0000E+00  0.6980E+03
  14.900  0.0000E+00  0.0000E+00  0.6980E+03
  14.910  0.0000E+00  0.0000E+00  0.6980E+03
  14.920  0.0000E+00  0.0000E+00  0.6980E+03
  14.930  0.0000E+00  0.0000E+00  0.6980E+03
  14.940  0.0000E+00  0.0000E+00  0.6980E+03
  14.950  0.0000E+00  0.0000E+00  0.6980E+03
  14.960  0.0000E+00  0.0000E+00  0.6980E+03
  14.970  0.0000E+00  0.0000E+00  0.6980E+03
  14.980  0.0000E+00  0.0000E+00  0.6980E+03
  14.990  0.0000E+00  0.0000E+00  0.6980E+03
  15.000  0.0000E+00  0.0000E+00  0.6980E+03
