# E (eV)   ldos(E)   pdos(E)    pdos(E)    pdos(E)   
   0.000  0.247E+00  0.822E-01  0.822E-01  0.822E-01
   0.010  0.142E+00  0.473E-01  0.473E-01  0.473E-01
   0.020  0.704E-01  0.235E-01  0.235E-01  0.235E-01
   0.030  0.490E-01  0.163E-01  0.163E-01  0.163E-01
   0.040  0.425E-01  0.142E-01  0.142E-01  0.142E-01
   0.050  0.848E-01  0.283E-01  0.283E-01  0.283E-01
   0.060  0.157E+00  0.522E-01  0.522E-01  0.522E-01
   0.070  0.109E+00  0.365E-01  0.365E-01  0.365E-01
   0.080  0.656E-01  0.219E-01  0.219E-01  0.219E-01
   0.090  0.384E-01  0.128E-01  0.128E-01  0.128E-01
   0.100  0.235E-01  0.783E-02  0.783E-02  0.783E-02
   0.110  0.996E-02  0.332E-02  0.332E-02  0.332E-02
   0.120  0.474E-02  0.158E-02  0.158E-02  0.158E-02
   0.130  0.146E-02  0.486E-03  0.486E-03  0.486E-03
   0.140  0.166E-03  0.555E-04  0.555E-04  0.555E-04
   0.150 -0.174E-04 -0.579E-05 -0.579E-05 -0.579E-05
   0.160 -0.109E-07 -0.363E-08 -0.363E-08 -0.363E-08
   0.170  0.000E+00  0.000E+00  0.000E+00  0.000E+00
   0.180  0.000E+00  0.000E+00  0.000E+00  0.000E+00
   0.190  0.000E+00  0.000E+00  0.000E+00  0.000E+00
   0.200  0.132E-05  0.440E-06  0.440E-06  0.440E-06
   0.210  0.589E-04  0.196E-04  0.196E-04  0.196E-04
   0.220  0.321E-03  0.107E-03  0.107E-03  0.107E-03
   0.230  0.922E-03  0.307E-03  0.307E-03  0.307E-03
   0.240  0.186E-02  0.621E-03  0.621E-03  0.621E-03
   0.250  0.313E-02  0.104E-02  0.104E-02  0.104E-02
   0.260  0.473E-02  0.158E-02  0.158E-02  0.158E-02
   0.270  0.664E-02  0.221E-02  0.221E-02  0.221E-02
   0.280  0.886E-02  0.295E-02  0.295E-02  0.295E-02
   0.290  0.114E-01  0.379E-02  0.379E-02  0.379E-02
   0.300  0.142E-01  0.473E-02  0.473E-02  0.473E-02
   0.310  0.173E-01  0.576E-02  0.576E-02  0.576E-02
   0.320  0.207E-01  0.688E-02  0.688E-02  0.688E-02
   0.330  0.243E-01  0.810E-02  0.810E-02  0.810E-02
   0.340  0.288E-01  0.960E-02  0.960E-02  0.960E-02
   0.350  0.404E-01  0.135E-01  0.135E-01  0.135E-01
   0.360  0.616E-01  0.205E-01  0.205E-01  0.205E-01
   0.370  0.801E-01  0.267E-01  0.267E-01  0.267E-01
   0.380  0.951E-01  0.317E-01  0.317E-01  0.317E-01
   0.390  0.107E+00  0.357E-01  0.357E-01  0.357E-01
   0.400  0.116E+00  0.387E-01  0.387E-01  0.387E-01
   0.410  0.122E+00  0.408E-01  0.408E-01  0.408E-01
   0.420  0.126E+00  0.421E-01  0.421E-01  0.421E-01
   0.430  0.128E+00  0.426E-01  0.426E-01  0.426E-01
   0.440  0.127E+00  0.423E-01  0.423E-01  0.423E-01
   0.450  0.124E+00  0.413E-01  0.413E-01  0.413E-01
   0.460  0.124E+00  0.414E-01  0.414E-01  0.414E-01
   0.470  0.131E+00  0.437E-01  0.437E-01  0.437E-01
   0.480  0.140E+00  0.465E-01  0.465E-01  0.465E-01
   0.490  0.148E+00  0.494E-01  0.494E-01  0.494E-01
   0.500  0.157E+00  0.523E-01  0.523E-01  0.523E-01
   0.510  0.166E+00  0.553E-01  0.553E-01  0.553E-01
   0.520  0.175E+00  0.584E-01  0.584E-01  0.584E-01
   0.530  0.185E+00  0.615E-01  0.615E-01  0.615E-01
   0.540  0.194E+00  0.648E-01  0.648E-01  0.648E-01
   0.550  0.204E+00  0.681E-01  0.681E-01  0.681E-01
   0.560  0.213E+00  0.711E-01  0.711E-01  0.711E-01
   0.570  0.227E+00  0.755E-01  0.755E-01  0.755E-01
   0.580  0.283E+00  0.942E-01  0.942E-01  0.942E-01
   0.590  0.365E+00  0.122E+00  0.122E+00  0.122E+00
   0.600  0.372E+00  0.124E+00  0.124E+00  0.124E+00
   0.610  0.374E+00  0.125E+00  0.125E+00  0.125E+00
   0.620  0.372E+00  0.124E+00  0.124E+00  0.124E+00
   0.630  0.369E+00  0.123E+00  0.123E+00  0.123E+00
   0.640  0.368E+00  0.123E+00  0.123E+00  0.123E+00
   0.650  0.396E+00  0.132E+00  0.132E+00  0.132E+00
   0.660  0.375E+00  0.125E+00  0.125E+00  0.125E+00
   0.670  0.347E+00  0.116E+00  0.116E+00  0.116E+00
   0.680  0.350E+00  0.117E+00  0.117E+00  0.117E+00
   0.690  0.357E+00  0.119E+00  0.119E+00  0.119E+00
   0.700  0.365E+00  0.122E+00  0.122E+00  0.122E+00
   0.710  0.374E+00  0.125E+00  0.125E+00  0.125E+00
   0.720  0.383E+00  0.128E+00  0.128E+00  0.128E+00
   0.730  0.394E+00  0.131E+00  0.131E+00  0.131E+00
   0.740  0.404E+00  0.135E+00  0.135E+00  0.135E+00
   0.750  0.415E+00  0.138E+00  0.138E+00  0.138E+00
   0.760  0.425E+00  0.142E+00  0.142E+00  0.142E+00
   0.770  0.449E+00  0.150E+00  0.150E+00  0.150E+00
   0.780  0.481E+00  0.160E+00  0.160E+00  0.160E+00
   0.790  0.516E+00  0.172E+00  0.172E+00  0.172E+00
   0.800  0.598E+00  0.199E+00  0.199E+00  0.199E+00
   0.810  0.702E+00  0.234E+00  0.234E+00  0.234E+00
   0.820  0.755E+00  0.252E+00  0.252E+00  0.252E+00
   0.830  0.758E+00  0.253E+00  0.253E+00  0.253E+00
   0.840  0.705E+00  0.235E+00  0.235E+00  0.235E+00
   0.850  0.626E+00  0.209E+00  0.209E+00  0.209E+00
   0.860  0.659E+00  0.220E+00  0.220E+00  0.220E+00
   0.870  0.746E+00  0.249E+00  0.249E+00  0.249E+00
   0.880  0.861E+00  0.287E+00  0.287E+00  0.287E+00
   0.890  0.107E+01  0.356E+00  0.356E+00  0.356E+00
   0.900  0.142E+01  0.473E+00  0.473E+00  0.473E+00
   0.910  0.151E+01  0.503E+00  0.503E+00  0.503E+00
   0.920  0.196E+01  0.655E+00  0.655E+00  0.655E+00
   0.930  0.246E+01  0.821E+00  0.821E+00  0.821E+00
   0.940  0.250E+01  0.833E+00  0.833E+00  0.833E+00
   0.950  0.213E+01  0.711E+00  0.711E+00  0.711E+00
   0.960  0.117E+01  0.389E+00  0.389E+00  0.389E+00
   0.970  0.122E+01  0.406E+00  0.406E+00  0.406E+00
   0.980  0.114E+01  0.378E+00  0.378E+00  0.378E+00
   0.990  0.102E+01  0.339E+00  0.339E+00  0.339E+00
   1.000  0.864E+00  0.288E+00  0.288E+00  0.288E+00
   1.010  0.674E+00  0.225E+00  0.225E+00  0.225E+00
   1.020  0.452E+00  0.151E+00  0.151E+00  0.151E+00
   1.030  0.329E+00  0.110E+00  0.110E+00  0.110E+00
   1.040  0.370E+00  0.123E+00  0.123E+00  0.123E+00
   1.050  0.499E+00  0.166E+00  0.166E+00  0.166E+00
   1.060  0.620E+00  0.207E+00  0.207E+00  0.207E+00
   1.070  0.678E+00  0.226E+00  0.226E+00  0.226E+00
   1.080  0.683E+00  0.228E+00  0.228E+00  0.228E+00
   1.090  0.714E+00  0.238E+00  0.238E+00  0.238E+00
   1.100  0.720E+00  0.240E+00  0.240E+00  0.240E+00
   1.110  0.722E+00  0.241E+00  0.241E+00  0.241E+00
   1.120  0.726E+00  0.242E+00  0.242E+00  0.242E+00
   1.130  0.736E+00  0.245E+00  0.245E+00  0.245E+00
   1.140  0.745E+00  0.248E+00  0.248E+00  0.248E+00
   1.150  0.760E+00  0.253E+00  0.253E+00  0.253E+00
   1.160  0.776E+00  0.259E+00  0.259E+00  0.259E+00
   1.170  0.776E+00  0.259E+00  0.259E+00  0.259E+00
   1.180  0.763E+00  0.254E+00  0.254E+00  0.254E+00
   1.190  0.740E+00  0.247E+00  0.247E+00  0.247E+00
   1.200  0.706E+00  0.235E+00  0.235E+00  0.235E+00
   1.210  0.662E+00  0.221E+00  0.221E+00  0.221E+00
   1.220  0.607E+00  0.202E+00  0.202E+00  0.202E+00
   1.230  0.555E+00  0.185E+00  0.185E+00  0.185E+00
   1.240  0.516E+00  0.172E+00  0.172E+00  0.172E+00
   1.250  0.481E+00  0.160E+00  0.160E+00  0.160E+00
   1.260  0.458E+00  0.153E+00  0.153E+00  0.153E+00
   1.270  0.443E+00  0.148E+00  0.148E+00  0.148E+00
   1.280  0.428E+00  0.143E+00  0.143E+00  0.143E+00
   1.290  0.413E+00  0.138E+00  0.138E+00  0.138E+00
   1.300  0.401E+00  0.134E+00  0.134E+00  0.134E+00
   1.310  0.390E+00  0.130E+00  0.130E+00  0.130E+00
   1.320  0.382E+00  0.127E+00  0.127E+00  0.127E+00
   1.330  0.388E+00  0.129E+00  0.129E+00  0.129E+00
   1.340  0.403E+00  0.134E+00  0.134E+00  0.134E+00
   1.350  0.416E+00  0.139E+00  0.139E+00  0.139E+00
   1.360  0.425E+00  0.142E+00  0.142E+00  0.142E+00
   1.370  0.430E+00  0.143E+00  0.143E+00  0.143E+00
   1.380  0.431E+00  0.144E+00  0.144E+00  0.144E+00
   1.390  0.429E+00  0.143E+00  0.143E+00  0.143E+00
   1.400  0.425E+00  0.142E+00  0.142E+00  0.142E+00
   1.410  0.417E+00  0.139E+00  0.139E+00  0.139E+00
   1.420  0.407E+00  0.136E+00  0.136E+00  0.136E+00
   1.430  0.396E+00  0.132E+00  0.132E+00  0.132E+00
   1.440  0.382E+00  0.127E+00  0.127E+00  0.127E+00
   1.450  0.367E+00  0.122E+00  0.122E+00  0.122E+00
   1.460  0.351E+00  0.117E+00  0.117E+00  0.117E+00
   1.470  0.335E+00  0.112E+00  0.112E+00  0.112E+00
   1.480  0.317E+00  0.106E+00  0.106E+00  0.106E+00
   1.490  0.300E+00  0.999E-01  0.999E-01  0.999E-01
   1.500  0.281E+00  0.937E-01  0.937E-01  0.937E-01
   1.510  0.264E+00  0.878E-01  0.878E-01  0.878E-01
   1.520  0.254E+00  0.846E-01  0.846E-01  0.846E-01
   1.530  0.247E+00  0.823E-01  0.823E-01  0.823E-01
   1.540  0.243E+00  0.809E-01  0.809E-01  0.809E-01
   1.550  0.241E+00  0.804E-01  0.804E-01  0.804E-01
   1.560  0.242E+00  0.808E-01  0.808E-01  0.808E-01
   1.570  0.249E+00  0.828E-01  0.828E-01  0.828E-01
   1.580  0.257E+00  0.858E-01  0.858E-01  0.858E-01
   1.590  0.264E+00  0.880E-01  0.880E-01  0.880E-01
   1.600  0.297E+00  0.989E-01  0.989E-01  0.989E-01
   1.610  0.344E+00  0.115E+00  0.115E+00  0.115E+00
   1.620  0.355E+00  0.118E+00  0.118E+00  0.118E+00
   1.630  0.333E+00  0.111E+00  0.111E+00  0.111E+00
   1.640  0.289E+00  0.963E-01  0.963E-01  0.963E-01
   1.650  0.236E+00  0.785E-01  0.785E-01  0.785E-01
   1.660  0.188E+00  0.627E-01  0.627E-01  0.627E-01
   1.670  0.157E+00  0.523E-01  0.523E-01  0.523E-01
   1.680  0.151E+00  0.502E-01  0.502E-01  0.502E-01
   1.690  0.164E+00  0.545E-01  0.545E-01  0.545E-01
   1.700  0.184E+00  0.615E-01  0.615E-01  0.615E-01
   1.710  0.207E+00  0.692E-01  0.692E-01  0.692E-01
   1.720  0.230E+00  0.765E-01  0.765E-01  0.765E-01
   1.730  0.248E+00  0.828E-01  0.828E-01  0.828E-01
   1.740  0.264E+00  0.881E-01  0.881E-01  0.881E-01
   1.750  0.277E+00  0.923E-01  0.923E-01  0.923E-01
   1.760  0.286E+00  0.955E-01  0.955E-01  0.955E-01
   1.770  0.293E+00  0.978E-01  0.978E-01  0.978E-01
   1.780  0.298E+00  0.992E-01  0.992E-01  0.992E-01
   1.790  0.299E+00  0.997E-01  0.997E-01  0.997E-01
   1.800  0.298E+00  0.995E-01  0.995E-01  0.995E-01
   1.810  0.295E+00  0.984E-01  0.984E-01  0.984E-01
   1.820  0.290E+00  0.967E-01  0.967E-01  0.967E-01
   1.830  0.283E+00  0.942E-01  0.942E-01  0.942E-01
   1.840  0.273E+00  0.911E-01  0.911E-01  0.911E-01
   1.850  0.263E+00  0.875E-01  0.875E-01  0.875E-01
   1.860  0.252E+00  0.839E-01  0.839E-01  0.839E-01
   1.870  0.243E+00  0.809E-01  0.809E-01  0.809E-01
   1.880  0.236E+00  0.786E-01  0.786E-01  0.786E-01
   1.890  0.229E+00  0.765E-01  0.765E-01  0.765E-01
   1.900  0.223E+00  0.745E-01  0.745E-01  0.745E-01
   1.910  0.218E+00  0.726E-01  0.726E-01  0.726E-01
   1.920  0.214E+00  0.713E-01  0.713E-01  0.713E-01
   1.930  0.211E+00  0.702E-01  0.702E-01  0.702E-01
   1.940  0.207E+00  0.691E-01  0.691E-01  0.691E-01
   1.950  0.205E+00  0.682E-01  0.682E-01  0.682E-01
   1.960  0.203E+00  0.675E-01  0.675E-01  0.675E-01
   1.970  0.202E+00  0.672E-01  0.672E-01  0.672E-01
   1.980  0.202E+00  0.673E-01  0.673E-01  0.673E-01
   1.990  0.202E+00  0.675E-01  0.675E-01  0.675E-01
   2.000  0.203E+00  0.678E-01  0.678E-01  0.678E-01
   2.010  0.205E+00  0.682E-01  0.682E-01  0.682E-01
   2.020  0.206E+00  0.687E-01  0.687E-01  0.687E-01
   2.030  0.207E+00  0.691E-01  0.691E-01  0.691E-01
   2.040  0.209E+00  0.695E-01  0.695E-01  0.695E-01
   2.050  0.210E+00  0.699E-01  0.699E-01  0.699E-01
   2.060  0.211E+00  0.703E-01  0.703E-01  0.703E-01
   2.070  0.211E+00  0.705E-01  0.705E-01  0.705E-01
   2.080  0.212E+00  0.708E-01  0.708E-01  0.708E-01
   2.090  0.213E+00  0.711E-01  0.711E-01  0.711E-01
   2.100  0.213E+00  0.712E-01  0.712E-01  0.712E-01
   2.110  0.214E+00  0.712E-01  0.712E-01  0.712E-01
   2.120  0.209E+00  0.698E-01  0.698E-01  0.698E-01
   2.130  0.209E+00  0.698E-01  0.698E-01  0.698E-01
   2.140  0.235E+00  0.782E-01  0.782E-01  0.782E-01
   2.150  0.273E+00  0.911E-01  0.911E-01  0.911E-01
   2.160  0.266E+00  0.885E-01  0.885E-01  0.885E-01
   2.170  0.239E+00  0.796E-01  0.796E-01  0.796E-01
   2.180  0.231E+00  0.768E-01  0.768E-01  0.768E-01
   2.190  0.222E+00  0.740E-01  0.740E-01  0.740E-01
   2.200  0.212E+00  0.706E-01  0.706E-01  0.706E-01
   2.210  0.200E+00  0.667E-01  0.667E-01  0.667E-01
   2.220  0.189E+00  0.631E-01  0.631E-01  0.631E-01
   2.230  0.183E+00  0.609E-01  0.609E-01  0.609E-01
   2.240  0.181E+00  0.604E-01  0.604E-01  0.604E-01
   2.250  0.181E+00  0.603E-01  0.603E-01  0.603E-01
   2.260  0.181E+00  0.602E-01  0.602E-01  0.602E-01
   2.270  0.181E+00  0.603E-01  0.603E-01  0.603E-01
   2.280  0.181E+00  0.604E-01  0.604E-01  0.604E-01
   2.290  0.182E+00  0.605E-01  0.605E-01  0.605E-01
   2.300  0.182E+00  0.607E-01  0.607E-01  0.607E-01
   2.310  0.183E+00  0.609E-01  0.609E-01  0.609E-01
   2.320  0.183E+00  0.611E-01  0.611E-01  0.611E-01
   2.330  0.184E+00  0.613E-01  0.613E-01  0.613E-01
   2.340  0.186E+00  0.621E-01  0.621E-01  0.621E-01
   2.350  0.235E+00  0.784E-01  0.784E-01  0.784E-01
   2.360  0.252E+00  0.841E-01  0.841E-01  0.841E-01
   2.370  0.271E+00  0.905E-01  0.905E-01  0.905E-01
   2.380  0.292E+00  0.974E-01  0.974E-01  0.974E-01
   2.390  0.319E+00  0.106E+00  0.106E+00  0.106E+00
   2.400  0.345E+00  0.115E+00  0.115E+00  0.115E+00
   2.410  0.367E+00  0.122E+00  0.122E+00  0.122E+00
   2.420  0.387E+00  0.129E+00  0.129E+00  0.129E+00
   2.430  0.405E+00  0.135E+00  0.135E+00  0.135E+00
   2.440  0.421E+00  0.140E+00  0.140E+00  0.140E+00
   2.450  0.434E+00  0.145E+00  0.145E+00  0.145E+00
   2.460  0.448E+00  0.149E+00  0.149E+00  0.149E+00
   2.470  0.459E+00  0.153E+00  0.153E+00  0.153E+00
   2.480  0.470E+00  0.157E+00  0.157E+00  0.157E+00
   2.490  0.483E+00  0.161E+00  0.161E+00  0.161E+00
   2.500  0.517E+00  0.172E+00  0.172E+00  0.172E+00
   2.510  0.547E+00  0.182E+00  0.182E+00  0.182E+00
   2.520  0.605E+00  0.202E+00  0.202E+00  0.202E+00
   2.530  0.676E+00  0.225E+00  0.225E+00  0.225E+00
   2.540  0.733E+00  0.244E+00  0.244E+00  0.244E+00
   2.550  0.775E+00  0.258E+00  0.258E+00  0.258E+00
   2.560  0.841E+00  0.280E+00  0.280E+00  0.280E+00
   2.570  0.915E+00  0.305E+00  0.305E+00  0.305E+00
   2.580  0.104E+01  0.345E+00  0.345E+00  0.345E+00
   2.590  0.120E+01  0.399E+00  0.399E+00  0.399E+00
   2.600  0.140E+01  0.467E+00  0.467E+00  0.467E+00
   2.610  0.164E+01  0.546E+00  0.546E+00  0.546E+00
   2.620  0.204E+01  0.680E+00  0.680E+00  0.680E+00
   2.630  0.180E+01  0.600E+00  0.600E+00  0.600E+00
   2.640  0.957E+00  0.319E+00  0.319E+00  0.319E+00
   2.650  0.775E+00  0.258E+00  0.258E+00  0.258E+00
   2.660  0.666E+00  0.222E+00  0.222E+00  0.222E+00
   2.670  0.598E+00  0.199E+00  0.199E+00  0.199E+00
   2.680  0.540E+00  0.180E+00  0.180E+00  0.180E+00
   2.690  0.490E+00  0.163E+00  0.163E+00  0.163E+00
   2.700  0.474E+00  0.158E+00  0.158E+00  0.158E+00
   2.710  0.935E+00  0.312E+00  0.312E+00  0.312E+00
   2.720  0.158E+01  0.527E+00  0.527E+00  0.527E+00
   2.730  0.992E+00  0.331E+00  0.331E+00  0.331E+00
   2.740  0.927E+00  0.309E+00  0.309E+00  0.309E+00
   2.750  0.618E+00  0.206E+00  0.206E+00  0.206E+00
   2.760  0.525E+00  0.175E+00  0.175E+00  0.175E+00
   2.770  0.536E+00  0.179E+00  0.179E+00  0.179E+00
   2.780  0.536E+00  0.179E+00  0.179E+00  0.179E+00
   2.790  0.546E+00  0.182E+00  0.182E+00  0.182E+00
   2.800  0.534E+00  0.178E+00  0.178E+00  0.178E+00
   2.810  0.517E+00  0.172E+00  0.172E+00  0.172E+00
   2.820  0.524E+00  0.175E+00  0.175E+00  0.175E+00
   2.830  0.550E+00  0.183E+00  0.183E+00  0.183E+00
   2.840  0.580E+00  0.193E+00  0.193E+00  0.193E+00
   2.850  0.614E+00  0.205E+00  0.205E+00  0.205E+00
   2.860  0.653E+00  0.218E+00  0.218E+00  0.218E+00
   2.870  0.710E+00  0.237E+00  0.237E+00  0.237E+00
   2.880  0.800E+00  0.267E+00  0.267E+00  0.267E+00
   2.890  0.976E+00  0.325E+00  0.325E+00  0.325E+00
   2.900  0.113E+01  0.377E+00  0.377E+00  0.377E+00
   2.910  0.118E+01  0.392E+00  0.392E+00  0.392E+00
   2.920  0.123E+01  0.408E+00  0.408E+00  0.408E+00
   2.930  0.127E+01  0.424E+00  0.424E+00  0.424E+00
   2.940  0.131E+01  0.438E+00  0.438E+00  0.438E+00
   2.950  0.135E+01  0.451E+00  0.451E+00  0.451E+00
   2.960  0.139E+01  0.462E+00  0.462E+00  0.462E+00
   2.970  0.151E+01  0.505E+00  0.505E+00  0.505E+00
   2.980  0.121E+01  0.405E+00  0.405E+00  0.405E+00
   2.990  0.928E+00  0.309E+00  0.309E+00  0.309E+00
   3.000  0.863E+00  0.288E+00  0.288E+00  0.288E+00
   3.010  0.843E+00  0.281E+00  0.281E+00  0.281E+00
   3.020  0.825E+00  0.275E+00  0.275E+00  0.275E+00
   3.030  0.809E+00  0.270E+00  0.270E+00  0.270E+00
   3.040  0.795E+00  0.265E+00  0.265E+00  0.265E+00
   3.050  0.771E+00  0.257E+00  0.257E+00  0.257E+00
   3.060  0.748E+00  0.249E+00  0.249E+00  0.249E+00
   3.070  0.727E+00  0.242E+00  0.242E+00  0.242E+00
   3.080  0.720E+00  0.240E+00  0.240E+00  0.240E+00
   3.090  0.756E+00  0.252E+00  0.252E+00  0.252E+00
   3.100  0.820E+00  0.273E+00  0.273E+00  0.273E+00
   3.110  0.855E+00  0.285E+00  0.285E+00  0.285E+00
   3.120  0.876E+00  0.292E+00  0.292E+00  0.292E+00
   3.130  0.984E+00  0.328E+00  0.328E+00  0.328E+00
   3.140  0.115E+01  0.383E+00  0.383E+00  0.383E+00
   3.150  0.120E+01  0.399E+00  0.399E+00  0.399E+00
   3.160  0.125E+01  0.417E+00  0.417E+00  0.417E+00
   3.170  0.122E+01  0.408E+00  0.408E+00  0.408E+00
   3.180  0.135E+01  0.451E+00  0.451E+00  0.451E+00
   3.190  0.137E+01  0.455E+00  0.455E+00  0.455E+00
   3.200  0.137E+01  0.455E+00  0.455E+00  0.455E+00
   3.210  0.134E+01  0.447E+00  0.447E+00  0.447E+00
   3.220  0.132E+01  0.440E+00  0.440E+00  0.440E+00
   3.230  0.132E+01  0.438E+00  0.438E+00  0.438E+00
   3.240  0.133E+01  0.442E+00  0.442E+00  0.442E+00
   3.250  0.123E+01  0.409E+00  0.409E+00  0.409E+00
   3.260  0.163E+01  0.543E+00  0.543E+00  0.543E+00
   3.270  0.128E+01  0.427E+00  0.427E+00  0.427E+00
   3.280  0.129E+01  0.428E+00  0.428E+00  0.428E+00
   3.290  0.131E+01  0.435E+00  0.435E+00  0.435E+00
   3.300  0.136E+01  0.454E+00  0.454E+00  0.454E+00
   3.310  0.142E+01  0.472E+00  0.472E+00  0.472E+00
   3.320  0.145E+01  0.483E+00  0.483E+00  0.483E+00
   3.330  0.146E+01  0.485E+00  0.485E+00  0.485E+00
   3.340  0.146E+01  0.487E+00  0.487E+00  0.487E+00
   3.350  0.145E+01  0.484E+00  0.484E+00  0.484E+00
   3.360  0.142E+01  0.473E+00  0.473E+00  0.473E+00
   3.370  0.139E+01  0.464E+00  0.464E+00  0.464E+00
   3.380  0.139E+01  0.464E+00  0.464E+00  0.464E+00
   3.390  0.141E+01  0.472E+00  0.472E+00  0.472E+00
   3.400  0.144E+01  0.479E+00  0.479E+00  0.479E+00
   3.410  0.147E+01  0.491E+00  0.491E+00  0.491E+00
   3.420  0.151E+01  0.503E+00  0.503E+00  0.503E+00
   3.430  0.148E+01  0.494E+00  0.494E+00  0.494E+00
   3.440  0.143E+01  0.476E+00  0.476E+00  0.476E+00
   3.450  0.137E+01  0.456E+00  0.456E+00  0.456E+00
   3.460  0.131E+01  0.438E+00  0.438E+00  0.438E+00
   3.470  0.129E+01  0.431E+00  0.431E+00  0.431E+00
   3.480  0.130E+01  0.434E+00  0.434E+00  0.434E+00
   3.490  0.133E+01  0.442E+00  0.442E+00  0.442E+00
   3.500  0.136E+01  0.453E+00  0.453E+00  0.453E+00
   3.510  0.135E+01  0.450E+00  0.450E+00  0.450E+00
   3.520  0.135E+01  0.450E+00  0.450E+00  0.450E+00
   3.530  0.150E+01  0.501E+00  0.501E+00  0.501E+00
   3.540  0.145E+01  0.484E+00  0.484E+00  0.484E+00
   3.550  0.116E+01  0.386E+00  0.386E+00  0.386E+00
   3.560  0.110E+01  0.365E+00  0.365E+00  0.365E+00
   3.570  0.107E+01  0.355E+00  0.355E+00  0.355E+00
   3.580  0.105E+01  0.350E+00  0.350E+00  0.350E+00
   3.590  0.104E+01  0.348E+00  0.348E+00  0.348E+00
   3.600  0.105E+01  0.349E+00  0.349E+00  0.349E+00
   3.610  0.107E+01  0.357E+00  0.357E+00  0.357E+00
   3.620  0.116E+01  0.388E+00  0.388E+00  0.388E+00
   3.630  0.125E+01  0.416E+00  0.416E+00  0.416E+00
   3.640  0.123E+01  0.411E+00  0.411E+00  0.411E+00
   3.650  0.145E+01  0.485E+00  0.485E+00  0.485E+00
   3.660  0.144E+01  0.479E+00  0.479E+00  0.479E+00
   3.670  0.186E+01  0.619E+00  0.619E+00  0.619E+00
   3.680  0.160E+01  0.535E+00  0.535E+00  0.535E+00
   3.690  0.180E+01  0.599E+00  0.599E+00  0.599E+00
   3.700  0.206E+01  0.686E+00  0.686E+00  0.686E+00
   3.710  0.197E+01  0.657E+00  0.657E+00  0.657E+00
   3.720  0.190E+01  0.635E+00  0.635E+00  0.635E+00
   3.730  0.189E+01  0.630E+00  0.630E+00  0.630E+00
   3.740  0.186E+01  0.621E+00  0.621E+00  0.621E+00
   3.750  0.180E+01  0.601E+00  0.601E+00  0.601E+00
   3.760  0.173E+01  0.575E+00  0.575E+00  0.575E+00
   3.770  0.158E+01  0.526E+00  0.526E+00  0.526E+00
   3.780  0.131E+01  0.437E+00  0.437E+00  0.437E+00
   3.790  0.112E+01  0.373E+00  0.373E+00  0.373E+00
   3.800  0.102E+01  0.339E+00  0.339E+00  0.339E+00
   3.810  0.954E+00  0.318E+00  0.318E+00  0.318E+00
   3.820  0.913E+00  0.304E+00  0.304E+00  0.304E+00
   3.830  0.904E+00  0.301E+00  0.301E+00  0.301E+00
   3.840  0.903E+00  0.301E+00  0.301E+00  0.301E+00
   3.850  0.909E+00  0.303E+00  0.303E+00  0.303E+00
   3.860  0.928E+00  0.309E+00  0.309E+00  0.309E+00
   3.870  0.962E+00  0.321E+00  0.321E+00  0.321E+00
   3.880  0.101E+01  0.336E+00  0.336E+00  0.336E+00
   3.890  0.106E+01  0.355E+00  0.355E+00  0.355E+00
   3.900  0.114E+01  0.380E+00  0.380E+00  0.380E+00
   3.910  0.123E+01  0.409E+00  0.409E+00  0.409E+00
   3.920  0.130E+01  0.432E+00  0.432E+00  0.432E+00
   3.930  0.135E+01  0.450E+00  0.450E+00  0.450E+00
   3.940  0.139E+01  0.463E+00  0.463E+00  0.463E+00
   3.950  0.145E+01  0.484E+00  0.484E+00  0.484E+00
   3.960  0.152E+01  0.507E+00  0.507E+00  0.507E+00
   3.970  0.160E+01  0.532E+00  0.532E+00  0.532E+00
   3.980  0.168E+01  0.560E+00  0.560E+00  0.560E+00
   3.990  0.165E+01  0.549E+00  0.549E+00  0.549E+00
   4.000  0.165E+01  0.550E+00  0.550E+00  0.550E+00
   4.010  0.158E+01  0.526E+00  0.526E+00  0.526E+00
   4.020  0.143E+01  0.478E+00  0.478E+00  0.478E+00
   4.030  0.140E+01  0.468E+00  0.468E+00  0.468E+00
   4.040  0.137E+01  0.455E+00  0.455E+00  0.455E+00
   4.050  0.132E+01  0.440E+00  0.440E+00  0.440E+00
   4.060  0.131E+01  0.436E+00  0.436E+00  0.436E+00
   4.070  0.139E+01  0.462E+00  0.462E+00  0.462E+00
   4.080  0.136E+01  0.452E+00  0.452E+00  0.452E+00
   4.090  0.124E+01  0.412E+00  0.412E+00  0.412E+00
   4.100  0.125E+01  0.416E+00  0.416E+00  0.416E+00
   4.110  0.125E+01  0.418E+00  0.418E+00  0.418E+00
   4.120  0.128E+01  0.426E+00  0.426E+00  0.426E+00
   4.130  0.134E+01  0.446E+00  0.446E+00  0.446E+00
   4.140  0.141E+01  0.469E+00  0.469E+00  0.469E+00
   4.150  0.152E+01  0.507E+00  0.507E+00  0.507E+00
   4.160  0.173E+01  0.578E+00  0.578E+00  0.578E+00
   4.170  0.205E+01  0.685E+00  0.685E+00  0.685E+00
   4.180  0.226E+01  0.754E+00  0.754E+00  0.754E+00
   4.190  0.243E+01  0.810E+00  0.810E+00  0.810E+00
   4.200  0.230E+01  0.766E+00  0.766E+00  0.766E+00
   4.210  0.248E+01  0.825E+00  0.825E+00  0.825E+00
   4.220  0.154E+01  0.512E+00  0.512E+00  0.512E+00
   4.230  0.134E+01  0.445E+00  0.445E+00  0.445E+00
   4.240  0.124E+01  0.413E+00  0.413E+00  0.413E+00
   4.250  0.122E+01  0.408E+00  0.408E+00  0.408E+00
   4.260  0.124E+01  0.413E+00  0.413E+00  0.413E+00
   4.270  0.121E+01  0.404E+00  0.404E+00  0.404E+00
   4.280  0.114E+01  0.379E+00  0.379E+00  0.379E+00
   4.290  0.104E+01  0.348E+00  0.348E+00  0.348E+00
   4.300  0.101E+01  0.335E+00  0.335E+00  0.335E+00
   4.310  0.989E+00  0.330E+00  0.330E+00  0.330E+00
   4.320  0.989E+00  0.330E+00  0.330E+00  0.330E+00
   4.330  0.100E+01  0.334E+00  0.334E+00  0.334E+00
   4.340  0.101E+01  0.336E+00  0.336E+00  0.336E+00
   4.350  0.102E+01  0.338E+00  0.338E+00  0.338E+00
   4.360  0.101E+01  0.336E+00  0.336E+00  0.336E+00
   4.370  0.997E+00  0.332E+00  0.332E+00  0.332E+00
   4.380  0.103E+01  0.342E+00  0.342E+00  0.342E+00
   4.390  0.105E+01  0.350E+00  0.350E+00  0.350E+00
   4.400  0.107E+01  0.358E+00  0.358E+00  0.358E+00
   4.410  0.110E+01  0.366E+00  0.366E+00  0.366E+00
   4.420  0.112E+01  0.374E+00  0.374E+00  0.374E+00
   4.430  0.117E+01  0.390E+00  0.390E+00  0.390E+00
   4.440  0.135E+01  0.448E+00  0.448E+00  0.448E+00
   4.450  0.148E+01  0.493E+00  0.493E+00  0.493E+00
   4.460  0.162E+01  0.541E+00  0.541E+00  0.541E+00
   4.470  0.169E+01  0.563E+00  0.563E+00  0.563E+00
   4.480  0.174E+01  0.579E+00  0.579E+00  0.579E+00
   4.490  0.195E+01  0.651E+00  0.651E+00  0.651E+00
   4.500  0.204E+01  0.681E+00  0.681E+00  0.681E+00
   4.510  0.205E+01  0.684E+00  0.684E+00  0.684E+00
   4.520  0.182E+01  0.607E+00  0.607E+00  0.607E+00
   4.530  0.156E+01  0.518E+00  0.518E+00  0.518E+00
   4.540  0.162E+01  0.539E+00  0.539E+00  0.539E+00
   4.550  0.151E+01  0.505E+00  0.505E+00  0.505E+00
   4.560  0.158E+01  0.526E+00  0.526E+00  0.526E+00
   4.570  0.182E+01  0.608E+00  0.608E+00  0.608E+00
   4.580  0.200E+01  0.667E+00  0.667E+00  0.667E+00
   4.590  0.206E+01  0.687E+00  0.687E+00  0.687E+00
   4.600  0.189E+01  0.629E+00  0.629E+00  0.629E+00
   4.610  0.148E+01  0.494E+00  0.494E+00  0.494E+00
   4.620  0.124E+01  0.414E+00  0.414E+00  0.414E+00
   4.630  0.111E+01  0.369E+00  0.369E+00  0.369E+00
   4.640  0.102E+01  0.341E+00  0.341E+00  0.341E+00
   4.650  0.957E+00  0.319E+00  0.319E+00  0.319E+00
   4.660  0.906E+00  0.302E+00  0.302E+00  0.302E+00
   4.670  0.867E+00  0.289E+00  0.289E+00  0.289E+00
   4.680  0.839E+00  0.280E+00  0.280E+00  0.280E+00
   4.690  0.819E+00  0.273E+00  0.273E+00  0.273E+00
   4.700  0.805E+00  0.268E+00  0.268E+00  0.268E+00
   4.710  0.792E+00  0.264E+00  0.264E+00  0.264E+00
   4.720  0.780E+00  0.260E+00  0.260E+00  0.260E+00
   4.730  0.768E+00  0.256E+00  0.256E+00  0.256E+00
   4.740  0.755E+00  0.252E+00  0.252E+00  0.252E+00
   4.750  0.745E+00  0.248E+00  0.248E+00  0.248E+00
   4.760  0.738E+00  0.246E+00  0.246E+00  0.246E+00
   4.770  0.740E+00  0.247E+00  0.247E+00  0.247E+00
   4.780  0.769E+00  0.256E+00  0.256E+00  0.256E+00
   4.790  0.845E+00  0.282E+00  0.282E+00  0.282E+00
   4.800  0.887E+00  0.296E+00  0.296E+00  0.296E+00
   4.810  0.825E+00  0.275E+00  0.275E+00  0.275E+00
   4.820  0.787E+00  0.262E+00  0.262E+00  0.262E+00
   4.830  0.791E+00  0.264E+00  0.264E+00  0.264E+00
   4.840  0.788E+00  0.263E+00  0.263E+00  0.263E+00
   4.850  0.779E+00  0.260E+00  0.260E+00  0.260E+00
   4.860  0.765E+00  0.255E+00  0.255E+00  0.255E+00
   4.870  0.753E+00  0.251E+00  0.251E+00  0.251E+00
   4.880  0.776E+00  0.259E+00  0.259E+00  0.259E+00
   4.890  0.825E+00  0.275E+00  0.275E+00  0.275E+00
   4.900  0.703E+00  0.234E+00  0.234E+00  0.234E+00
   4.910  0.611E+00  0.204E+00  0.204E+00  0.204E+00
   4.920  0.675E+00  0.225E+00  0.225E+00  0.225E+00
   4.930  0.727E+00  0.242E+00  0.242E+00  0.242E+00
   4.940  0.681E+00  0.227E+00  0.227E+00  0.227E+00
   4.950  0.627E+00  0.209E+00  0.209E+00  0.209E+00
   4.960  0.569E+00  0.190E+00  0.190E+00  0.190E+00
   4.970  0.512E+00  0.171E+00  0.171E+00  0.171E+00
   4.980  0.442E+00  0.147E+00  0.147E+00  0.147E+00
   4.990  0.363E+00  0.121E+00  0.121E+00  0.121E+00
   5.000  0.313E+00  0.104E+00  0.104E+00  0.104E+00
   5.010  0.282E+00  0.939E-01  0.939E-01  0.939E-01
   5.020  0.259E+00  0.864E-01  0.864E-01  0.864E-01
   5.030  0.247E+00  0.822E-01  0.822E-01  0.822E-01
   5.040  0.241E+00  0.803E-01  0.803E-01  0.803E-01
   5.050  0.240E+00  0.801E-01  0.801E-01  0.801E-01
   5.060  0.244E+00  0.814E-01  0.814E-01  0.814E-01
   5.070  0.289E+00  0.962E-01  0.962E-01  0.962E-01
   5.080  0.377E+00  0.126E+00  0.126E+00  0.126E+00
   5.090  0.566E+00  0.189E+00  0.189E+00  0.189E+00
   5.100  0.669E+00  0.223E+00  0.223E+00  0.223E+00
   5.110  0.656E+00  0.219E+00  0.219E+00  0.219E+00
   5.120  0.742E+00  0.247E+00  0.247E+00  0.247E+00
   5.130  0.880E+00  0.293E+00  0.293E+00  0.293E+00
   5.140  0.875E+00  0.292E+00  0.292E+00  0.292E+00
   5.150  0.752E+00  0.251E+00  0.251E+00  0.251E+00
   5.160  0.699E+00  0.233E+00  0.233E+00  0.233E+00
   5.170  0.623E+00  0.208E+00  0.208E+00  0.208E+00
   5.180  0.536E+00  0.179E+00  0.179E+00  0.179E+00
   5.190  0.452E+00  0.151E+00  0.151E+00  0.151E+00
   5.200  0.378E+00  0.126E+00  0.126E+00  0.126E+00
   5.210  0.320E+00  0.107E+00  0.107E+00  0.107E+00
   5.220  0.274E+00  0.913E-01  0.913E-01  0.913E-01
   5.230  0.240E+00  0.800E-01  0.800E-01  0.800E-01
   5.240  0.214E+00  0.714E-01  0.714E-01  0.714E-01
   5.250  0.190E+00  0.635E-01  0.635E-01  0.635E-01
   5.260  0.170E+00  0.566E-01  0.566E-01  0.566E-01
   5.270  0.154E+00  0.513E-01  0.513E-01  0.513E-01
   5.280  0.148E+00  0.494E-01  0.494E-01  0.494E-01
   5.290  0.162E+00  0.541E-01  0.541E-01  0.541E-01
   5.300  0.173E+00  0.577E-01  0.577E-01  0.577E-01
   5.310  0.173E+00  0.577E-01  0.577E-01  0.577E-01
   5.320  0.162E+00  0.541E-01  0.541E-01  0.541E-01
   5.330  0.141E+00  0.470E-01  0.470E-01  0.470E-01
   5.340  0.109E+00  0.363E-01  0.363E-01  0.363E-01
   5.350  0.666E-01  0.222E-01  0.222E-01  0.222E-01
   5.360  0.279E-01  0.931E-02  0.931E-02  0.931E-02
   5.370  0.142E-01  0.473E-02  0.473E-02  0.473E-02
   5.380  0.645E-02  0.215E-02  0.215E-02  0.215E-02
   5.390  0.179E-02  0.596E-03  0.596E-03  0.596E-03
   5.400  0.156E-03  0.519E-04  0.519E-04  0.519E-04
   5.410  0.161E-04  0.537E-05  0.537E-05  0.537E-05
   5.420  0.392E-06  0.131E-06  0.131E-06  0.131E-06
   5.430  0.000E+00  0.000E+00  0.000E+00  0.000E+00
   5.440  0.000E+00  0.000E+00  0.000E+00  0.000E+00
   5.450  0.000E+00  0.000E+00  0.000E+00  0.000E+00
   5.460  0.000E+00  0.000E+00  0.000E+00  0.000E+00
   5.470  0.000E+00  0.000E+00  0.000E+00  0.000E+00
   5.480  0.000E+00  0.000E+00  0.000E+00  0.000E+00
   5.490  0.000E+00  0.000E+00  0.000E+00  0.000E+00
   5.500  0.000E+00  0.000E+00  0.000E+00  0.000E+00
   5.510  0.000E+00  0.000E+00  0.000E+00  0.000E+00
   5.520  0.000E+00  0.000E+00  0.000E+00  0.000E+00
   5.530  0.000E+00  0.000E+00  0.000E+00  0.000E+00
   5.540  0.000E+00  0.000E+00  0.000E+00  0.000E+00
   5.550  0.000E+00  0.000E+00  0.000E+00  0.000E+00
   5.560  0.000E+00  0.000E+00  0.000E+00  0.000E+00
   5.570  0.000E+00  0.000E+00  0.000E+00  0.000E+00
   5.580  0.000E+00  0.000E+00  0.000E+00  0.000E+00
   5.590  0.000E+00  0.000E+00  0.000E+00  0.000E+00
   5.600  0.000E+00  0.000E+00  0.000E+00  0.000E+00
   5.610  0.000E+00  0.000E+00  0.000E+00  0.000E+00
   5.620  0.000E+00  0.000E+00  0.000E+00  0.000E+00
   5.630  0.000E+00  0.000E+00  0.000E+00  0.000E+00
   5.640  0.000E+00  0.000E+00  0.000E+00  0.000E+00
   5.650  0.000E+00  0.000E+00  0.000E+00  0.000E+00
   5.660  0.000E+00  0.000E+00  0.000E+00  0.000E+00
   5.670  0.000E+00  0.000E+00  0.000E+00  0.000E+00
   5.680  0.000E+00  0.000E+00  0.000E+00  0.000E+00
   5.690  0.000E+00  0.000E+00  0.000E+00  0.000E+00
   5.700  0.000E+00  0.000E+00  0.000E+00  0.000E+00
   5.710  0.000E+00  0.000E+00  0.000E+00  0.000E+00
   5.720  0.000E+00  0.000E+00  0.000E+00  0.000E+00
   5.730  0.000E+00  0.000E+00  0.000E+00  0.000E+00
   5.740  0.000E+00  0.000E+00  0.000E+00  0.000E+00
   5.750  0.000E+00  0.000E+00  0.000E+00  0.000E+00
   5.760  0.000E+00  0.000E+00  0.000E+00  0.000E+00
   5.770  0.000E+00  0.000E+00  0.000E+00  0.000E+00
   5.780  0.000E+00  0.000E+00  0.000E+00  0.000E+00
   5.790  0.000E+00  0.000E+00  0.000E+00  0.000E+00
   5.800  0.000E+00  0.000E+00  0.000E+00  0.000E+00
   5.810  0.000E+00  0.000E+00  0.000E+00  0.000E+00
   5.820  0.000E+00  0.000E+00  0.000E+00  0.000E+00
   5.830  0.000E+00  0.000E+00  0.000E+00  0.000E+00
   5.840  0.000E+00  0.000E+00  0.000E+00  0.000E+00
   5.850  0.000E+00  0.000E+00  0.000E+00  0.000E+00
   5.860  0.000E+00  0.000E+00  0.000E+00  0.000E+00
   5.870  0.000E+00  0.000E+00  0.000E+00  0.000E+00
   5.880  0.000E+00  0.000E+00  0.000E+00  0.000E+00
   5.890  0.000E+00  0.000E+00  0.000E+00  0.000E+00
   5.900  0.000E+00  0.000E+00  0.000E+00  0.000E+00
   5.910  0.000E+00  0.000E+00  0.000E+00  0.000E+00
   5.920  0.000E+00  0.000E+00  0.000E+00  0.000E+00
   5.930  0.000E+00  0.000E+00  0.000E+00  0.000E+00
   5.940  0.000E+00  0.000E+00  0.000E+00  0.000E+00
   5.950  0.000E+00  0.000E+00  0.000E+00  0.000E+00
   5.960  0.000E+00  0.000E+00  0.000E+00  0.000E+00
   5.970  0.000E+00  0.000E+00  0.000E+00  0.000E+00
   5.980  0.000E+00  0.000E+00  0.000E+00  0.000E+00
   5.990  0.000E+00  0.000E+00  0.000E+00  0.000E+00
   6.000  0.000E+00  0.000E+00  0.000E+00  0.000E+00
   6.010  0.000E+00  0.000E+00  0.000E+00  0.000E+00
   6.020  0.000E+00  0.000E+00  0.000E+00  0.000E+00
   6.030  0.000E+00  0.000E+00  0.000E+00  0.000E+00
   6.040  0.000E+00  0.000E+00  0.000E+00  0.000E+00
   6.050  0.000E+00  0.000E+00  0.000E+00  0.000E+00
   6.060  0.000E+00  0.000E+00  0.000E+00  0.000E+00
   6.070  0.000E+00  0.000E+00  0.000E+00  0.000E+00
   6.080  0.000E+00  0.000E+00  0.000E+00  0.000E+00
   6.090  0.000E+00  0.000E+00  0.000E+00  0.000E+00
   6.100  0.000E+00  0.000E+00  0.000E+00  0.000E+00
   6.110  0.000E+00  0.000E+00  0.000E+00  0.000E+00
   6.120  0.000E+00  0.000E+00  0.000E+00  0.000E+00
   6.130  0.000E+00  0.000E+00  0.000E+00  0.000E+00
   6.140  0.000E+00  0.000E+00  0.000E+00  0.000E+00
   6.150  0.000E+00  0.000E+00  0.000E+00  0.000E+00
   6.160  0.000E+00  0.000E+00  0.000E+00  0.000E+00
   6.170  0.000E+00  0.000E+00  0.000E+00  0.000E+00
   6.180  0.000E+00  0.000E+00  0.000E+00  0.000E+00
   6.190  0.000E+00  0.000E+00  0.000E+00  0.000E+00
   6.200  0.000E+00  0.000E+00  0.000E+00  0.000E+00
   6.210  0.000E+00  0.000E+00  0.000E+00  0.000E+00
   6.220  0.000E+00  0.000E+00  0.000E+00  0.000E+00
   6.230  0.000E+00  0.000E+00  0.000E+00  0.000E+00
   6.240  0.000E+00  0.000E+00  0.000E+00  0.000E+00
   6.250  0.000E+00  0.000E+00  0.000E+00  0.000E+00
   6.260  0.000E+00  0.000E+00  0.000E+00  0.000E+00
   6.270  0.000E+00  0.000E+00  0.000E+00  0.000E+00
   6.280  0.000E+00  0.000E+00  0.000E+00  0.000E+00
   6.290  0.000E+00  0.000E+00  0.000E+00  0.000E+00
   6.300  0.000E+00  0.000E+00  0.000E+00  0.000E+00
   6.310  0.000E+00  0.000E+00  0.000E+00  0.000E+00
   6.320  0.000E+00  0.000E+00  0.000E+00  0.000E+00
   6.330  0.000E+00  0.000E+00  0.000E+00  0.000E+00
   6.340  0.000E+00  0.000E+00  0.000E+00  0.000E+00
   6.350  0.000E+00  0.000E+00  0.000E+00  0.000E+00
   6.360  0.000E+00  0.000E+00  0.000E+00  0.000E+00
   6.370  0.000E+00  0.000E+00  0.000E+00  0.000E+00
   6.380  0.000E+00  0.000E+00  0.000E+00  0.000E+00
   6.390  0.000E+00  0.000E+00  0.000E+00  0.000E+00
   6.400  0.000E+00  0.000E+00  0.000E+00  0.000E+00
   6.410  0.000E+00  0.000E+00  0.000E+00  0.000E+00
   6.420  0.000E+00  0.000E+00  0.000E+00  0.000E+00
   6.430  0.000E+00  0.000E+00  0.000E+00  0.000E+00
   6.440  0.000E+00  0.000E+00  0.000E+00  0.000E+00
   6.450  0.000E+00  0.000E+00  0.000E+00  0.000E+00
   6.460  0.000E+00  0.000E+00  0.000E+00  0.000E+00
   6.470  0.000E+00  0.000E+00  0.000E+00  0.000E+00
   6.480  0.000E+00  0.000E+00  0.000E+00  0.000E+00
   6.490  0.000E+00  0.000E+00  0.000E+00  0.000E+00
   6.500  0.000E+00  0.000E+00  0.000E+00  0.000E+00
   6.510  0.000E+00  0.000E+00  0.000E+00  0.000E+00
   6.520  0.000E+00  0.000E+00  0.000E+00  0.000E+00
   6.530  0.000E+00  0.000E+00  0.000E+00  0.000E+00
   6.540  0.000E+00  0.000E+00  0.000E+00  0.000E+00
   6.550  0.000E+00  0.000E+00  0.000E+00  0.000E+00
   6.560  0.000E+00  0.000E+00  0.000E+00  0.000E+00
   6.570  0.000E+00  0.000E+00  0.000E+00  0.000E+00
   6.580  0.000E+00  0.000E+00  0.000E+00  0.000E+00
   6.590  0.000E+00  0.000E+00  0.000E+00  0.000E+00
   6.600  0.000E+00  0.000E+00  0.000E+00  0.000E+00
   6.610  0.000E+00  0.000E+00  0.000E+00  0.000E+00
   6.620  0.000E+00  0.000E+00  0.000E+00  0.000E+00
   6.630  0.000E+00  0.000E+00  0.000E+00  0.000E+00
   6.640  0.000E+00  0.000E+00  0.000E+00  0.000E+00
   6.650  0.000E+00  0.000E+00  0.000E+00  0.000E+00
   6.660  0.000E+00  0.000E+00  0.000E+00  0.000E+00
   6.670  0.000E+00  0.000E+00  0.000E+00  0.000E+00
   6.680  0.000E+00  0.000E+00  0.000E+00  0.000E+00
   6.690  0.000E+00  0.000E+00  0.000E+00  0.000E+00
   6.700  0.000E+00  0.000E+00  0.000E+00  0.000E+00
   6.710  0.000E+00  0.000E+00  0.000E+00  0.000E+00
   6.720  0.000E+00  0.000E+00  0.000E+00  0.000E+00
   6.730  0.000E+00  0.000E+00  0.000E+00  0.000E+00
   6.740  0.000E+00  0.000E+00  0.000E+00  0.000E+00
   6.750  0.000E+00  0.000E+00  0.000E+00  0.000E+00
   6.760  0.000E+00  0.000E+00  0.000E+00  0.000E+00
   6.770  0.000E+00  0.000E+00  0.000E+00  0.000E+00
   6.780  0.000E+00  0.000E+00  0.000E+00  0.000E+00
   6.790  0.000E+00  0.000E+00  0.000E+00  0.000E+00
   6.800  0.000E+00  0.000E+00  0.000E+00  0.000E+00
   6.810  0.000E+00  0.000E+00  0.000E+00  0.000E+00
   6.820  0.000E+00  0.000E+00  0.000E+00  0.000E+00
   6.830  0.000E+00  0.000E+00  0.000E+00  0.000E+00
   6.840  0.000E+00  0.000E+00  0.000E+00  0.000E+00
   6.850  0.000E+00  0.000E+00  0.000E+00  0.000E+00
   6.860  0.000E+00  0.000E+00  0.000E+00  0.000E+00
   6.870  0.000E+00  0.000E+00  0.000E+00  0.000E+00
   6.880  0.000E+00  0.000E+00  0.000E+00  0.000E+00
   6.890  0.000E+00  0.000E+00  0.000E+00  0.000E+00
   6.900  0.000E+00  0.000E+00  0.000E+00  0.000E+00
   6.910  0.000E+00  0.000E+00  0.000E+00  0.000E+00
   6.920  0.000E+00  0.000E+00  0.000E+00  0.000E+00
   6.930  0.000E+00  0.000E+00  0.000E+00  0.000E+00
   6.940  0.000E+00  0.000E+00  0.000E+00  0.000E+00
   6.950  0.000E+00  0.000E+00  0.000E+00  0.000E+00
   6.960  0.000E+00  0.000E+00  0.000E+00  0.000E+00
   6.970  0.000E+00  0.000E+00  0.000E+00  0.000E+00
   6.980  0.000E+00  0.000E+00  0.000E+00  0.000E+00
   6.990  0.000E+00  0.000E+00  0.000E+00  0.000E+00
   7.000  0.000E+00  0.000E+00  0.000E+00  0.000E+00
   7.010  0.000E+00  0.000E+00  0.000E+00  0.000E+00
   7.020  0.000E+00  0.000E+00  0.000E+00  0.000E+00
   7.030  0.000E+00  0.000E+00  0.000E+00  0.000E+00
   7.040  0.000E+00  0.000E+00  0.000E+00  0.000E+00
   7.050  0.000E+00  0.000E+00  0.000E+00  0.000E+00
   7.060  0.000E+00  0.000E+00  0.000E+00  0.000E+00
   7.070  0.000E+00  0.000E+00  0.000E+00  0.000E+00
   7.080  0.000E+00  0.000E+00  0.000E+00  0.000E+00
   7.090  0.000E+00  0.000E+00  0.000E+00  0.000E+00
   7.100  0.000E+00  0.000E+00  0.000E+00  0.000E+00
   7.110  0.000E+00  0.000E+00  0.000E+00  0.000E+00
   7.120  0.000E+00  0.000E+00  0.000E+00  0.000E+00
   7.130  0.000E+00  0.000E+00  0.000E+00  0.000E+00
   7.140  0.000E+00  0.000E+00  0.000E+00  0.000E+00
   7.150  0.000E+00  0.000E+00  0.000E+00  0.000E+00
   7.160  0.000E+00  0.000E+00  0.000E+00  0.000E+00
   7.170  0.000E+00  0.000E+00  0.000E+00  0.000E+00
   7.180  0.000E+00  0.000E+00  0.000E+00  0.000E+00
   7.190  0.000E+00  0.000E+00  0.000E+00  0.000E+00
   7.200  0.000E+00  0.000E+00  0.000E+00  0.000E+00
   7.210  0.000E+00  0.000E+00  0.000E+00  0.000E+00
   7.220  0.000E+00  0.000E+00  0.000E+00  0.000E+00
   7.230  0.000E+00  0.000E+00  0.000E+00  0.000E+00
   7.240  0.000E+00  0.000E+00  0.000E+00  0.000E+00
   7.250  0.000E+00  0.000E+00  0.000E+00  0.000E+00
   7.260  0.000E+00  0.000E+00  0.000E+00  0.000E+00
   7.270  0.000E+00  0.000E+00  0.000E+00  0.000E+00
   7.280  0.000E+00  0.000E+00  0.000E+00  0.000E+00
   7.290  0.000E+00  0.000E+00  0.000E+00  0.000E+00
   7.300  0.000E+00  0.000E+00  0.000E+00  0.000E+00
   7.310  0.000E+00  0.000E+00  0.000E+00  0.000E+00
   7.320  0.000E+00  0.000E+00  0.000E+00  0.000E+00
   7.330  0.000E+00  0.000E+00  0.000E+00  0.000E+00
   7.340  0.000E+00  0.000E+00  0.000E+00  0.000E+00
   7.350  0.000E+00  0.000E+00  0.000E+00  0.000E+00
   7.360  0.000E+00  0.000E+00  0.000E+00  0.000E+00
   7.370  0.000E+00  0.000E+00  0.000E+00  0.000E+00
   7.380  0.000E+00  0.000E+00  0.000E+00  0.000E+00
   7.390  0.000E+00  0.000E+00  0.000E+00  0.000E+00
   7.400  0.000E+00  0.000E+00  0.000E+00  0.000E+00
   7.410  0.000E+00  0.000E+00  0.000E+00  0.000E+00
   7.420  0.000E+00  0.000E+00  0.000E+00  0.000E+00
   7.430  0.000E+00  0.000E+00  0.000E+00  0.000E+00
   7.440  0.000E+00  0.000E+00  0.000E+00  0.000E+00
   7.450 -0.854E-08 -0.285E-08 -0.285E-08 -0.285E-08
   7.460 -0.564E-07 -0.188E-07 -0.188E-07 -0.188E-07
   7.470 -0.120E-06 -0.402E-07 -0.402E-07 -0.402E-07
   7.480 -0.187E-06 -0.623E-07 -0.623E-07 -0.623E-07
   7.490 -0.316E-06 -0.105E-06 -0.105E-06 -0.105E-06
   7.500 -0.392E-06 -0.131E-06 -0.131E-06 -0.131E-06
   7.510 -0.268E-06 -0.894E-07 -0.894E-07 -0.894E-07
   7.520  0.207E-06  0.689E-07  0.689E-07  0.689E-07
   7.530  0.118E-05  0.394E-06  0.394E-06  0.394E-06
   7.540  0.280E-05  0.935E-06  0.935E-06  0.935E-06
   7.550  0.523E-05  0.174E-05  0.174E-05  0.174E-05
   7.560  0.860E-05  0.287E-05  0.287E-05  0.287E-05
   7.570  0.131E-04  0.435E-05  0.435E-05  0.435E-05
   7.580  0.188E-04  0.626E-05  0.626E-05  0.626E-05
   7.590  0.259E-04  0.863E-05  0.863E-05  0.863E-05
   7.600  0.345E-04  0.115E-04  0.115E-04  0.115E-04
   7.610  0.449E-04  0.150E-04  0.150E-04  0.150E-04
   7.620  0.571E-04  0.190E-04  0.190E-04  0.190E-04
   7.630  0.713E-04  0.238E-04  0.238E-04  0.238E-04
   7.640  0.876E-04  0.292E-04  0.292E-04  0.292E-04
   7.650  0.106E-03  0.354E-04  0.354E-04  0.354E-04
   7.660  0.127E-03  0.424E-04  0.424E-04  0.424E-04
   7.670  0.151E-03  0.503E-04  0.503E-04  0.503E-04
   7.680  0.177E-03  0.591E-04  0.591E-04  0.591E-04
   7.690  0.207E-03  0.689E-04  0.689E-04  0.689E-04
   7.700  0.239E-03  0.796E-04  0.796E-04  0.796E-04
   7.710  0.274E-03  0.915E-04  0.915E-04  0.915E-04
   7.720  0.313E-03  0.104E-03  0.104E-03  0.104E-03
   7.730  0.356E-03  0.119E-03  0.119E-03  0.119E-03
   7.740  0.402E-03  0.134E-03  0.134E-03  0.134E-03
   7.750  0.451E-03  0.150E-03  0.150E-03  0.150E-03
   7.760  0.505E-03  0.168E-03  0.168E-03  0.168E-03
   7.770  0.563E-03  0.188E-03  0.188E-03  0.188E-03
   7.780  0.625E-03  0.208E-03  0.208E-03  0.208E-03
   7.790  0.691E-03  0.230E-03  0.230E-03  0.230E-03
   7.800  0.762E-03  0.254E-03  0.254E-03  0.254E-03
   7.810  0.838E-03  0.279E-03  0.279E-03  0.279E-03
   7.820  0.918E-03  0.306E-03  0.306E-03  0.306E-03
   7.830  0.999E-03  0.333E-03  0.333E-03  0.333E-03
   7.840  0.108E-02  0.361E-03  0.361E-03  0.361E-03
   7.850  0.117E-02  0.391E-03  0.391E-03  0.391E-03
   7.860  0.127E-02  0.424E-03  0.424E-03  0.424E-03
   7.870  0.138E-02  0.461E-03  0.461E-03  0.461E-03
   7.880  0.151E-02  0.503E-03  0.503E-03  0.503E-03
   7.890  0.163E-02  0.543E-03  0.543E-03  0.543E-03
   7.900  0.175E-02  0.582E-03  0.582E-03  0.582E-03
   7.910  0.186E-02  0.619E-03  0.619E-03  0.619E-03
   7.920  0.197E-02  0.656E-03  0.656E-03  0.656E-03
   7.930  0.208E-02  0.692E-03  0.692E-03  0.692E-03
   7.940  0.218E-02  0.727E-03  0.727E-03  0.727E-03
   7.950  0.228E-02  0.762E-03  0.762E-03  0.762E-03
   7.960  0.239E-02  0.796E-03  0.796E-03  0.796E-03
   7.970  0.249E-02  0.829E-03  0.829E-03  0.829E-03
   7.980  0.259E-02  0.862E-03  0.862E-03  0.862E-03
   7.990  0.268E-02  0.894E-03  0.894E-03  0.894E-03
   8.000  0.278E-02  0.926E-03  0.926E-03  0.926E-03
   8.010  0.287E-02  0.956E-03  0.956E-03  0.956E-03
   8.020  0.296E-02  0.987E-03  0.987E-03  0.987E-03
   8.030  0.305E-02  0.102E-02  0.102E-02  0.102E-02
   8.040  0.313E-02  0.104E-02  0.104E-02  0.104E-02
   8.050  0.322E-02  0.107E-02  0.107E-02  0.107E-02
   8.060  0.330E-02  0.110E-02  0.110E-02  0.110E-02
   8.070  0.337E-02  0.112E-02  0.112E-02  0.112E-02
   8.080  0.344E-02  0.115E-02  0.115E-02  0.115E-02
   8.090  0.351E-02  0.117E-02  0.117E-02  0.117E-02
   8.100  0.358E-02  0.119E-02  0.119E-02  0.119E-02
   8.110  0.363E-02  0.121E-02  0.121E-02  0.121E-02
   8.120  0.366E-02  0.122E-02  0.122E-02  0.122E-02
   8.130  0.367E-02  0.122E-02  0.122E-02  0.122E-02
   8.140  0.366E-02  0.122E-02  0.122E-02  0.122E-02
   8.150  0.366E-02  0.122E-02  0.122E-02  0.122E-02
   8.160  0.367E-02  0.122E-02  0.122E-02  0.122E-02
   8.170  0.368E-02  0.123E-02  0.123E-02  0.123E-02
   8.180  0.370E-02  0.123E-02  0.123E-02  0.123E-02
   8.190  0.372E-02  0.124E-02  0.124E-02  0.124E-02
   8.200  0.373E-02  0.124E-02  0.124E-02  0.124E-02
   8.210  0.374E-02  0.125E-02  0.125E-02  0.125E-02
   8.220  0.375E-02  0.125E-02  0.125E-02  0.125E-02
   8.230  0.377E-02  0.126E-02  0.126E-02  0.126E-02
   8.240  0.379E-02  0.126E-02  0.126E-02  0.126E-02
   8.250  0.381E-02  0.127E-02  0.127E-02  0.127E-02
   8.260  0.385E-02  0.128E-02  0.128E-02  0.128E-02
   8.270  0.388E-02  0.129E-02  0.129E-02  0.129E-02
   8.280  0.393E-02  0.131E-02  0.131E-02  0.131E-02
   8.290  0.398E-02  0.133E-02  0.133E-02  0.133E-02
   8.300  0.405E-02  0.135E-02  0.135E-02  0.135E-02
   8.310  0.412E-02  0.137E-02  0.137E-02  0.137E-02
   8.320  0.421E-02  0.140E-02  0.140E-02  0.140E-02
   8.330  0.429E-02  0.143E-02  0.143E-02  0.143E-02
   8.340  0.438E-02  0.146E-02  0.146E-02  0.146E-02
   8.350  0.446E-02  0.149E-02  0.149E-02  0.149E-02
   8.360  0.455E-02  0.152E-02  0.152E-02  0.152E-02
   8.370  0.463E-02  0.154E-02  0.154E-02  0.154E-02
   8.380  0.471E-02  0.157E-02  0.157E-02  0.157E-02
   8.390  0.479E-02  0.160E-02  0.160E-02  0.160E-02
   8.400  0.488E-02  0.163E-02  0.163E-02  0.163E-02
   8.410  0.496E-02  0.165E-02  0.165E-02  0.165E-02
   8.420  0.504E-02  0.168E-02  0.168E-02  0.168E-02
   8.430  0.513E-02  0.171E-02  0.171E-02  0.171E-02
   8.440  0.521E-02  0.174E-02  0.174E-02  0.174E-02
   8.450  0.530E-02  0.177E-02  0.177E-02  0.177E-02
   8.460  0.539E-02  0.180E-02  0.180E-02  0.180E-02
   8.470  0.548E-02  0.183E-02  0.183E-02  0.183E-02
   8.480  0.558E-02  0.186E-02  0.186E-02  0.186E-02
   8.490  0.567E-02  0.189E-02  0.189E-02  0.189E-02
   8.500  0.577E-02  0.192E-02  0.192E-02  0.192E-02
   8.510  0.587E-02  0.196E-02  0.196E-02  0.196E-02
   8.520  0.597E-02  0.199E-02  0.199E-02  0.199E-02
   8.530  0.607E-02  0.202E-02  0.202E-02  0.202E-02
   8.540  0.618E-02  0.206E-02  0.206E-02  0.206E-02
   8.550  0.628E-02  0.209E-02  0.209E-02  0.209E-02
   8.560  0.639E-02  0.213E-02  0.213E-02  0.213E-02
   8.570  0.650E-02  0.217E-02  0.217E-02  0.217E-02
   8.580  0.661E-02  0.220E-02  0.220E-02  0.220E-02
   8.590  0.672E-02  0.224E-02  0.224E-02  0.224E-02
   8.600  0.683E-02  0.228E-02  0.228E-02  0.228E-02
   8.610  0.694E-02  0.231E-02  0.231E-02  0.231E-02
   8.620  0.706E-02  0.235E-02  0.235E-02  0.235E-02
   8.630  0.717E-02  0.239E-02  0.239E-02  0.239E-02
   8.640  0.728E-02  0.243E-02  0.243E-02  0.243E-02
   8.650  0.740E-02  0.247E-02  0.247E-02  0.247E-02
   8.660  0.751E-02  0.250E-02  0.250E-02  0.250E-02
   8.670  0.763E-02  0.254E-02  0.254E-02  0.254E-02
   8.680  0.775E-02  0.258E-02  0.258E-02  0.258E-02
   8.690  0.801E-02  0.267E-02  0.267E-02  0.267E-02
   8.700  0.866E-02  0.289E-02  0.289E-02  0.289E-02
   8.710  0.969E-02  0.323E-02  0.323E-02  0.323E-02
   8.720  0.111E-01  0.369E-02  0.369E-02  0.369E-02
   8.730  0.127E-01  0.425E-02  0.425E-02  0.425E-02
   8.740  0.147E-01  0.490E-02  0.490E-02  0.490E-02
   8.750  0.169E-01  0.564E-02  0.564E-02  0.564E-02
   8.760  0.193E-01  0.643E-02  0.643E-02  0.643E-02
   8.770  0.218E-01  0.728E-02  0.728E-02  0.728E-02
   8.780  0.243E-01  0.810E-02  0.810E-02  0.810E-02
   8.790  0.291E-01  0.970E-02  0.970E-02  0.970E-02
   8.800  0.372E-01  0.124E-01  0.124E-01  0.124E-01
   8.810  0.618E-01  0.206E-01  0.206E-01  0.206E-01
   8.820  0.658E-01  0.219E-01  0.219E-01  0.219E-01
   8.830  0.617E-01  0.206E-01  0.206E-01  0.206E-01
   8.840  0.590E-01  0.197E-01  0.197E-01  0.197E-01
   8.850  0.573E-01  0.191E-01  0.191E-01  0.191E-01
   8.860  0.568E-01  0.189E-01  0.189E-01  0.189E-01
   8.870  0.571E-01  0.190E-01  0.190E-01  0.190E-01
   8.880  0.574E-01  0.191E-01  0.191E-01  0.191E-01
   8.890  0.572E-01  0.191E-01  0.191E-01  0.191E-01
   8.900  0.566E-01  0.189E-01  0.189E-01  0.189E-01
   8.910  0.558E-01  0.186E-01  0.186E-01  0.186E-01
   8.920  0.551E-01  0.184E-01  0.184E-01  0.184E-01
   8.930  0.545E-01  0.182E-01  0.182E-01  0.182E-01
   8.940  0.538E-01  0.179E-01  0.179E-01  0.179E-01
   8.950  0.534E-01  0.178E-01  0.178E-01  0.178E-01
   8.960  0.530E-01  0.177E-01  0.177E-01  0.177E-01
   8.970  0.529E-01  0.176E-01  0.176E-01  0.176E-01
   8.980  0.551E-01  0.184E-01  0.184E-01  0.184E-01
   8.990  0.557E-01  0.186E-01  0.186E-01  0.186E-01
   9.000  0.527E-01  0.176E-01  0.176E-01  0.176E-01
   9.010  0.481E-01  0.160E-01  0.160E-01  0.160E-01
   9.020  0.444E-01  0.148E-01  0.148E-01  0.148E-01
   9.030  0.423E-01  0.141E-01  0.141E-01  0.141E-01
   9.040  0.428E-01  0.143E-01  0.143E-01  0.143E-01
   9.050  0.443E-01  0.148E-01  0.148E-01  0.148E-01
   9.060  0.389E-01  0.130E-01  0.130E-01  0.130E-01
   9.070  0.385E-01  0.128E-01  0.128E-01  0.128E-01
   9.080  0.401E-01  0.134E-01  0.134E-01  0.134E-01
   9.090  0.420E-01  0.140E-01  0.140E-01  0.140E-01
   9.100  0.439E-01  0.146E-01  0.146E-01  0.146E-01
   9.110  0.454E-01  0.151E-01  0.151E-01  0.151E-01
   9.120  0.468E-01  0.156E-01  0.156E-01  0.156E-01
   9.130  0.480E-01  0.160E-01  0.160E-01  0.160E-01
   9.140  0.489E-01  0.163E-01  0.163E-01  0.163E-01
   9.150  0.500E-01  0.167E-01  0.167E-01  0.167E-01
   9.160  0.514E-01  0.171E-01  0.171E-01  0.171E-01
   9.170  0.530E-01  0.177E-01  0.177E-01  0.177E-01
   9.180  0.548E-01  0.183E-01  0.183E-01  0.183E-01
   9.190  0.567E-01  0.189E-01  0.189E-01  0.189E-01
   9.200  0.589E-01  0.196E-01  0.196E-01  0.196E-01
   9.210  0.612E-01  0.204E-01  0.204E-01  0.204E-01
   9.220  0.637E-01  0.212E-01  0.212E-01  0.212E-01
   9.230  0.663E-01  0.221E-01  0.221E-01  0.221E-01
   9.240  0.691E-01  0.230E-01  0.230E-01  0.230E-01
   9.250  0.721E-01  0.240E-01  0.240E-01  0.240E-01
   9.260  0.752E-01  0.251E-01  0.251E-01  0.251E-01
   9.270  0.785E-01  0.262E-01  0.262E-01  0.262E-01
   9.280  0.820E-01  0.273E-01  0.273E-01  0.273E-01
   9.290  0.856E-01  0.285E-01  0.285E-01  0.285E-01
   9.300  0.895E-01  0.298E-01  0.298E-01  0.298E-01
   9.310  0.941E-01  0.314E-01  0.314E-01  0.314E-01
   9.320  0.997E-01  0.332E-01  0.332E-01  0.332E-01
   9.330  0.106E+00  0.352E-01  0.352E-01  0.352E-01
   9.340  0.111E+00  0.369E-01  0.369E-01  0.369E-01
   9.350  0.116E+00  0.386E-01  0.386E-01  0.386E-01
   9.360  0.120E+00  0.401E-01  0.401E-01  0.401E-01
   9.370  0.124E+00  0.412E-01  0.412E-01  0.412E-01
   9.380  0.126E+00  0.421E-01  0.421E-01  0.421E-01
   9.390  0.129E+00  0.431E-01  0.431E-01  0.431E-01
   9.400  0.133E+00  0.442E-01  0.442E-01  0.442E-01
   9.410  0.137E+00  0.455E-01  0.455E-01  0.455E-01
   9.420  0.142E+00  0.472E-01  0.472E-01  0.472E-01
   9.430  0.144E+00  0.481E-01  0.481E-01  0.481E-01
   9.440  0.143E+00  0.477E-01  0.477E-01  0.477E-01
   9.450  0.161E+00  0.536E-01  0.536E-01  0.536E-01
   9.460  0.152E+00  0.506E-01  0.506E-01  0.506E-01
   9.470  0.166E+00  0.554E-01  0.554E-01  0.554E-01
   9.480  0.173E+00  0.578E-01  0.578E-01  0.578E-01
   9.490  0.174E+00  0.579E-01  0.579E-01  0.579E-01
   9.500  0.174E+00  0.581E-01  0.581E-01  0.581E-01
   9.510  0.178E+00  0.593E-01  0.593E-01  0.593E-01
   9.520  0.177E+00  0.591E-01  0.591E-01  0.591E-01
   9.530  0.176E+00  0.586E-01  0.586E-01  0.586E-01
   9.540  0.174E+00  0.579E-01  0.579E-01  0.579E-01
   9.550  0.162E+00  0.539E-01  0.539E-01  0.539E-01
   9.560  0.158E+00  0.528E-01  0.528E-01  0.528E-01
   9.570  0.159E+00  0.531E-01  0.531E-01  0.531E-01
   9.580  0.158E+00  0.527E-01  0.527E-01  0.527E-01
   9.590  0.155E+00  0.516E-01  0.516E-01  0.516E-01
   9.600  0.149E+00  0.498E-01  0.498E-01  0.498E-01
   9.610  0.141E+00  0.469E-01  0.469E-01  0.469E-01
   9.620  0.129E+00  0.432E-01  0.432E-01  0.432E-01
   9.630  0.121E+00  0.403E-01  0.403E-01  0.403E-01
   9.640  0.114E+00  0.380E-01  0.380E-01  0.380E-01
   9.650  0.116E+00  0.386E-01  0.386E-01  0.386E-01
   9.660  0.121E+00  0.402E-01  0.402E-01  0.402E-01
   9.670  0.130E+00  0.434E-01  0.434E-01  0.434E-01
   9.680  0.141E+00  0.470E-01  0.470E-01  0.470E-01
   9.690  0.153E+00  0.509E-01  0.509E-01  0.509E-01
   9.700  0.163E+00  0.543E-01  0.543E-01  0.543E-01
   9.710  0.182E+00  0.607E-01  0.607E-01  0.607E-01
   9.720  0.197E+00  0.655E-01  0.655E-01  0.655E-01
   9.730  0.178E+00  0.595E-01  0.595E-01  0.595E-01
   9.740  0.182E+00  0.605E-01  0.605E-01  0.605E-01
   9.750  0.184E+00  0.615E-01  0.615E-01  0.615E-01
   9.760  0.186E+00  0.620E-01  0.620E-01  0.620E-01
   9.770  0.193E+00  0.642E-01  0.642E-01  0.642E-01
   9.780  0.196E+00  0.653E-01  0.653E-01  0.653E-01
   9.790  0.195E+00  0.651E-01  0.651E-01  0.651E-01
   9.800  0.190E+00  0.635E-01  0.635E-01  0.635E-01
   9.810  0.186E+00  0.621E-01  0.621E-01  0.621E-01
   9.820  0.387E+00  0.129E+00  0.129E+00  0.129E+00
   9.830  0.546E+00  0.182E+00  0.182E+00  0.182E+00
   9.840  0.477E+00  0.159E+00  0.159E+00  0.159E+00
   9.850  0.539E+00  0.180E+00  0.180E+00  0.180E+00
   9.860  0.522E+00  0.174E+00  0.174E+00  0.174E+00
   9.870  0.442E+00  0.147E+00  0.147E+00  0.147E+00
   9.880  0.477E+00  0.159E+00  0.159E+00  0.159E+00
   9.890  0.429E+00  0.143E+00  0.143E+00  0.143E+00
   9.900  0.317E+00  0.106E+00  0.106E+00  0.106E+00
   9.910  0.313E+00  0.104E+00  0.104E+00  0.104E+00
   9.920  0.325E+00  0.108E+00  0.108E+00  0.108E+00
   9.930  0.336E+00  0.112E+00  0.112E+00  0.112E+00
   9.940  0.345E+00  0.115E+00  0.115E+00  0.115E+00
   9.950  0.355E+00  0.118E+00  0.118E+00  0.118E+00
   9.960  0.364E+00  0.121E+00  0.121E+00  0.121E+00
   9.970  0.376E+00  0.125E+00  0.125E+00  0.125E+00
   9.980  0.387E+00  0.129E+00  0.129E+00  0.129E+00
   9.990  0.391E+00  0.130E+00  0.130E+00  0.130E+00
  10.000  0.388E+00  0.129E+00  0.129E+00  0.129E+00
  10.010  0.382E+00  0.127E+00  0.127E+00  0.127E+00
  10.020  0.372E+00  0.124E+00  0.124E+00  0.124E+00
  10.030  0.370E+00  0.123E+00  0.123E+00  0.123E+00
  10.040  0.370E+00  0.123E+00  0.123E+00  0.123E+00
  10.050  0.468E+00  0.156E+00  0.156E+00  0.156E+00
  10.060  0.435E+00  0.145E+00  0.145E+00  0.145E+00
  10.070  0.520E+00  0.173E+00  0.173E+00  0.173E+00
  10.080  0.387E+00  0.129E+00  0.129E+00  0.129E+00
  10.090  0.348E+00  0.116E+00  0.116E+00  0.116E+00
  10.100  0.320E+00  0.107E+00  0.107E+00  0.107E+00
  10.110  0.298E+00  0.994E-01  0.994E-01  0.994E-01
  10.120  0.276E+00  0.921E-01  0.921E-01  0.921E-01
  10.130  0.257E+00  0.858E-01  0.858E-01  0.858E-01
  10.140  0.243E+00  0.810E-01  0.810E-01  0.810E-01
  10.150  0.232E+00  0.772E-01  0.772E-01  0.772E-01
  10.160  0.226E+00  0.753E-01  0.753E-01  0.753E-01
  10.170  0.224E+00  0.747E-01  0.747E-01  0.747E-01
  10.180  0.223E+00  0.743E-01  0.743E-01  0.743E-01
  10.190  0.222E+00  0.741E-01  0.741E-01  0.741E-01
  10.200  0.222E+00  0.740E-01  0.740E-01  0.740E-01
  10.210  0.222E+00  0.741E-01  0.741E-01  0.741E-01
  10.220  0.223E+00  0.743E-01  0.743E-01  0.743E-01
  10.230  0.224E+00  0.746E-01  0.746E-01  0.746E-01
  10.240  0.226E+00  0.752E-01  0.752E-01  0.752E-01
  10.250  0.228E+00  0.760E-01  0.760E-01  0.760E-01
  10.260  0.232E+00  0.774E-01  0.774E-01  0.774E-01
  10.270  0.320E+00  0.107E+00  0.107E+00  0.107E+00
  10.280  0.342E+00  0.114E+00  0.114E+00  0.114E+00
  10.290  0.447E+00  0.149E+00  0.149E+00  0.149E+00
  10.300  0.560E+00  0.187E+00  0.187E+00  0.187E+00
  10.310  0.563E+00  0.188E+00  0.188E+00  0.188E+00
  10.320  0.463E+00  0.154E+00  0.154E+00  0.154E+00
  10.330  0.322E+00  0.107E+00  0.107E+00  0.107E+00
  10.340  0.256E+00  0.853E-01  0.853E-01  0.853E-01
  10.350  0.226E+00  0.754E-01  0.754E-01  0.754E-01
  10.360  0.204E+00  0.680E-01  0.680E-01  0.680E-01
  10.370  0.184E+00  0.612E-01  0.612E-01  0.612E-01
  10.380  0.171E+00  0.569E-01  0.569E-01  0.569E-01
  10.390  0.163E+00  0.545E-01  0.545E-01  0.545E-01
  10.400  0.162E+00  0.541E-01  0.541E-01  0.541E-01
  10.410  0.165E+00  0.551E-01  0.551E-01  0.551E-01
  10.420  0.168E+00  0.560E-01  0.560E-01  0.560E-01
  10.430  0.171E+00  0.572E-01  0.572E-01  0.572E-01
  10.440  0.177E+00  0.591E-01  0.591E-01  0.591E-01
  10.450  0.182E+00  0.607E-01  0.607E-01  0.607E-01
  10.460  0.187E+00  0.625E-01  0.625E-01  0.625E-01
  10.470  0.193E+00  0.645E-01  0.645E-01  0.645E-01
  10.480  0.200E+00  0.666E-01  0.666E-01  0.666E-01
  10.490  0.205E+00  0.682E-01  0.682E-01  0.682E-01
  10.500  0.209E+00  0.697E-01  0.697E-01  0.697E-01
  10.510  0.214E+00  0.713E-01  0.713E-01  0.713E-01
  10.520  0.219E+00  0.728E-01  0.728E-01  0.728E-01
  10.530  0.223E+00  0.744E-01  0.744E-01  0.744E-01
  10.540  0.228E+00  0.759E-01  0.759E-01  0.759E-01
  10.550  0.232E+00  0.772E-01  0.772E-01  0.772E-01
  10.560  0.235E+00  0.784E-01  0.784E-01  0.784E-01
  10.570  0.238E+00  0.795E-01  0.795E-01  0.795E-01
  10.580  0.242E+00  0.806E-01  0.806E-01  0.806E-01
  10.590  0.243E+00  0.811E-01  0.811E-01  0.811E-01
  10.600  0.246E+00  0.822E-01  0.822E-01  0.822E-01
  10.610  0.255E+00  0.850E-01  0.850E-01  0.850E-01
  10.620  0.260E+00  0.868E-01  0.868E-01  0.868E-01
  10.630  0.264E+00  0.881E-01  0.881E-01  0.881E-01
  10.640  0.257E+00  0.856E-01  0.856E-01  0.856E-01
  10.650  0.250E+00  0.832E-01  0.832E-01  0.832E-01
  10.660  0.245E+00  0.817E-01  0.817E-01  0.817E-01
  10.670  0.236E+00  0.786E-01  0.786E-01  0.786E-01
  10.680  0.228E+00  0.760E-01  0.760E-01  0.760E-01
  10.690  0.223E+00  0.742E-01  0.742E-01  0.742E-01
  10.700  0.222E+00  0.741E-01  0.741E-01  0.741E-01
  10.710  0.225E+00  0.750E-01  0.750E-01  0.750E-01
  10.720  0.236E+00  0.787E-01  0.787E-01  0.787E-01
  10.730  0.232E+00  0.774E-01  0.774E-01  0.774E-01
  10.740  0.188E+00  0.626E-01  0.626E-01  0.626E-01
  10.750  0.196E+00  0.654E-01  0.654E-01  0.654E-01
  10.760  0.138E+00  0.460E-01  0.460E-01  0.460E-01
  10.770  0.124E+00  0.413E-01  0.413E-01  0.413E-01
  10.780  0.119E+00  0.398E-01  0.398E-01  0.398E-01
  10.790  0.113E+00  0.378E-01  0.378E-01  0.378E-01
  10.800  0.108E+00  0.362E-01  0.362E-01  0.362E-01
  10.810  0.104E+00  0.346E-01  0.346E-01  0.346E-01
  10.820  0.993E-01  0.331E-01  0.331E-01  0.331E-01
  10.830  0.966E-01  0.322E-01  0.322E-01  0.322E-01
  10.840  0.965E-01  0.322E-01  0.322E-01  0.322E-01
  10.850  0.107E+00  0.356E-01  0.356E-01  0.356E-01
  10.860  0.121E+00  0.405E-01  0.405E-01  0.405E-01
  10.870  0.123E+00  0.412E-01  0.412E-01  0.412E-01
  10.880  0.122E+00  0.408E-01  0.408E-01  0.408E-01
  10.890  0.122E+00  0.406E-01  0.406E-01  0.406E-01
  10.900  0.122E+00  0.405E-01  0.405E-01  0.405E-01
  10.910  0.133E+00  0.445E-01  0.445E-01  0.445E-01
  10.920  0.146E+00  0.486E-01  0.486E-01  0.486E-01
  10.930  0.161E+00  0.536E-01  0.536E-01  0.536E-01
  10.940  0.175E+00  0.584E-01  0.584E-01  0.584E-01
  10.950  0.251E+00  0.838E-01  0.838E-01  0.838E-01
  10.960  0.227E+00  0.756E-01  0.756E-01  0.756E-01
  10.970  0.227E+00  0.758E-01  0.758E-01  0.758E-01
  10.980  0.262E+00  0.874E-01  0.874E-01  0.874E-01
  10.990  0.264E+00  0.880E-01  0.880E-01  0.880E-01
  11.000  0.344E+00  0.115E+00  0.115E+00  0.115E+00
  11.010  0.229E+00  0.765E-01  0.765E-01  0.765E-01
  11.020  0.207E+00  0.689E-01  0.689E-01  0.689E-01
  11.030  0.180E+00  0.599E-01  0.599E-01  0.599E-01
  11.040  0.160E+00  0.533E-01  0.533E-01  0.533E-01
  11.050  0.146E+00  0.486E-01  0.486E-01  0.486E-01
  11.060  0.133E+00  0.442E-01  0.442E-01  0.442E-01
  11.070  0.123E+00  0.409E-01  0.409E-01  0.409E-01
  11.080  0.115E+00  0.385E-01  0.385E-01  0.385E-01
  11.090  0.111E+00  0.368E-01  0.368E-01  0.368E-01
  11.100  0.108E+00  0.358E-01  0.358E-01  0.358E-01
  11.110  0.106E+00  0.352E-01  0.352E-01  0.352E-01
  11.120  0.104E+00  0.347E-01  0.347E-01  0.347E-01
  11.130  0.103E+00  0.342E-01  0.342E-01  0.342E-01
  11.140  0.102E+00  0.338E-01  0.338E-01  0.338E-01
  11.150  0.101E+00  0.335E-01  0.335E-01  0.335E-01
  11.160  0.997E-01  0.332E-01  0.332E-01  0.332E-01
  11.170  0.991E-01  0.330E-01  0.330E-01  0.330E-01
  11.180  0.986E-01  0.329E-01  0.329E-01  0.329E-01
  11.190  0.984E-01  0.328E-01  0.328E-01  0.328E-01
  11.200  0.983E-01  0.328E-01  0.328E-01  0.328E-01
  11.210  0.985E-01  0.328E-01  0.328E-01  0.328E-01
  11.220  0.988E-01  0.329E-01  0.329E-01  0.329E-01
  11.230  0.994E-01  0.331E-01  0.331E-01  0.331E-01
  11.240  0.100E+00  0.334E-01  0.334E-01  0.334E-01
  11.250  0.101E+00  0.338E-01  0.338E-01  0.338E-01
  11.260  0.103E+00  0.342E-01  0.342E-01  0.342E-01
  11.270  0.105E+00  0.350E-01  0.350E-01  0.350E-01
  11.280  0.111E+00  0.369E-01  0.369E-01  0.369E-01
  11.290  0.120E+00  0.399E-01  0.399E-01  0.399E-01
  11.300  0.131E+00  0.435E-01  0.435E-01  0.435E-01
  11.310  0.144E+00  0.481E-01  0.481E-01  0.481E-01
  11.320  0.162E+00  0.541E-01  0.541E-01  0.541E-01
  11.330  0.186E+00  0.621E-01  0.621E-01  0.621E-01
  11.340  0.220E+00  0.733E-01  0.733E-01  0.733E-01
  11.350  0.265E+00  0.883E-01  0.883E-01  0.883E-01
  11.360  0.313E+00  0.104E+00  0.104E+00  0.104E+00
  11.370  0.376E+00  0.125E+00  0.125E+00  0.125E+00
  11.380  0.483E+00  0.161E+00  0.161E+00  0.161E+00
  11.390  0.499E+00  0.166E+00  0.166E+00  0.166E+00
  11.400  0.529E+00  0.176E+00  0.176E+00  0.176E+00
  11.410  0.547E+00  0.182E+00  0.182E+00  0.182E+00
  11.420  0.572E+00  0.191E+00  0.191E+00  0.191E+00
  11.430  0.398E+00  0.133E+00  0.133E+00  0.133E+00
  11.440  0.352E+00  0.117E+00  0.117E+00  0.117E+00
  11.450  0.332E+00  0.111E+00  0.111E+00  0.111E+00
  11.460  0.318E+00  0.106E+00  0.106E+00  0.106E+00
  11.470  0.302E+00  0.101E+00  0.101E+00  0.101E+00
  11.480  0.284E+00  0.947E-01  0.947E-01  0.947E-01
  11.490  0.266E+00  0.888E-01  0.888E-01  0.888E-01
  11.500  0.260E+00  0.868E-01  0.868E-01  0.868E-01
  11.510  0.245E+00  0.818E-01  0.818E-01  0.818E-01
  11.520  0.230E+00  0.768E-01  0.768E-01  0.768E-01
  11.530  0.223E+00  0.743E-01  0.743E-01  0.743E-01
  11.540  0.217E+00  0.722E-01  0.722E-01  0.722E-01
  11.550  0.211E+00  0.702E-01  0.702E-01  0.702E-01
  11.560  0.211E+00  0.702E-01  0.702E-01  0.702E-01
  11.570  0.220E+00  0.732E-01  0.732E-01  0.732E-01
  11.580  0.234E+00  0.780E-01  0.780E-01  0.780E-01
  11.590  0.250E+00  0.834E-01  0.834E-01  0.834E-01
  11.600  0.266E+00  0.887E-01  0.887E-01  0.887E-01
  11.610  0.280E+00  0.932E-01  0.932E-01  0.932E-01
  11.620  0.291E+00  0.970E-01  0.970E-01  0.970E-01
  11.630  0.307E+00  0.102E+00  0.102E+00  0.102E+00
  11.640  0.310E+00  0.103E+00  0.103E+00  0.103E+00
  11.650  0.297E+00  0.988E-01  0.988E-01  0.988E-01
  11.660  0.251E+00  0.835E-01  0.835E-01  0.835E-01
  11.670  0.222E+00  0.739E-01  0.739E-01  0.739E-01
  11.680  0.204E+00  0.682E-01  0.682E-01  0.682E-01
  11.690  0.190E+00  0.632E-01  0.632E-01  0.632E-01
  11.700  0.178E+00  0.593E-01  0.593E-01  0.593E-01
  11.710  0.171E+00  0.569E-01  0.569E-01  0.569E-01
  11.720  0.172E+00  0.573E-01  0.573E-01  0.573E-01
  11.730  0.174E+00  0.581E-01  0.581E-01  0.581E-01
  11.740  0.181E+00  0.605E-01  0.605E-01  0.605E-01
  11.750  0.198E+00  0.660E-01  0.660E-01  0.660E-01
  11.760  0.189E+00  0.631E-01  0.631E-01  0.631E-01
  11.770  0.174E+00  0.578E-01  0.578E-01  0.578E-01
  11.780  0.159E+00  0.530E-01  0.530E-01  0.530E-01
  11.790  0.149E+00  0.498E-01  0.498E-01  0.498E-01
  11.800  0.147E+00  0.490E-01  0.490E-01  0.490E-01
  11.810  0.144E+00  0.481E-01  0.481E-01  0.481E-01
  11.820  0.138E+00  0.459E-01  0.459E-01  0.459E-01
  11.830  0.126E+00  0.419E-01  0.419E-01  0.419E-01
  11.840  0.115E+00  0.382E-01  0.382E-01  0.382E-01
  11.850  0.109E+00  0.364E-01  0.364E-01  0.364E-01
  11.860  0.102E+00  0.339E-01  0.339E-01  0.339E-01
  11.870  0.951E-01  0.317E-01  0.317E-01  0.317E-01
  11.880  0.886E-01  0.295E-01  0.295E-01  0.295E-01
  11.890  0.824E-01  0.275E-01  0.275E-01  0.275E-01
  11.900  0.779E-01  0.260E-01  0.260E-01  0.260E-01
  11.910  0.757E-01  0.252E-01  0.252E-01  0.252E-01
  11.920  0.743E-01  0.248E-01  0.248E-01  0.248E-01
  11.930  0.798E-01  0.266E-01  0.266E-01  0.266E-01
  11.940  0.808E-01  0.269E-01  0.269E-01  0.269E-01
  11.950  0.797E-01  0.266E-01  0.266E-01  0.266E-01
  11.960  0.778E-01  0.259E-01  0.259E-01  0.259E-01
  11.970  0.746E-01  0.249E-01  0.249E-01  0.249E-01
  11.980  0.695E-01  0.232E-01  0.232E-01  0.232E-01
  11.990  0.619E-01  0.206E-01  0.206E-01  0.206E-01
  12.000  0.520E-01  0.173E-01  0.173E-01  0.173E-01
  12.010  0.459E-01  0.153E-01  0.153E-01  0.153E-01
