# E (eV)   ldos(E)   pdos(E)    pdos(E)    pdos(E)   
   0.000  0.150E+00  0.475E-01  0.551E-01  0.475E-01
   0.010  0.772E-01  0.256E-01  0.260E-01  0.256E-01
   0.020  0.403E-01  0.154E-01  0.956E-02  0.154E-01
   0.030  0.248E-01  0.983E-02  0.519E-02  0.983E-02
   0.040  0.276E-01  0.101E-01  0.740E-02  0.101E-01
   0.050  0.481E-01  0.168E-01  0.145E-01  0.168E-01
   0.060  0.102E+00  0.345E-01  0.335E-01  0.345E-01
   0.070  0.986E-01  0.326E-01  0.333E-01  0.326E-01
   0.080  0.779E-01  0.254E-01  0.271E-01  0.254E-01
   0.090  0.510E-01  0.163E-01  0.184E-01  0.163E-01
   0.100  0.333E-01  0.104E-01  0.125E-01  0.104E-01
   0.110  0.211E-01  0.692E-02  0.724E-02  0.692E-02
   0.120  0.158E-01  0.533E-02  0.510E-02  0.533E-02
   0.130  0.921E-02  0.290E-02  0.342E-02  0.290E-02
   0.140  0.259E-02  0.709E-03  0.117E-02  0.709E-03
   0.150  0.220E-03  0.825E-04  0.555E-04  0.825E-04
   0.160  0.614E-07  0.319E-07 -0.230E-08  0.319E-07
   0.170  0.000E+00  0.000E+00  0.000E+00  0.000E+00
   0.180  0.000E+00  0.000E+00  0.000E+00  0.000E+00
   0.190  0.000E+00  0.000E+00  0.000E+00  0.000E+00
   0.200  0.488E-06  0.165E-06  0.158E-06  0.165E-06
   0.210  0.156E-04  0.521E-05  0.518E-05  0.521E-05
   0.220  0.785E-04  0.261E-04  0.262E-04  0.261E-04
   0.230  0.216E-03  0.717E-04  0.724E-04  0.717E-04
   0.240  0.432E-03  0.143E-03  0.145E-03  0.143E-03
   0.250  0.729E-03  0.242E-03  0.245E-03  0.242E-03
   0.260  0.111E-02  0.369E-03  0.373E-03  0.369E-03
   0.270  0.158E-02  0.525E-03  0.530E-03  0.525E-03
   0.280  0.214E-02  0.710E-03  0.716E-03  0.710E-03
   0.290  0.279E-02  0.927E-03  0.933E-03  0.927E-03
   0.300  0.353E-02  0.118E-02  0.118E-02  0.118E-02
   0.310  0.437E-02  0.146E-02  0.146E-02  0.146E-02
   0.320  0.532E-02  0.177E-02  0.177E-02  0.177E-02
   0.330  0.636E-02  0.212E-02  0.212E-02  0.212E-02
   0.340  0.769E-02  0.257E-02  0.256E-02  0.257E-02
   0.350  0.111E-01  0.372E-02  0.370E-02  0.372E-02
   0.360  0.174E-01  0.583E-02  0.577E-02  0.583E-02
   0.370  0.230E-01  0.770E-02  0.760E-02  0.770E-02
   0.380  0.276E-01  0.924E-02  0.912E-02  0.924E-02
   0.390  0.313E-01  0.105E-01  0.103E-01  0.105E-01
   0.400  0.340E-01  0.114E-01  0.113E-01  0.114E-01
   0.410  0.360E-01  0.120E-01  0.120E-01  0.120E-01
   0.420  0.370E-01  0.123E-01  0.124E-01  0.123E-01
   0.430  0.372E-01  0.123E-01  0.126E-01  0.123E-01
   0.440  0.365E-01  0.120E-01  0.125E-01  0.120E-01
   0.450  0.350E-01  0.114E-01  0.122E-01  0.114E-01
   0.460  0.345E-01  0.112E-01  0.122E-01  0.112E-01
   0.470  0.360E-01  0.116E-01  0.128E-01  0.116E-01
   0.480  0.380E-01  0.122E-01  0.136E-01  0.122E-01
   0.490  0.399E-01  0.127E-01  0.145E-01  0.127E-01
   0.500  0.418E-01  0.133E-01  0.153E-01  0.133E-01
   0.510  0.438E-01  0.138E-01  0.162E-01  0.138E-01
   0.520  0.458E-01  0.144E-01  0.170E-01  0.144E-01
   0.530  0.477E-01  0.149E-01  0.179E-01  0.149E-01
   0.540  0.498E-01  0.155E-01  0.189E-01  0.155E-01
   0.550  0.518E-01  0.160E-01  0.198E-01  0.160E-01
   0.560  0.537E-01  0.165E-01  0.207E-01  0.165E-01
   0.570  0.565E-01  0.173E-01  0.219E-01  0.173E-01
   0.580  0.704E-01  0.217E-01  0.270E-01  0.217E-01
   0.590  0.911E-01  0.283E-01  0.345E-01  0.283E-01
   0.600  0.921E-01  0.285E-01  0.351E-01  0.285E-01
   0.610  0.920E-01  0.287E-01  0.347E-01  0.287E-01
   0.620  0.914E-01  0.288E-01  0.337E-01  0.288E-01
   0.630  0.907E-01  0.291E-01  0.324E-01  0.291E-01
   0.640  0.912E-01  0.300E-01  0.312E-01  0.300E-01
   0.650  0.101E+00  0.345E-01  0.319E-01  0.345E-01
   0.660  0.973E-01  0.341E-01  0.291E-01  0.341E-01
   0.670  0.923E-01  0.334E-01  0.255E-01  0.334E-01
   0.680  0.934E-01  0.339E-01  0.257E-01  0.339E-01
   0.690  0.948E-01  0.341E-01  0.265E-01  0.341E-01
   0.700  0.959E-01  0.342E-01  0.276E-01  0.342E-01
   0.710  0.968E-01  0.340E-01  0.288E-01  0.340E-01
   0.720  0.974E-01  0.336E-01  0.303E-01  0.336E-01
   0.730  0.979E-01  0.331E-01  0.317E-01  0.331E-01
   0.740  0.981E-01  0.325E-01  0.332E-01  0.325E-01
   0.750  0.980E-01  0.318E-01  0.345E-01  0.318E-01
   0.760  0.977E-01  0.311E-01  0.356E-01  0.311E-01
   0.770  0.103E+00  0.332E-01  0.368E-01  0.332E-01
   0.780  0.111E+00  0.363E-01  0.380E-01  0.363E-01
   0.790  0.116E+00  0.384E-01  0.395E-01  0.384E-01
   0.800  0.127E+00  0.401E-01  0.470E-01  0.401E-01
   0.810  0.137E+00  0.415E-01  0.540E-01  0.415E-01
   0.820  0.136E+00  0.410E-01  0.537E-01  0.410E-01
   0.830  0.126E+00  0.385E-01  0.491E-01  0.385E-01
   0.840  0.115E+00  0.364E-01  0.425E-01  0.364E-01
   0.850  0.108E+00  0.355E-01  0.372E-01  0.355E-01
   0.860  0.111E+00  0.368E-01  0.373E-01  0.368E-01
   0.870  0.121E+00  0.405E-01  0.400E-01  0.405E-01
   0.880  0.135E+00  0.459E-01  0.438E-01  0.459E-01
   0.890  0.164E+00  0.562E-01  0.513E-01  0.562E-01
   0.900  0.193E+00  0.643E-01  0.645E-01  0.643E-01
   0.910  0.163E+00  0.537E-01  0.556E-01  0.537E-01
   0.920  0.237E+00  0.842E-01  0.688E-01  0.842E-01
   0.930  0.249E+00  0.877E-01  0.736E-01  0.877E-01
   0.940  0.163E+00  0.584E-01  0.467E-01  0.584E-01
   0.950  0.109E+00  0.403E-01  0.289E-01  0.403E-01
   0.960  0.571E-01  0.182E-01  0.207E-01  0.182E-01
   0.970  0.524E-01  0.162E-01  0.200E-01  0.162E-01
   0.980  0.485E-01  0.147E-01  0.192E-01  0.147E-01
   0.990  0.442E-01  0.131E-01  0.179E-01  0.131E-01
   1.000  0.389E-01  0.115E-01  0.159E-01  0.115E-01
   1.010  0.321E-01  0.953E-02  0.130E-01  0.953E-02
   1.020  0.238E-01  0.725E-02  0.929E-02  0.725E-02
   1.030  0.256E-01  0.798E-02  0.966E-02  0.798E-02
   1.040  0.509E-01  0.171E-01  0.166E-01  0.171E-01
   1.050  0.685E-01  0.240E-01  0.204E-01  0.240E-01
   1.060  0.723E-01  0.258E-01  0.207E-01  0.258E-01
   1.070  0.720E-01  0.256E-01  0.207E-01  0.256E-01
   1.080  0.756E-01  0.265E-01  0.227E-01  0.265E-01
   1.090  0.812E-01  0.282E-01  0.248E-01  0.282E-01
   1.100  0.868E-01  0.296E-01  0.275E-01  0.296E-01
   1.110  0.925E-01  0.310E-01  0.304E-01  0.310E-01
   1.120  0.981E-01  0.325E-01  0.332E-01  0.325E-01
   1.130  0.103E+00  0.338E-01  0.355E-01  0.338E-01
   1.140  0.107E+00  0.351E-01  0.371E-01  0.351E-01
   1.150  0.110E+00  0.361E-01  0.379E-01  0.361E-01
   1.160  0.112E+00  0.370E-01  0.379E-01  0.370E-01
   1.170  0.113E+00  0.377E-01  0.374E-01  0.377E-01
   1.180  0.112E+00  0.379E-01  0.363E-01  0.379E-01
   1.190  0.110E+00  0.377E-01  0.349E-01  0.377E-01
   1.200  0.107E+00  0.367E-01  0.332E-01  0.367E-01
   1.210  0.101E+00  0.347E-01  0.312E-01  0.347E-01
   1.220  0.918E-01  0.315E-01  0.288E-01  0.315E-01
   1.230  0.837E-01  0.287E-01  0.263E-01  0.287E-01
   1.240  0.779E-01  0.266E-01  0.248E-01  0.266E-01
   1.250  0.725E-01  0.246E-01  0.232E-01  0.246E-01
   1.260  0.679E-01  0.230E-01  0.220E-01  0.230E-01
   1.270  0.639E-01  0.215E-01  0.209E-01  0.215E-01
   1.280  0.597E-01  0.200E-01  0.196E-01  0.200E-01
   1.290  0.554E-01  0.185E-01  0.183E-01  0.185E-01
   1.300  0.511E-01  0.171E-01  0.170E-01  0.171E-01
   1.310  0.469E-01  0.157E-01  0.156E-01  0.157E-01
   1.320  0.431E-01  0.144E-01  0.143E-01  0.144E-01
   1.330  0.416E-01  0.140E-01  0.136E-01  0.140E-01
   1.340  0.417E-01  0.141E-01  0.135E-01  0.141E-01
   1.350  0.420E-01  0.142E-01  0.135E-01  0.142E-01
   1.360  0.420E-01  0.143E-01  0.134E-01  0.143E-01
   1.370  0.419E-01  0.143E-01  0.134E-01  0.143E-01
   1.380  0.418E-01  0.142E-01  0.133E-01  0.142E-01
   1.390  0.415E-01  0.141E-01  0.132E-01  0.141E-01
   1.400  0.412E-01  0.140E-01  0.131E-01  0.140E-01
   1.410  0.408E-01  0.139E-01  0.131E-01  0.139E-01
   1.420  0.404E-01  0.137E-01  0.130E-01  0.137E-01
   1.430  0.399E-01  0.135E-01  0.129E-01  0.135E-01
   1.440  0.395E-01  0.133E-01  0.128E-01  0.133E-01
   1.450  0.390E-01  0.131E-01  0.128E-01  0.131E-01
   1.460  0.385E-01  0.129E-01  0.127E-01  0.129E-01
   1.470  0.380E-01  0.127E-01  0.127E-01  0.127E-01
   1.480  0.374E-01  0.124E-01  0.126E-01  0.124E-01
   1.490  0.367E-01  0.121E-01  0.125E-01  0.121E-01
   1.500  0.359E-01  0.117E-01  0.124E-01  0.117E-01
   1.510  0.351E-01  0.114E-01  0.123E-01  0.114E-01
   1.520  0.344E-01  0.110E-01  0.123E-01  0.110E-01
   1.530  0.336E-01  0.107E-01  0.122E-01  0.107E-01
   1.540  0.327E-01  0.103E-01  0.122E-01  0.103E-01
   1.550  0.320E-01  0.993E-02  0.121E-01  0.993E-02
   1.560  0.314E-01  0.963E-02  0.121E-01  0.963E-02
   1.570  0.314E-01  0.952E-02  0.124E-01  0.952E-02
   1.580  0.319E-01  0.958E-02  0.128E-01  0.958E-02
   1.590  0.327E-01  0.972E-02  0.132E-01  0.972E-02
   1.600  0.340E-01  0.100E-01  0.140E-01  0.100E-01
   1.610  0.367E-01  0.106E-01  0.155E-01  0.106E-01
   1.620  0.400E-01  0.113E-01  0.174E-01  0.113E-01
   1.630  0.418E-01  0.116E-01  0.185E-01  0.116E-01
   1.640  0.405E-01  0.113E-01  0.180E-01  0.113E-01
   1.650  0.360E-01  0.102E-01  0.156E-01  0.102E-01
   1.660  0.297E-01  0.886E-02  0.120E-01  0.886E-02
   1.670  0.238E-01  0.764E-02  0.851E-02  0.764E-02
   1.680  0.218E-01  0.735E-02  0.710E-02  0.735E-02
   1.690  0.222E-01  0.761E-02  0.698E-02  0.761E-02
   1.700  0.235E-01  0.809E-02  0.733E-02  0.809E-02
   1.710  0.254E-01  0.870E-02  0.799E-02  0.870E-02
   1.720  0.275E-01  0.939E-02  0.868E-02  0.939E-02
   1.730  0.293E-01  0.100E-01  0.927E-02  0.100E-01
   1.740  0.308E-01  0.105E-01  0.975E-02  0.105E-01
   1.750  0.320E-01  0.110E-01  0.101E-01  0.110E-01
   1.760  0.330E-01  0.113E-01  0.104E-01  0.113E-01
   1.770  0.338E-01  0.116E-01  0.106E-01  0.116E-01
   1.780  0.343E-01  0.118E-01  0.108E-01  0.118E-01
   1.790  0.346E-01  0.119E-01  0.108E-01  0.119E-01
   1.800  0.346E-01  0.119E-01  0.108E-01  0.119E-01
   1.810  0.345E-01  0.119E-01  0.107E-01  0.119E-01
   1.820  0.342E-01  0.118E-01  0.106E-01  0.118E-01
   1.830  0.337E-01  0.116E-01  0.104E-01  0.116E-01
   1.840  0.330E-01  0.114E-01  0.102E-01  0.114E-01
   1.850  0.321E-01  0.111E-01  0.992E-02  0.111E-01
   1.860  0.312E-01  0.108E-01  0.963E-02  0.108E-01
   1.870  0.304E-01  0.105E-01  0.939E-02  0.105E-01
   1.880  0.297E-01  0.102E-01  0.918E-02  0.102E-01
   1.890  0.289E-01  0.995E-02  0.897E-02  0.995E-02
   1.900  0.280E-01  0.964E-02  0.876E-02  0.964E-02
   1.910  0.272E-01  0.932E-02  0.856E-02  0.932E-02
   1.920  0.264E-01  0.902E-02  0.838E-02  0.902E-02
   1.930  0.256E-01  0.870E-02  0.819E-02  0.870E-02
   1.940  0.247E-01  0.837E-02  0.800E-02  0.837E-02
   1.950  0.239E-01  0.804E-02  0.781E-02  0.804E-02
   1.960  0.232E-01  0.777E-02  0.769E-02  0.777E-02
   1.970  0.228E-01  0.759E-02  0.766E-02  0.759E-02
   1.980  0.226E-01  0.747E-02  0.769E-02  0.747E-02
   1.990  0.225E-01  0.738E-02  0.776E-02  0.738E-02
   2.000  0.225E-01  0.731E-02  0.784E-02  0.731E-02
   2.010  0.225E-01  0.728E-02  0.794E-02  0.728E-02
   2.020  0.226E-01  0.727E-02  0.806E-02  0.727E-02
   2.030  0.227E-01  0.727E-02  0.817E-02  0.727E-02
   2.040  0.228E-01  0.727E-02  0.828E-02  0.727E-02
   2.050  0.229E-01  0.727E-02  0.839E-02  0.727E-02
   2.060  0.230E-01  0.727E-02  0.849E-02  0.727E-02
   2.070  0.231E-01  0.726E-02  0.859E-02  0.726E-02
   2.080  0.232E-01  0.727E-02  0.869E-02  0.727E-02
   2.090  0.234E-01  0.729E-02  0.878E-02  0.729E-02
   2.100  0.235E-01  0.732E-02  0.888E-02  0.732E-02
   2.110  0.239E-01  0.745E-02  0.898E-02  0.745E-02
   2.120  0.244E-01  0.767E-02  0.903E-02  0.767E-02
   2.130  0.246E-01  0.776E-02  0.906E-02  0.776E-02
   2.140  0.258E-01  0.814E-02  0.950E-02  0.814E-02
   2.150  0.263E-01  0.875E-02  0.882E-02  0.875E-02
   2.160  0.245E-01  0.822E-02  0.802E-02  0.822E-02
   2.170  0.236E-01  0.806E-02  0.745E-02  0.806E-02
   2.180  0.238E-01  0.826E-02  0.730E-02  0.826E-02
   2.190  0.243E-01  0.854E-02  0.720E-02  0.854E-02
   2.200  0.249E-01  0.888E-02  0.715E-02  0.888E-02
   2.210  0.257E-01  0.928E-02  0.717E-02  0.928E-02
   2.220  0.268E-01  0.975E-02  0.726E-02  0.975E-02
   2.230  0.279E-01  0.102E-01  0.742E-02  0.102E-01
   2.240  0.290E-01  0.107E-01  0.761E-02  0.107E-01
   2.250  0.302E-01  0.112E-01  0.782E-02  0.112E-01
   2.260  0.314E-01  0.117E-01  0.804E-02  0.117E-01
   2.270  0.326E-01  0.122E-01  0.828E-02  0.122E-01
   2.280  0.339E-01  0.127E-01  0.853E-02  0.127E-01
   2.290  0.351E-01  0.132E-01  0.879E-02  0.132E-01
   2.300  0.364E-01  0.137E-01  0.905E-02  0.137E-01
   2.310  0.376E-01  0.142E-01  0.931E-02  0.142E-01
   2.320  0.389E-01  0.147E-01  0.957E-02  0.147E-01
   2.330  0.402E-01  0.152E-01  0.984E-02  0.152E-01
   2.340  0.418E-01  0.158E-01  0.102E-01  0.158E-01
   2.350  0.605E-01  0.223E-01  0.159E-01  0.223E-01
   2.360  0.687E-01  0.252E-01  0.183E-01  0.252E-01
   2.370  0.780E-01  0.285E-01  0.211E-01  0.285E-01
   2.380  0.887E-01  0.322E-01  0.242E-01  0.322E-01
   2.390  0.102E+00  0.370E-01  0.279E-01  0.370E-01
   2.400  0.115E+00  0.416E-01  0.316E-01  0.416E-01
   2.410  0.126E+00  0.455E-01  0.351E-01  0.455E-01
   2.420  0.136E+00  0.489E-01  0.386E-01  0.489E-01
   2.430  0.146E+00  0.520E-01  0.420E-01  0.520E-01
   2.440  0.155E+00  0.549E-01  0.454E-01  0.549E-01
   2.450  0.163E+00  0.571E-01  0.484E-01  0.571E-01
   2.460  0.170E+00  0.593E-01  0.515E-01  0.593E-01
   2.470  0.177E+00  0.612E-01  0.544E-01  0.612E-01
   2.480  0.183E+00  0.627E-01  0.572E-01  0.627E-01
   2.490  0.190E+00  0.646E-01  0.603E-01  0.646E-01
   2.500  0.204E+00  0.690E-01  0.663E-01  0.690E-01
   2.510  0.215E+00  0.719E-01  0.714E-01  0.719E-01
   2.520  0.231E+00  0.768E-01  0.772E-01  0.768E-01
   2.530  0.252E+00  0.839E-01  0.837E-01  0.839E-01
   2.540  0.268E+00  0.898E-01  0.888E-01  0.898E-01
   2.550  0.281E+00  0.947E-01  0.920E-01  0.947E-01
   2.560  0.303E+00  0.102E+00  0.995E-01  0.102E+00
   2.570  0.328E+00  0.109E+00  0.109E+00  0.109E+00
   2.580  0.369E+00  0.122E+00  0.124E+00  0.122E+00
   2.590  0.419E+00  0.138E+00  0.143E+00  0.138E+00
   2.600  0.477E+00  0.155E+00  0.167E+00  0.155E+00
   2.610  0.538E+00  0.171E+00  0.195E+00  0.171E+00
   2.620  0.652E+00  0.209E+00  0.234E+00  0.209E+00
   2.630  0.565E+00  0.182E+00  0.201E+00  0.182E+00
   2.640  0.279E+00  0.960E-01  0.867E-01  0.960E-01
   2.650  0.225E+00  0.773E-01  0.706E-01  0.773E-01
   2.660  0.195E+00  0.662E-01  0.630E-01  0.662E-01
   2.670  0.176E+00  0.592E-01  0.580E-01  0.592E-01
   2.680  0.160E+00  0.529E-01  0.538E-01  0.529E-01
   2.690  0.145E+00  0.472E-01  0.506E-01  0.472E-01
   2.700  0.141E+00  0.444E-01  0.522E-01  0.444E-01
   2.710  0.272E+00  0.864E-01  0.997E-01  0.864E-01
   2.720  0.470E+00  0.144E+00  0.182E+00  0.144E+00
   2.730  0.267E+00  0.816E-01  0.104E+00  0.816E-01
   2.740  0.238E+00  0.735E-01  0.907E-01  0.735E-01
   2.750  0.161E+00  0.519E-01  0.567E-01  0.519E-01
   2.760  0.146E+00  0.484E-01  0.494E-01  0.484E-01
   2.770  0.153E+00  0.511E-01  0.507E-01  0.511E-01
   2.780  0.156E+00  0.522E-01  0.514E-01  0.522E-01
   2.790  0.161E+00  0.540E-01  0.527E-01  0.540E-01
   2.800  0.158E+00  0.529E-01  0.518E-01  0.529E-01
   2.810  0.153E+00  0.512E-01  0.504E-01  0.512E-01
   2.820  0.158E+00  0.528E-01  0.520E-01  0.528E-01
   2.830  0.166E+00  0.556E-01  0.549E-01  0.556E-01
   2.840  0.175E+00  0.585E-01  0.578E-01  0.585E-01
   2.850  0.184E+00  0.615E-01  0.607E-01  0.615E-01
   2.860  0.193E+00  0.646E-01  0.635E-01  0.646E-01
   2.870  0.203E+00  0.682E-01  0.666E-01  0.682E-01
   2.880  0.218E+00  0.737E-01  0.708E-01  0.737E-01
   2.890  0.250E+00  0.850E-01  0.800E-01  0.850E-01
   2.900  0.287E+00  0.980E-01  0.914E-01  0.980E-01
   2.910  0.308E+00  0.105E+00  0.984E-01  0.105E+00
   2.920  0.330E+00  0.112E+00  0.106E+00  0.112E+00
   2.930  0.350E+00  0.118E+00  0.113E+00  0.118E+00
   2.940  0.367E+00  0.124E+00  0.119E+00  0.124E+00
   2.950  0.382E+00  0.129E+00  0.125E+00  0.129E+00
   2.960  0.394E+00  0.132E+00  0.130E+00  0.132E+00
   2.970  0.427E+00  0.141E+00  0.145E+00  0.141E+00
   2.980  0.378E+00  0.125E+00  0.127E+00  0.125E+00
   2.990  0.297E+00  0.986E-01  0.996E-01  0.986E-01
   3.000  0.268E+00  0.889E-01  0.906E-01  0.889E-01
   3.010  0.252E+00  0.833E-01  0.854E-01  0.833E-01
   3.020  0.238E+00  0.789E-01  0.806E-01  0.789E-01
   3.030  0.227E+00  0.755E-01  0.763E-01  0.755E-01
   3.040  0.218E+00  0.727E-01  0.723E-01  0.727E-01
   3.050  0.205E+00  0.689E-01  0.676E-01  0.689E-01
   3.060  0.195E+00  0.657E-01  0.634E-01  0.657E-01
   3.070  0.187E+00  0.634E-01  0.600E-01  0.634E-01
   3.080  0.185E+00  0.629E-01  0.596E-01  0.629E-01
   3.090  0.195E+00  0.675E-01  0.600E-01  0.675E-01
   3.100  0.198E+00  0.670E-01  0.637E-01  0.670E-01
   3.110  0.199E+00  0.669E-01  0.653E-01  0.669E-01
   3.120  0.200E+00  0.669E-01  0.667E-01  0.669E-01
   3.130  0.233E+00  0.788E-01  0.750E-01  0.788E-01
   3.140  0.307E+00  0.100E+00  0.107E+00  0.100E+00
   3.150  0.322E+00  0.102E+00  0.118E+00  0.102E+00
   3.160  0.337E+00  0.109E+00  0.118E+00  0.109E+00
   3.170  0.336E+00  0.112E+00  0.113E+00  0.112E+00
   3.180  0.385E+00  0.132E+00  0.121E+00  0.132E+00
   3.190  0.390E+00  0.132E+00  0.125E+00  0.132E+00
   3.200  0.392E+00  0.133E+00  0.126E+00  0.133E+00
   3.210  0.382E+00  0.130E+00  0.122E+00  0.130E+00
   3.220  0.372E+00  0.126E+00  0.120E+00  0.126E+00
   3.230  0.363E+00  0.123E+00  0.117E+00  0.123E+00
   3.240  0.352E+00  0.119E+00  0.115E+00  0.119E+00
   3.250  0.319E+00  0.107E+00  0.106E+00  0.107E+00
   3.260  0.388E+00  0.132E+00  0.123E+00  0.132E+00
   3.270  0.310E+00  0.102E+00  0.106E+00  0.102E+00
   3.280  0.300E+00  0.982E-01  0.104E+00  0.982E-01
   3.290  0.298E+00  0.970E-01  0.104E+00  0.970E-01
   3.300  0.309E+00  0.100E+00  0.108E+00  0.100E+00
   3.310  0.317E+00  0.103E+00  0.111E+00  0.103E+00
   3.320  0.320E+00  0.104E+00  0.112E+00  0.104E+00
   3.330  0.320E+00  0.104E+00  0.112E+00  0.104E+00
   3.340  0.321E+00  0.104E+00  0.113E+00  0.104E+00
   3.350  0.320E+00  0.104E+00  0.112E+00  0.104E+00
   3.360  0.314E+00  0.103E+00  0.109E+00  0.103E+00
   3.370  0.312E+00  0.103E+00  0.107E+00  0.103E+00
   3.380  0.314E+00  0.104E+00  0.107E+00  0.104E+00
   3.390  0.321E+00  0.106E+00  0.108E+00  0.106E+00
   3.400  0.326E+00  0.108E+00  0.109E+00  0.108E+00
   3.410  0.335E+00  0.112E+00  0.110E+00  0.112E+00
   3.420  0.342E+00  0.115E+00  0.112E+00  0.115E+00
   3.430  0.335E+00  0.113E+00  0.110E+00  0.113E+00
   3.440  0.319E+00  0.107E+00  0.105E+00  0.107E+00
   3.450  0.300E+00  0.101E+00  0.988E-01  0.101E+00
   3.460  0.277E+00  0.928E-01  0.919E-01  0.928E-01
   3.470  0.266E+00  0.890E-01  0.879E-01  0.890E-01
   3.480  0.266E+00  0.894E-01  0.875E-01  0.894E-01
   3.490  0.273E+00  0.919E-01  0.890E-01  0.919E-01
   3.500  0.281E+00  0.951E-01  0.910E-01  0.951E-01
   3.510  0.282E+00  0.955E-01  0.906E-01  0.955E-01
   3.520  0.286E+00  0.975E-01  0.911E-01  0.975E-01
   3.530  0.314E+00  0.108E+00  0.986E-01  0.108E+00
   3.540  0.303E+00  0.103E+00  0.974E-01  0.103E+00
   3.550  0.258E+00  0.885E-01  0.806E-01  0.885E-01
   3.560  0.246E+00  0.858E-01  0.747E-01  0.858E-01
   3.570  0.241E+00  0.846E-01  0.716E-01  0.846E-01
   3.580  0.238E+00  0.839E-01  0.701E-01  0.839E-01
   3.590  0.237E+00  0.838E-01  0.698E-01  0.838E-01
   3.600  0.239E+00  0.842E-01  0.708E-01  0.842E-01
   3.610  0.243E+00  0.849E-01  0.729E-01  0.849E-01
   3.620  0.262E+00  0.905E-01  0.815E-01  0.905E-01
   3.630  0.278E+00  0.941E-01  0.900E-01  0.941E-01
   3.640  0.264E+00  0.876E-01  0.886E-01  0.876E-01
   3.650  0.300E+00  0.978E-01  0.105E+00  0.978E-01
   3.660  0.348E+00  0.101E+00  0.146E+00  0.101E+00
   3.670  0.469E+00  0.154E+00  0.161E+00  0.154E+00
   3.680  0.375E+00  0.117E+00  0.140E+00  0.117E+00
   3.690  0.378E+00  0.126E+00  0.126E+00  0.126E+00
   3.700  0.417E+00  0.137E+00  0.142E+00  0.137E+00
   3.710  0.386E+00  0.129E+00  0.128E+00  0.129E+00
   3.720  0.380E+00  0.128E+00  0.124E+00  0.128E+00
   3.730  0.375E+00  0.126E+00  0.122E+00  0.126E+00
   3.740  0.370E+00  0.125E+00  0.121E+00  0.125E+00
   3.750  0.363E+00  0.122E+00  0.119E+00  0.122E+00
   3.760  0.373E+00  0.128E+00  0.116E+00  0.128E+00
   3.770  0.348E+00  0.119E+00  0.109E+00  0.119E+00
   3.780  0.286E+00  0.984E-01  0.892E-01  0.984E-01
   3.790  0.240E+00  0.833E-01  0.737E-01  0.833E-01
   3.800  0.213E+00  0.738E-01  0.652E-01  0.738E-01
   3.810  0.193E+00  0.670E-01  0.594E-01  0.670E-01
   3.820  0.178E+00  0.615E-01  0.551E-01  0.615E-01
   3.830  0.170E+00  0.582E-01  0.531E-01  0.582E-01
   3.840  0.163E+00  0.555E-01  0.523E-01  0.555E-01
   3.850  0.160E+00  0.534E-01  0.530E-01  0.534E-01
   3.860  0.160E+00  0.524E-01  0.548E-01  0.524E-01
   3.870  0.164E+00  0.533E-01  0.578E-01  0.533E-01
   3.880  0.172E+00  0.554E-01  0.615E-01  0.554E-01
   3.890  0.183E+00  0.590E-01  0.650E-01  0.590E-01
   3.900  0.198E+00  0.647E-01  0.686E-01  0.647E-01
   3.910  0.215E+00  0.707E-01  0.738E-01  0.707E-01
   3.920  0.229E+00  0.756E-01  0.775E-01  0.756E-01
   3.930  0.238E+00  0.793E-01  0.796E-01  0.793E-01
   3.940  0.247E+00  0.826E-01  0.822E-01  0.826E-01
   3.950  0.259E+00  0.868E-01  0.857E-01  0.868E-01
   3.960  0.270E+00  0.907E-01  0.884E-01  0.907E-01
   3.970  0.283E+00  0.956E-01  0.919E-01  0.956E-01
   3.980  0.297E+00  0.100E+00  0.961E-01  0.100E+00
   3.990  0.305E+00  0.102E+00  0.102E+00  0.102E+00
   4.000  0.313E+00  0.103E+00  0.106E+00  0.103E+00
   4.010  0.294E+00  0.987E-01  0.960E-01  0.987E-01
   4.020  0.266E+00  0.887E-01  0.883E-01  0.887E-01
   4.030  0.254E+00  0.846E-01  0.846E-01  0.846E-01
   4.040  0.243E+00  0.808E-01  0.811E-01  0.808E-01
   4.050  0.232E+00  0.768E-01  0.783E-01  0.768E-01
   4.060  0.226E+00  0.744E-01  0.776E-01  0.744E-01
   4.070  0.238E+00  0.761E-01  0.853E-01  0.761E-01
   4.080  0.235E+00  0.759E-01  0.837E-01  0.759E-01
   4.090  0.216E+00  0.716E-01  0.725E-01  0.716E-01
   4.100  0.221E+00  0.739E-01  0.732E-01  0.739E-01
   4.110  0.226E+00  0.762E-01  0.738E-01  0.762E-01
   4.120  0.234E+00  0.792E-01  0.754E-01  0.792E-01
   4.130  0.249E+00  0.849E-01  0.795E-01  0.849E-01
   4.140  0.265E+00  0.906E-01  0.841E-01  0.906E-01
   4.150  0.286E+00  0.975E-01  0.905E-01  0.975E-01
   4.160  0.311E+00  0.106E+00  0.992E-01  0.106E+00
   4.170  0.337E+00  0.114E+00  0.109E+00  0.114E+00
   4.180  0.344E+00  0.115E+00  0.113E+00  0.115E+00
   4.190  0.354E+00  0.118E+00  0.119E+00  0.118E+00
   4.200  0.324E+00  0.105E+00  0.113E+00  0.105E+00
   4.210  0.316E+00  0.955E-01  0.125E+00  0.955E-01
   4.220  0.209E+00  0.706E-01  0.679E-01  0.706E-01
   4.230  0.183E+00  0.612E-01  0.603E-01  0.612E-01
   4.240  0.172E+00  0.574E-01  0.577E-01  0.574E-01
   4.250  0.172E+00  0.569E-01  0.584E-01  0.569E-01
   4.260  0.173E+00  0.567E-01  0.596E-01  0.567E-01
   4.270  0.171E+00  0.551E-01  0.604E-01  0.551E-01
   4.280  0.164E+00  0.523E-01  0.593E-01  0.523E-01
   4.290  0.153E+00  0.495E-01  0.539E-01  0.495E-01
   4.300  0.152E+00  0.491E-01  0.541E-01  0.491E-01
   4.310  0.154E+00  0.494E-01  0.556E-01  0.494E-01
   4.320  0.158E+00  0.502E-01  0.578E-01  0.502E-01
   4.330  0.163E+00  0.512E-01  0.602E-01  0.512E-01
   4.340  0.165E+00  0.517E-01  0.616E-01  0.517E-01
   4.350  0.166E+00  0.520E-01  0.615E-01  0.520E-01
   4.360  0.161E+00  0.515E-01  0.579E-01  0.515E-01
   4.370  0.158E+00  0.514E-01  0.548E-01  0.514E-01
   4.380  0.159E+00  0.520E-01  0.548E-01  0.520E-01
   4.390  0.160E+00  0.527E-01  0.546E-01  0.527E-01
   4.400  0.161E+00  0.534E-01  0.542E-01  0.534E-01
   4.410  0.162E+00  0.540E-01  0.541E-01  0.540E-01
   4.420  0.164E+00  0.547E-01  0.541E-01  0.547E-01
   4.430  0.167E+00  0.561E-01  0.550E-01  0.561E-01
   4.440  0.194E+00  0.658E-01  0.626E-01  0.658E-01
   4.450  0.208E+00  0.706E-01  0.673E-01  0.706E-01
   4.460  0.226E+00  0.773E-01  0.717E-01  0.773E-01
   4.470  0.226E+00  0.769E-01  0.722E-01  0.769E-01
   4.480  0.225E+00  0.773E-01  0.707E-01  0.773E-01
   4.490  0.244E+00  0.836E-01  0.767E-01  0.836E-01
   4.500  0.246E+00  0.845E-01  0.768E-01  0.845E-01
   4.510  0.240E+00  0.804E-01  0.795E-01  0.804E-01
   4.520  0.223E+00  0.737E-01  0.758E-01  0.737E-01
   4.530  0.203E+00  0.671E-01  0.692E-01  0.671E-01
   4.540  0.172E+00  0.574E-01  0.572E-01  0.574E-01
   4.550  0.145E+00  0.493E-01  0.460E-01  0.493E-01
   4.560  0.163E+00  0.557E-01  0.518E-01  0.557E-01
   4.570  0.202E+00  0.678E-01  0.665E-01  0.678E-01
   4.580  0.234E+00  0.779E-01  0.777E-01  0.779E-01
   4.590  0.249E+00  0.834E-01  0.827E-01  0.834E-01
   4.600  0.233E+00  0.789E-01  0.750E-01  0.789E-01
   4.610  0.178E+00  0.609E-01  0.567E-01  0.609E-01
   4.620  0.143E+00  0.478E-01  0.469E-01  0.478E-01
   4.630  0.125E+00  0.414E-01  0.421E-01  0.414E-01
   4.640  0.114E+00  0.377E-01  0.388E-01  0.377E-01
   4.650  0.106E+00  0.350E-01  0.363E-01  0.350E-01
   4.660  0.101E+00  0.331E-01  0.345E-01  0.331E-01
   4.670  0.964E-01  0.317E-01  0.330E-01  0.317E-01
   4.680  0.932E-01  0.307E-01  0.319E-01  0.307E-01
   4.690  0.908E-01  0.299E-01  0.310E-01  0.299E-01
   4.700  0.887E-01  0.293E-01  0.302E-01  0.293E-01
   4.710  0.866E-01  0.286E-01  0.294E-01  0.286E-01
   4.720  0.845E-01  0.279E-01  0.287E-01  0.279E-01
   4.730  0.824E-01  0.273E-01  0.279E-01  0.273E-01
   4.740  0.803E-01  0.266E-01  0.271E-01  0.266E-01
   4.750  0.783E-01  0.259E-01  0.265E-01  0.259E-01
   4.760  0.770E-01  0.254E-01  0.261E-01  0.254E-01
   4.770  0.770E-01  0.253E-01  0.264E-01  0.253E-01
   4.780  0.829E-01  0.274E-01  0.281E-01  0.274E-01
   4.790  0.921E-01  0.307E-01  0.306E-01  0.307E-01
   4.800  0.909E-01  0.302E-01  0.305E-01  0.302E-01
   4.810  0.790E-01  0.262E-01  0.266E-01  0.262E-01
   4.820  0.729E-01  0.242E-01  0.245E-01  0.242E-01
   4.830  0.714E-01  0.237E-01  0.239E-01  0.237E-01
   4.840  0.695E-01  0.231E-01  0.233E-01  0.231E-01
   4.850  0.673E-01  0.223E-01  0.226E-01  0.223E-01
   4.860  0.647E-01  0.214E-01  0.218E-01  0.214E-01
   4.870  0.620E-01  0.204E-01  0.212E-01  0.204E-01
   4.880  0.614E-01  0.198E-01  0.218E-01  0.198E-01
   4.890  0.632E-01  0.202E-01  0.228E-01  0.202E-01
   4.900  0.499E-01  0.151E-01  0.196E-01  0.151E-01
   4.910  0.446E-01  0.135E-01  0.176E-01  0.135E-01
   4.920  0.515E-01  0.166E-01  0.184E-01  0.166E-01
   4.930  0.570E-01  0.188E-01  0.195E-01  0.188E-01
   4.940  0.525E-01  0.169E-01  0.188E-01  0.169E-01
   4.950  0.479E-01  0.152E-01  0.174E-01  0.152E-01
   4.960  0.430E-01  0.136E-01  0.158E-01  0.136E-01
   4.970  0.384E-01  0.120E-01  0.143E-01  0.120E-01
   4.980  0.331E-01  0.103E-01  0.126E-01  0.103E-01
   4.990  0.279E-01  0.849E-02  0.109E-01  0.849E-02
   5.000  0.249E-01  0.747E-02  0.998E-02  0.747E-02
   5.010  0.234E-01  0.696E-02  0.947E-02  0.696E-02
   5.020  0.226E-01  0.670E-02  0.915E-02  0.670E-02
   5.030  0.222E-01  0.661E-02  0.893E-02  0.661E-02
   5.040  0.219E-01  0.659E-02  0.874E-02  0.659E-02
   5.050  0.217E-01  0.658E-02  0.853E-02  0.658E-02
   5.060  0.216E-01  0.662E-02  0.835E-02  0.662E-02
   5.070  0.239E-01  0.745E-02  0.905E-02  0.745E-02
   5.080  0.277E-01  0.889E-02  0.998E-02  0.889E-02
   5.090  0.339E-01  0.116E-01  0.108E-01  0.116E-01
   5.100  0.362E-01  0.128E-01  0.106E-01  0.128E-01
   5.110  0.360E-01  0.125E-01  0.109E-01  0.125E-01
   5.120  0.397E-01  0.138E-01  0.120E-01  0.138E-01
   5.130  0.444E-01  0.157E-01  0.130E-01  0.157E-01
   5.140  0.423E-01  0.151E-01  0.121E-01  0.151E-01
   5.150  0.354E-01  0.126E-01  0.102E-01  0.126E-01
   5.160  0.324E-01  0.115E-01  0.940E-02  0.115E-01
   5.170  0.286E-01  0.101E-01  0.844E-02  0.101E-01
   5.180  0.246E-01  0.859E-02  0.743E-02  0.859E-02
   5.190  0.210E-01  0.721E-02  0.654E-02  0.721E-02
   5.200  0.178E-01  0.603E-02  0.575E-02  0.603E-02
   5.210  0.151E-01  0.504E-02  0.502E-02  0.504E-02
   5.220  0.129E-01  0.426E-02  0.436E-02  0.426E-02
   5.230  0.111E-01  0.366E-02  0.380E-02  0.366E-02
   5.240  0.970E-02  0.318E-02  0.334E-02  0.318E-02
   5.250  0.840E-02  0.275E-02  0.290E-02  0.275E-02
   5.260  0.727E-02  0.238E-02  0.251E-02  0.238E-02
   5.270  0.638E-02  0.209E-02  0.221E-02  0.209E-02
   5.280  0.594E-02  0.195E-02  0.205E-02  0.195E-02
   5.290  0.629E-02  0.207E-02  0.215E-02  0.207E-02
   5.300  0.645E-02  0.214E-02  0.218E-02  0.214E-02
   5.310  0.619E-02  0.205E-02  0.208E-02  0.205E-02
   5.320  0.555E-02  0.185E-02  0.186E-02  0.185E-02
   5.330  0.461E-02  0.153E-02  0.154E-02  0.153E-02
   5.340  0.339E-02  0.113E-02  0.114E-02  0.113E-02
   5.350  0.198E-02  0.656E-03  0.666E-03  0.656E-03
   5.360  0.802E-03  0.262E-03  0.277E-03  0.262E-03
   5.370  0.389E-03  0.126E-03  0.136E-03  0.126E-03
   5.380  0.167E-03  0.543E-04  0.587E-04  0.543E-04
   5.390  0.442E-04  0.144E-04  0.155E-04  0.144E-04
   5.400  0.373E-05  0.126E-05  0.121E-05  0.126E-05
   5.410  0.389E-06  0.145E-06  0.999E-07  0.145E-06
   5.420  0.939E-08  0.350E-08  0.238E-08  0.350E-08
   5.430  0.000E+00  0.000E+00  0.000E+00  0.000E+00
   5.440  0.000E+00  0.000E+00  0.000E+00  0.000E+00
   5.450  0.000E+00  0.000E+00  0.000E+00  0.000E+00
   5.460  0.000E+00  0.000E+00  0.000E+00  0.000E+00
   5.470  0.000E+00  0.000E+00  0.000E+00  0.000E+00
   5.480  0.000E+00  0.000E+00  0.000E+00  0.000E+00
   5.490  0.000E+00  0.000E+00  0.000E+00  0.000E+00
   5.500  0.000E+00  0.000E+00  0.000E+00  0.000E+00
   5.510  0.000E+00  0.000E+00  0.000E+00  0.000E+00
   5.520  0.000E+00  0.000E+00  0.000E+00  0.000E+00
   5.530  0.000E+00  0.000E+00  0.000E+00  0.000E+00
   5.540  0.000E+00  0.000E+00  0.000E+00  0.000E+00
   5.550  0.000E+00  0.000E+00  0.000E+00  0.000E+00
   5.560  0.000E+00  0.000E+00  0.000E+00  0.000E+00
   5.570  0.000E+00  0.000E+00  0.000E+00  0.000E+00
   5.580  0.000E+00  0.000E+00  0.000E+00  0.000E+00
   5.590  0.000E+00  0.000E+00  0.000E+00  0.000E+00
   5.600  0.000E+00  0.000E+00  0.000E+00  0.000E+00
   5.610  0.000E+00  0.000E+00  0.000E+00  0.000E+00
   5.620  0.000E+00  0.000E+00  0.000E+00  0.000E+00
   5.630  0.000E+00  0.000E+00  0.000E+00  0.000E+00
   5.640  0.000E+00  0.000E+00  0.000E+00  0.000E+00
   5.650  0.000E+00  0.000E+00  0.000E+00  0.000E+00
   5.660  0.000E+00  0.000E+00  0.000E+00  0.000E+00
   5.670  0.000E+00  0.000E+00  0.000E+00  0.000E+00
   5.680  0.000E+00  0.000E+00  0.000E+00  0.000E+00
   5.690  0.000E+00  0.000E+00  0.000E+00  0.000E+00
   5.700  0.000E+00  0.000E+00  0.000E+00  0.000E+00
   5.710  0.000E+00  0.000E+00  0.000E+00  0.000E+00
   5.720  0.000E+00  0.000E+00  0.000E+00  0.000E+00
   5.730  0.000E+00  0.000E+00  0.000E+00  0.000E+00
   5.740  0.000E+00  0.000E+00  0.000E+00  0.000E+00
   5.750  0.000E+00  0.000E+00  0.000E+00  0.000E+00
   5.760  0.000E+00  0.000E+00  0.000E+00  0.000E+00
   5.770  0.000E+00  0.000E+00  0.000E+00  0.000E+00
   5.780  0.000E+00  0.000E+00  0.000E+00  0.000E+00
   5.790  0.000E+00  0.000E+00  0.000E+00  0.000E+00
   5.800  0.000E+00  0.000E+00  0.000E+00  0.000E+00
   5.810  0.000E+00  0.000E+00  0.000E+00  0.000E+00
   5.820  0.000E+00  0.000E+00  0.000E+00  0.000E+00
   5.830  0.000E+00  0.000E+00  0.000E+00  0.000E+00
   5.840  0.000E+00  0.000E+00  0.000E+00  0.000E+00
   5.850  0.000E+00  0.000E+00  0.000E+00  0.000E+00
   5.860  0.000E+00  0.000E+00  0.000E+00  0.000E+00
   5.870  0.000E+00  0.000E+00  0.000E+00  0.000E+00
   5.880  0.000E+00  0.000E+00  0.000E+00  0.000E+00
   5.890  0.000E+00  0.000E+00  0.000E+00  0.000E+00
   5.900  0.000E+00  0.000E+00  0.000E+00  0.000E+00
   5.910  0.000E+00  0.000E+00  0.000E+00  0.000E+00
   5.920  0.000E+00  0.000E+00  0.000E+00  0.000E+00
   5.930  0.000E+00  0.000E+00  0.000E+00  0.000E+00
   5.940  0.000E+00  0.000E+00  0.000E+00  0.000E+00
   5.950  0.000E+00  0.000E+00  0.000E+00  0.000E+00
   5.960  0.000E+00  0.000E+00  0.000E+00  0.000E+00
   5.970  0.000E+00  0.000E+00  0.000E+00  0.000E+00
   5.980  0.000E+00  0.000E+00  0.000E+00  0.000E+00
   5.990  0.000E+00  0.000E+00  0.000E+00  0.000E+00
   6.000  0.000E+00  0.000E+00  0.000E+00  0.000E+00
   6.010  0.000E+00  0.000E+00  0.000E+00  0.000E+00
   6.020  0.000E+00  0.000E+00  0.000E+00  0.000E+00
   6.030  0.000E+00  0.000E+00  0.000E+00  0.000E+00
   6.040  0.000E+00  0.000E+00  0.000E+00  0.000E+00
   6.050  0.000E+00  0.000E+00  0.000E+00  0.000E+00
   6.060  0.000E+00  0.000E+00  0.000E+00  0.000E+00
   6.070  0.000E+00  0.000E+00  0.000E+00  0.000E+00
   6.080  0.000E+00  0.000E+00  0.000E+00  0.000E+00
   6.090  0.000E+00  0.000E+00  0.000E+00  0.000E+00
   6.100  0.000E+00  0.000E+00  0.000E+00  0.000E+00
   6.110  0.000E+00  0.000E+00  0.000E+00  0.000E+00
   6.120  0.000E+00  0.000E+00  0.000E+00  0.000E+00
   6.130  0.000E+00  0.000E+00  0.000E+00  0.000E+00
   6.140  0.000E+00  0.000E+00  0.000E+00  0.000E+00
   6.150  0.000E+00  0.000E+00  0.000E+00  0.000E+00
   6.160  0.000E+00  0.000E+00  0.000E+00  0.000E+00
   6.170  0.000E+00  0.000E+00  0.000E+00  0.000E+00
   6.180  0.000E+00  0.000E+00  0.000E+00  0.000E+00
   6.190  0.000E+00  0.000E+00  0.000E+00  0.000E+00
   6.200  0.000E+00  0.000E+00  0.000E+00  0.000E+00
   6.210  0.000E+00  0.000E+00  0.000E+00  0.000E+00
   6.220  0.000E+00  0.000E+00  0.000E+00  0.000E+00
   6.230  0.000E+00  0.000E+00  0.000E+00  0.000E+00
   6.240  0.000E+00  0.000E+00  0.000E+00  0.000E+00
   6.250  0.000E+00  0.000E+00  0.000E+00  0.000E+00
   6.260  0.000E+00  0.000E+00  0.000E+00  0.000E+00
   6.270  0.000E+00  0.000E+00  0.000E+00  0.000E+00
   6.280  0.000E+00  0.000E+00  0.000E+00  0.000E+00
   6.290  0.000E+00  0.000E+00  0.000E+00  0.000E+00
   6.300  0.000E+00  0.000E+00  0.000E+00  0.000E+00
   6.310  0.000E+00  0.000E+00  0.000E+00  0.000E+00
   6.320  0.000E+00  0.000E+00  0.000E+00  0.000E+00
   6.330  0.000E+00  0.000E+00  0.000E+00  0.000E+00
   6.340  0.000E+00  0.000E+00  0.000E+00  0.000E+00
   6.350  0.000E+00  0.000E+00  0.000E+00  0.000E+00
   6.360  0.000E+00  0.000E+00  0.000E+00  0.000E+00
   6.370  0.000E+00  0.000E+00  0.000E+00  0.000E+00
   6.380  0.000E+00  0.000E+00  0.000E+00  0.000E+00
   6.390  0.000E+00  0.000E+00  0.000E+00  0.000E+00
   6.400  0.000E+00  0.000E+00  0.000E+00  0.000E+00
   6.410  0.000E+00  0.000E+00  0.000E+00  0.000E+00
   6.420  0.000E+00  0.000E+00  0.000E+00  0.000E+00
   6.430  0.000E+00  0.000E+00  0.000E+00  0.000E+00
   6.440  0.000E+00  0.000E+00  0.000E+00  0.000E+00
   6.450  0.000E+00  0.000E+00  0.000E+00  0.000E+00
   6.460  0.000E+00  0.000E+00  0.000E+00  0.000E+00
   6.470  0.000E+00  0.000E+00  0.000E+00  0.000E+00
   6.480  0.000E+00  0.000E+00  0.000E+00  0.000E+00
   6.490  0.000E+00  0.000E+00  0.000E+00  0.000E+00
   6.500  0.000E+00  0.000E+00  0.000E+00  0.000E+00
   6.510  0.000E+00  0.000E+00  0.000E+00  0.000E+00
   6.520  0.000E+00  0.000E+00  0.000E+00  0.000E+00
   6.530  0.000E+00  0.000E+00  0.000E+00  0.000E+00
   6.540  0.000E+00  0.000E+00  0.000E+00  0.000E+00
   6.550  0.000E+00  0.000E+00  0.000E+00  0.000E+00
   6.560  0.000E+00  0.000E+00  0.000E+00  0.000E+00
   6.570  0.000E+00  0.000E+00  0.000E+00  0.000E+00
   6.580  0.000E+00  0.000E+00  0.000E+00  0.000E+00
   6.590  0.000E+00  0.000E+00  0.000E+00  0.000E+00
   6.600  0.000E+00  0.000E+00  0.000E+00  0.000E+00
   6.610  0.000E+00  0.000E+00  0.000E+00  0.000E+00
   6.620  0.000E+00  0.000E+00  0.000E+00  0.000E+00
   6.630  0.000E+00  0.000E+00  0.000E+00  0.000E+00
   6.640  0.000E+00  0.000E+00  0.000E+00  0.000E+00
   6.650  0.000E+00  0.000E+00  0.000E+00  0.000E+00
   6.660  0.000E+00  0.000E+00  0.000E+00  0.000E+00
   6.670  0.000E+00  0.000E+00  0.000E+00  0.000E+00
   6.680  0.000E+00  0.000E+00  0.000E+00  0.000E+00
   6.690  0.000E+00  0.000E+00  0.000E+00  0.000E+00
   6.700  0.000E+00  0.000E+00  0.000E+00  0.000E+00
   6.710  0.000E+00  0.000E+00  0.000E+00  0.000E+00
   6.720  0.000E+00  0.000E+00  0.000E+00  0.000E+00
   6.730  0.000E+00  0.000E+00  0.000E+00  0.000E+00
   6.740  0.000E+00  0.000E+00  0.000E+00  0.000E+00
   6.750  0.000E+00  0.000E+00  0.000E+00  0.000E+00
   6.760  0.000E+00  0.000E+00  0.000E+00  0.000E+00
   6.770  0.000E+00  0.000E+00  0.000E+00  0.000E+00
   6.780  0.000E+00  0.000E+00  0.000E+00  0.000E+00
   6.790  0.000E+00  0.000E+00  0.000E+00  0.000E+00
   6.800  0.000E+00  0.000E+00  0.000E+00  0.000E+00
   6.810  0.000E+00  0.000E+00  0.000E+00  0.000E+00
   6.820  0.000E+00  0.000E+00  0.000E+00  0.000E+00
   6.830  0.000E+00  0.000E+00  0.000E+00  0.000E+00
   6.840  0.000E+00  0.000E+00  0.000E+00  0.000E+00
   6.850  0.000E+00  0.000E+00  0.000E+00  0.000E+00
   6.860  0.000E+00  0.000E+00  0.000E+00  0.000E+00
   6.870  0.000E+00  0.000E+00  0.000E+00  0.000E+00
   6.880  0.000E+00  0.000E+00  0.000E+00  0.000E+00
   6.890  0.000E+00  0.000E+00  0.000E+00  0.000E+00
   6.900  0.000E+00  0.000E+00  0.000E+00  0.000E+00
   6.910  0.000E+00  0.000E+00  0.000E+00  0.000E+00
   6.920  0.000E+00  0.000E+00  0.000E+00  0.000E+00
   6.930  0.000E+00  0.000E+00  0.000E+00  0.000E+00
   6.940  0.000E+00  0.000E+00  0.000E+00  0.000E+00
   6.950  0.000E+00  0.000E+00  0.000E+00  0.000E+00
   6.960  0.000E+00  0.000E+00  0.000E+00  0.000E+00
   6.970  0.000E+00  0.000E+00  0.000E+00  0.000E+00
   6.980  0.000E+00  0.000E+00  0.000E+00  0.000E+00
   6.990  0.000E+00  0.000E+00  0.000E+00  0.000E+00
   7.000  0.000E+00  0.000E+00  0.000E+00  0.000E+00
   7.010  0.000E+00  0.000E+00  0.000E+00  0.000E+00
   7.020  0.000E+00  0.000E+00  0.000E+00  0.000E+00
   7.030  0.000E+00  0.000E+00  0.000E+00  0.000E+00
   7.040  0.000E+00  0.000E+00  0.000E+00  0.000E+00
   7.050  0.000E+00  0.000E+00  0.000E+00  0.000E+00
   7.060  0.000E+00  0.000E+00  0.000E+00  0.000E+00
   7.070  0.000E+00  0.000E+00  0.000E+00  0.000E+00
   7.080  0.000E+00  0.000E+00  0.000E+00  0.000E+00
   7.090  0.000E+00  0.000E+00  0.000E+00  0.000E+00
   7.100  0.000E+00  0.000E+00  0.000E+00  0.000E+00
   7.110  0.000E+00  0.000E+00  0.000E+00  0.000E+00
   7.120  0.000E+00  0.000E+00  0.000E+00  0.000E+00
   7.130  0.000E+00  0.000E+00  0.000E+00  0.000E+00
   7.140  0.000E+00  0.000E+00  0.000E+00  0.000E+00
   7.150  0.000E+00  0.000E+00  0.000E+00  0.000E+00
   7.160  0.000E+00  0.000E+00  0.000E+00  0.000E+00
   7.170  0.000E+00  0.000E+00  0.000E+00  0.000E+00
   7.180  0.000E+00  0.000E+00  0.000E+00  0.000E+00
   7.190  0.000E+00  0.000E+00  0.000E+00  0.000E+00
   7.200  0.000E+00  0.000E+00  0.000E+00  0.000E+00
   7.210  0.000E+00  0.000E+00  0.000E+00  0.000E+00
   7.220  0.000E+00  0.000E+00  0.000E+00  0.000E+00
   7.230  0.000E+00  0.000E+00  0.000E+00  0.000E+00
   7.240  0.000E+00  0.000E+00  0.000E+00  0.000E+00
   7.250  0.000E+00  0.000E+00  0.000E+00  0.000E+00
   7.260  0.000E+00  0.000E+00  0.000E+00  0.000E+00
   7.270  0.000E+00  0.000E+00  0.000E+00  0.000E+00
   7.280  0.000E+00  0.000E+00  0.000E+00  0.000E+00
   7.290  0.000E+00  0.000E+00  0.000E+00  0.000E+00
   7.300  0.000E+00  0.000E+00  0.000E+00  0.000E+00
   7.310  0.000E+00  0.000E+00  0.000E+00  0.000E+00
   7.320  0.000E+00  0.000E+00  0.000E+00  0.000E+00
   7.330  0.000E+00  0.000E+00  0.000E+00  0.000E+00
   7.340  0.000E+00  0.000E+00  0.000E+00  0.000E+00
   7.350  0.000E+00  0.000E+00  0.000E+00  0.000E+00
   7.360  0.000E+00  0.000E+00  0.000E+00  0.000E+00
   7.370  0.000E+00  0.000E+00  0.000E+00  0.000E+00
   7.380  0.000E+00  0.000E+00  0.000E+00  0.000E+00
   7.390  0.000E+00  0.000E+00  0.000E+00  0.000E+00
   7.400  0.000E+00  0.000E+00  0.000E+00  0.000E+00
   7.410  0.000E+00  0.000E+00  0.000E+00  0.000E+00
   7.420  0.000E+00  0.000E+00  0.000E+00  0.000E+00
   7.430  0.000E+00  0.000E+00  0.000E+00  0.000E+00
   7.440  0.000E+00  0.000E+00  0.000E+00  0.000E+00
   7.450 -0.141E-07 -0.288E-08 -0.836E-08 -0.288E-08
   7.460 -0.106E-06 -0.209E-07 -0.640E-07 -0.209E-07
   7.470 -0.267E-06 -0.508E-07 -0.166E-06 -0.508E-07
   7.480 -0.495E-06 -0.928E-07 -0.310E-06 -0.928E-07
   7.490 -0.872E-06 -0.181E-06 -0.510E-06 -0.181E-06
   7.500 -0.136E-05 -0.305E-06 -0.748E-06 -0.305E-06
   7.510 -0.189E-05 -0.444E-06 -0.999E-06 -0.444E-06
   7.520 -0.240E-05 -0.578E-06 -0.124E-05 -0.578E-06
   7.530 -0.282E-05 -0.685E-06 -0.144E-05 -0.685E-06
   7.540 -0.308E-05 -0.745E-06 -0.159E-05 -0.745E-06
   7.550 -0.312E-05 -0.737E-06 -0.165E-05 -0.737E-06
   7.560 -0.288E-05 -0.640E-06 -0.160E-05 -0.640E-06
   7.570 -0.229E-05 -0.433E-06 -0.142E-05 -0.433E-06
   7.580 -0.127E-05 -0.961E-07 -0.108E-05 -0.961E-07
   7.590  0.228E-06  0.393E-06 -0.558E-06  0.393E-06
   7.600  0.228E-05  0.105E-05  0.172E-06  0.105E-05
   7.610  0.495E-05  0.191E-05  0.113E-05  0.191E-05
   7.620  0.830E-05  0.297E-05  0.235E-05  0.297E-05
   7.630  0.124E-04  0.428E-05  0.385E-05  0.428E-05
   7.640  0.173E-04  0.583E-05  0.565E-05  0.583E-05
   7.650  0.231E-04  0.767E-05  0.778E-05  0.767E-05
   7.660  0.299E-04  0.980E-05  0.103E-04  0.980E-05
   7.670  0.376E-04  0.122E-04  0.131E-04  0.122E-04
   7.680  0.465E-04  0.150E-04  0.164E-04  0.150E-04
   7.690  0.565E-04  0.182E-04  0.201E-04  0.182E-04
   7.700  0.677E-04  0.217E-04  0.243E-04  0.217E-04
   7.710  0.802E-04  0.256E-04  0.289E-04  0.256E-04
   7.720  0.940E-04  0.300E-04  0.340E-04  0.300E-04
   7.730  0.109E-03  0.348E-04  0.397E-04  0.348E-04
   7.740  0.126E-03  0.400E-04  0.459E-04  0.400E-04
   7.750  0.144E-03  0.458E-04  0.526E-04  0.458E-04
   7.760  0.164E-03  0.520E-04  0.600E-04  0.520E-04
   7.770  0.186E-03  0.588E-04  0.680E-04  0.588E-04
   7.780  0.209E-03  0.661E-04  0.767E-04  0.661E-04
   7.790  0.234E-03  0.740E-04  0.860E-04  0.740E-04
   7.800  0.261E-03  0.825E-04  0.960E-04  0.825E-04
   7.810  0.290E-03  0.916E-04  0.107E-03  0.916E-04
   7.820  0.321E-03  0.101E-03  0.118E-03  0.101E-03
   7.830  0.353E-03  0.111E-03  0.130E-03  0.111E-03
   7.840  0.386E-03  0.122E-03  0.142E-03  0.122E-03
   7.850  0.422E-03  0.133E-03  0.155E-03  0.133E-03
   7.860  0.462E-03  0.146E-03  0.170E-03  0.146E-03
   7.870  0.507E-03  0.160E-03  0.186E-03  0.160E-03
   7.880  0.558E-03  0.177E-03  0.204E-03  0.177E-03
   7.890  0.609E-03  0.193E-03  0.223E-03  0.193E-03
   7.900  0.661E-03  0.210E-03  0.241E-03  0.210E-03
   7.910  0.713E-03  0.227E-03  0.259E-03  0.227E-03
   7.920  0.765E-03  0.244E-03  0.277E-03  0.244E-03
   7.930  0.818E-03  0.262E-03  0.294E-03  0.262E-03
   7.940  0.871E-03  0.280E-03  0.312E-03  0.280E-03
   7.950  0.925E-03  0.298E-03  0.330E-03  0.298E-03
   7.960  0.980E-03  0.316E-03  0.347E-03  0.316E-03
   7.970  0.104E-02  0.335E-03  0.365E-03  0.335E-03
   7.980  0.109E-02  0.355E-03  0.383E-03  0.355E-03
   7.990  0.115E-02  0.375E-03  0.401E-03  0.375E-03
   8.000  0.121E-02  0.395E-03  0.419E-03  0.395E-03
   8.010  0.127E-02  0.416E-03  0.437E-03  0.416E-03
   8.020  0.133E-02  0.437E-03  0.454E-03  0.437E-03
   8.030  0.139E-02  0.459E-03  0.472E-03  0.459E-03
   8.040  0.145E-02  0.481E-03  0.490E-03  0.481E-03
   8.050  0.151E-02  0.504E-03  0.507E-03  0.504E-03
   8.060  0.158E-02  0.526E-03  0.525E-03  0.526E-03
   8.070  0.164E-02  0.550E-03  0.542E-03  0.550E-03
   8.080  0.171E-02  0.573E-03  0.559E-03  0.573E-03
   8.090  0.177E-02  0.597E-03  0.576E-03  0.597E-03
   8.100  0.184E-02  0.622E-03  0.593E-03  0.622E-03
   8.110  0.190E-02  0.645E-03  0.607E-03  0.645E-03
   8.120  0.195E-02  0.667E-03  0.618E-03  0.667E-03
   8.130  0.200E-02  0.686E-03  0.625E-03  0.686E-03
   8.140  0.203E-02  0.703E-03  0.627E-03  0.703E-03
   8.150  0.207E-02  0.721E-03  0.631E-03  0.721E-03
   8.160  0.212E-02  0.742E-03  0.636E-03  0.742E-03
   8.170  0.217E-02  0.764E-03  0.642E-03  0.764E-03
   8.180  0.222E-02  0.788E-03  0.649E-03  0.788E-03
   8.190  0.228E-02  0.812E-03  0.655E-03  0.812E-03
   8.200  0.233E-02  0.836E-03  0.660E-03  0.836E-03
   8.210  0.239E-02  0.860E-03  0.665E-03  0.860E-03
   8.220  0.244E-02  0.885E-03  0.671E-03  0.885E-03
   8.230  0.250E-02  0.912E-03  0.677E-03  0.912E-03
   8.240  0.256E-02  0.939E-03  0.683E-03  0.939E-03
   8.250  0.263E-02  0.969E-03  0.691E-03  0.969E-03
   8.260  0.270E-02  0.100E-02  0.700E-03  0.100E-02
   8.270  0.278E-02  0.103E-02  0.711E-03  0.103E-02
   8.280  0.286E-02  0.107E-02  0.723E-03  0.107E-02
   8.290  0.296E-02  0.111E-02  0.737E-03  0.111E-02
   8.300  0.306E-02  0.115E-02  0.753E-03  0.115E-02
   8.310  0.317E-02  0.120E-02  0.773E-03  0.120E-02
   8.320  0.329E-02  0.125E-02  0.794E-03  0.125E-02
   8.330  0.342E-02  0.130E-02  0.815E-03  0.130E-02
   8.340  0.354E-02  0.135E-02  0.837E-03  0.135E-02
   8.350  0.368E-02  0.141E-02  0.859E-03  0.141E-02
   8.360  0.381E-02  0.146E-02  0.881E-03  0.146E-02
   8.370  0.395E-02  0.152E-02  0.904E-03  0.152E-02
   8.380  0.409E-02  0.158E-02  0.927E-03  0.158E-02
   8.390  0.423E-02  0.164E-02  0.950E-03  0.164E-02
   8.400  0.437E-02  0.170E-02  0.973E-03  0.170E-02
   8.410  0.452E-02  0.176E-02  0.998E-03  0.176E-02
   8.420  0.468E-02  0.183E-02  0.102E-02  0.183E-02
   8.430  0.484E-02  0.189E-02  0.105E-02  0.189E-02
   8.440  0.500E-02  0.196E-02  0.108E-02  0.196E-02
   8.450  0.517E-02  0.203E-02  0.110E-02  0.203E-02
   8.460  0.535E-02  0.211E-02  0.113E-02  0.211E-02
   8.470  0.553E-02  0.218E-02  0.116E-02  0.218E-02
   8.480  0.572E-02  0.226E-02  0.119E-02  0.226E-02
   8.490  0.591E-02  0.234E-02  0.123E-02  0.234E-02
   8.500  0.611E-02  0.243E-02  0.126E-02  0.243E-02
   8.510  0.632E-02  0.251E-02  0.129E-02  0.251E-02
   8.520  0.653E-02  0.260E-02  0.133E-02  0.260E-02
   8.530  0.676E-02  0.269E-02  0.137E-02  0.269E-02
   8.540  0.699E-02  0.279E-02  0.141E-02  0.279E-02
   8.550  0.722E-02  0.289E-02  0.145E-02  0.289E-02
   8.560  0.747E-02  0.299E-02  0.149E-02  0.299E-02
   8.570  0.772E-02  0.309E-02  0.154E-02  0.309E-02
   8.580  0.798E-02  0.320E-02  0.158E-02  0.320E-02
   8.590  0.825E-02  0.331E-02  0.163E-02  0.331E-02
   8.600  0.853E-02  0.342E-02  0.168E-02  0.342E-02
   8.610  0.882E-02  0.354E-02  0.174E-02  0.354E-02
   8.620  0.911E-02  0.366E-02  0.179E-02  0.366E-02
   8.630  0.942E-02  0.378E-02  0.185E-02  0.378E-02
   8.640  0.973E-02  0.391E-02  0.191E-02  0.391E-02
   8.650  0.101E-01  0.404E-02  0.197E-02  0.404E-02
   8.660  0.104E-01  0.418E-02  0.203E-02  0.418E-02
   8.670  0.107E-01  0.431E-02  0.210E-02  0.431E-02
   8.680  0.111E-01  0.445E-02  0.217E-02  0.445E-02
   8.690  0.115E-01  0.460E-02  0.227E-02  0.460E-02
   8.700  0.119E-01  0.473E-02  0.246E-02  0.473E-02
   8.710  0.125E-01  0.486E-02  0.275E-02  0.486E-02
   8.720  0.131E-01  0.497E-02  0.312E-02  0.497E-02
   8.730  0.137E-01  0.508E-02  0.359E-02  0.508E-02
   8.740  0.145E-01  0.519E-02  0.414E-02  0.519E-02
   8.750  0.154E-01  0.531E-02  0.478E-02  0.531E-02
   8.760  0.164E-01  0.542E-02  0.552E-02  0.542E-02
   8.770  0.174E-01  0.555E-02  0.635E-02  0.555E-02
   8.780  0.186E-01  0.570E-02  0.724E-02  0.570E-02
   8.790  0.207E-01  0.596E-02  0.873E-02  0.596E-02
   8.800  0.240E-01  0.646E-02  0.111E-01  0.646E-02
   8.810  0.346E-01  0.854E-02  0.175E-01  0.854E-02
   8.820  0.399E-01  0.102E-01  0.195E-01  0.102E-01
   8.830  0.409E-01  0.108E-01  0.193E-01  0.108E-01
   8.840  0.422E-01  0.115E-01  0.192E-01  0.115E-01
   8.850  0.437E-01  0.123E-01  0.191E-01  0.123E-01
   8.860  0.461E-01  0.133E-01  0.194E-01  0.133E-01
   8.870  0.500E-01  0.149E-01  0.202E-01  0.149E-01
   8.880  0.541E-01  0.166E-01  0.210E-01  0.166E-01
   8.890  0.572E-01  0.179E-01  0.214E-01  0.179E-01
   8.900  0.595E-01  0.189E-01  0.217E-01  0.189E-01
   8.910  0.617E-01  0.199E-01  0.220E-01  0.199E-01
   8.920  0.644E-01  0.208E-01  0.228E-01  0.208E-01
   8.930  0.668E-01  0.216E-01  0.237E-01  0.216E-01
   8.940  0.692E-01  0.224E-01  0.244E-01  0.224E-01
   8.950  0.715E-01  0.233E-01  0.249E-01  0.233E-01
   8.960  0.741E-01  0.244E-01  0.254E-01  0.244E-01
   8.970  0.775E-01  0.257E-01  0.261E-01  0.257E-01
   8.980  0.922E-01  0.309E-01  0.304E-01  0.309E-01
   8.990  0.101E+00  0.341E-01  0.329E-01  0.341E-01
   9.000  0.101E+00  0.342E-01  0.325E-01  0.342E-01
   9.010  0.950E-01  0.324E-01  0.303E-01  0.324E-01
   9.020  0.942E-01  0.322E-01  0.297E-01  0.322E-01
   9.030  0.980E-01  0.337E-01  0.306E-01  0.337E-01
   9.040  0.102E+00  0.351E-01  0.316E-01  0.351E-01
   9.050  0.112E+00  0.385E-01  0.347E-01  0.385E-01
   9.060  0.108E+00  0.372E-01  0.338E-01  0.372E-01
   9.070  0.111E+00  0.379E-01  0.350E-01  0.379E-01
   9.080  0.118E+00  0.400E-01  0.376E-01  0.400E-01
   9.090  0.125E+00  0.420E-01  0.407E-01  0.420E-01
   9.100  0.132E+00  0.443E-01  0.438E-01  0.443E-01
   9.110  0.139E+00  0.463E-01  0.466E-01  0.463E-01
   9.120  0.146E+00  0.485E-01  0.494E-01  0.485E-01
   9.130  0.153E+00  0.506E-01  0.522E-01  0.506E-01
   9.140  0.161E+00  0.528E-01  0.550E-01  0.528E-01
   9.150  0.168E+00  0.550E-01  0.579E-01  0.550E-01
   9.160  0.176E+00  0.574E-01  0.609E-01  0.574E-01
   9.170  0.184E+00  0.600E-01  0.640E-01  0.600E-01
   9.180  0.192E+00  0.626E-01  0.672E-01  0.626E-01
   9.190  0.201E+00  0.651E-01  0.703E-01  0.651E-01
   9.200  0.212E+00  0.686E-01  0.743E-01  0.686E-01
   9.210  0.222E+00  0.719E-01  0.780E-01  0.719E-01
   9.220  0.231E+00  0.750E-01  0.815E-01  0.750E-01
   9.230  0.241E+00  0.780E-01  0.850E-01  0.780E-01
   9.240  0.251E+00  0.812E-01  0.886E-01  0.812E-01
   9.250  0.261E+00  0.846E-01  0.923E-01  0.846E-01
   9.260  0.272E+00  0.881E-01  0.960E-01  0.881E-01
   9.270  0.283E+00  0.917E-01  0.998E-01  0.917E-01
   9.280  0.294E+00  0.952E-01  0.103E+00  0.952E-01
   9.290  0.302E+00  0.980E-01  0.106E+00  0.980E-01
   9.300  0.318E+00  0.104E+00  0.110E+00  0.104E+00
   9.310  0.336E+00  0.110E+00  0.115E+00  0.110E+00
   9.320  0.354E+00  0.116E+00  0.121E+00  0.116E+00
   9.330  0.366E+00  0.121E+00  0.125E+00  0.121E+00
   9.340  0.370E+00  0.122E+00  0.126E+00  0.122E+00
   9.350  0.369E+00  0.122E+00  0.125E+00  0.122E+00
   9.360  0.361E+00  0.119E+00  0.122E+00  0.119E+00
   9.370  0.345E+00  0.115E+00  0.116E+00  0.115E+00
   9.380  0.330E+00  0.111E+00  0.109E+00  0.111E+00
   9.390  0.317E+00  0.107E+00  0.102E+00  0.107E+00
   9.400  0.307E+00  0.105E+00  0.968E-01  0.105E+00
   9.410  0.299E+00  0.103E+00  0.919E-01  0.103E+00
   9.420  0.291E+00  0.102E+00  0.875E-01  0.102E+00
   9.430  0.280E+00  0.983E-01  0.833E-01  0.983E-01
   9.440  0.262E+00  0.906E-01  0.810E-01  0.906E-01
   9.450  0.273E+00  0.931E-01  0.868E-01  0.931E-01
   9.460  0.269E+00  0.920E-01  0.849E-01  0.920E-01
   9.470  0.279E+00  0.947E-01  0.900E-01  0.947E-01
   9.480  0.287E+00  0.961E-01  0.942E-01  0.961E-01
   9.490  0.292E+00  0.960E-01  0.997E-01  0.960E-01
   9.500  0.297E+00  0.960E-01  0.105E+00  0.960E-01
   9.510  0.300E+00  0.964E-01  0.107E+00  0.964E-01
   9.520  0.295E+00  0.947E-01  0.106E+00  0.947E-01
   9.530  0.286E+00  0.923E-01  0.102E+00  0.923E-01
   9.540  0.290E+00  0.947E-01  0.100E+00  0.947E-01
   9.550  0.275E+00  0.938E-01  0.870E-01  0.938E-01
   9.560  0.256E+00  0.905E-01  0.749E-01  0.905E-01
   9.570  0.270E+00  0.971E-01  0.756E-01  0.971E-01
   9.580  0.279E+00  0.102E+00  0.755E-01  0.102E+00
   9.590  0.285E+00  0.105E+00  0.754E-01  0.105E+00
   9.600  0.290E+00  0.107E+00  0.757E-01  0.107E+00
   9.610  0.296E+00  0.110E+00  0.767E-01  0.110E+00
   9.620  0.305E+00  0.113E+00  0.787E-01  0.113E+00
   9.630  0.318E+00  0.118E+00  0.820E-01  0.118E+00
   9.640  0.331E+00  0.123E+00  0.843E-01  0.123E+00
   9.650  0.346E+00  0.128E+00  0.892E-01  0.128E+00
   9.660  0.361E+00  0.133E+00  0.957E-01  0.133E+00
   9.670  0.375E+00  0.136E+00  0.104E+00  0.136E+00
   9.680  0.387E+00  0.137E+00  0.112E+00  0.137E+00
   9.690  0.397E+00  0.138E+00  0.122E+00  0.138E+00
   9.700  0.399E+00  0.135E+00  0.129E+00  0.135E+00
   9.710  0.430E+00  0.140E+00  0.149E+00  0.140E+00
   9.720  0.396E+00  0.115E+00  0.166E+00  0.115E+00
   9.730  0.340E+00  0.104E+00  0.131E+00  0.104E+00
   9.740  0.325E+00  0.993E-01  0.126E+00  0.993E-01
   9.750  0.311E+00  0.944E-01  0.122E+00  0.944E-01
   9.760  0.300E+00  0.906E-01  0.118E+00  0.906E-01
   9.770  0.290E+00  0.876E-01  0.114E+00  0.876E-01
   9.780  0.283E+00  0.858E-01  0.111E+00  0.858E-01
   9.790  0.279E+00  0.852E-01  0.109E+00  0.852E-01
   9.800  0.278E+00  0.857E-01  0.107E+00  0.857E-01
   9.810  0.288E+00  0.902E-01  0.107E+00  0.902E-01
   9.820  0.546E+00  0.160E+00  0.227E+00  0.160E+00
   9.830  0.898E+00  0.259E+00  0.380E+00  0.259E+00
   9.840  0.918E+00  0.296E+00  0.326E+00  0.296E+00
   9.850  0.103E+01  0.341E+00  0.345E+00  0.341E+00
   9.860  0.891E+00  0.289E+00  0.314E+00  0.289E+00
   9.870  0.727E+00  0.233E+00  0.262E+00  0.233E+00
   9.880  0.798E+00  0.232E+00  0.335E+00  0.232E+00
   9.890  0.724E+00  0.192E+00  0.339E+00  0.192E+00
   9.900  0.546E+00  0.187E+00  0.172E+00  0.187E+00
   9.910  0.562E+00  0.198E+00  0.166E+00  0.198E+00
   9.920  0.592E+00  0.212E+00  0.168E+00  0.212E+00
   9.930  0.603E+00  0.216E+00  0.172E+00  0.216E+00
   9.940  0.609E+00  0.217E+00  0.174E+00  0.217E+00
   9.950  0.609E+00  0.217E+00  0.175E+00  0.217E+00
   9.960  0.607E+00  0.215E+00  0.176E+00  0.215E+00
   9.970  0.600E+00  0.212E+00  0.176E+00  0.212E+00
   9.980  0.590E+00  0.207E+00  0.177E+00  0.207E+00
   9.990  0.581E+00  0.201E+00  0.178E+00  0.201E+00
  10.000  0.571E+00  0.196E+00  0.179E+00  0.196E+00
  10.010  0.561E+00  0.191E+00  0.180E+00  0.191E+00
  10.020  0.549E+00  0.185E+00  0.180E+00  0.185E+00
  10.030  0.542E+00  0.181E+00  0.181E+00  0.181E+00
  10.040  0.543E+00  0.181E+00  0.182E+00  0.181E+00
  10.050  0.702E+00  0.218E+00  0.267E+00  0.218E+00
  10.060  0.694E+00  0.231E+00  0.232E+00  0.231E+00
  10.070  0.742E+00  0.253E+00  0.236E+00  0.253E+00
  10.080  0.579E+00  0.193E+00  0.193E+00  0.193E+00
  10.090  0.484E+00  0.159E+00  0.166E+00  0.159E+00
  10.100  0.437E+00  0.143E+00  0.152E+00  0.143E+00
  10.110  0.397E+00  0.129E+00  0.139E+00  0.129E+00
  10.120  0.363E+00  0.118E+00  0.127E+00  0.118E+00
  10.130  0.333E+00  0.109E+00  0.116E+00  0.109E+00
  10.140  0.307E+00  0.101E+00  0.105E+00  0.101E+00
  10.150  0.284E+00  0.943E-01  0.958E-01  0.943E-01
  10.160  0.270E+00  0.901E-01  0.902E-01  0.901E-01
  10.170  0.263E+00  0.878E-01  0.875E-01  0.878E-01
  10.180  0.257E+00  0.861E-01  0.853E-01  0.861E-01
  10.190  0.253E+00  0.848E-01  0.833E-01  0.848E-01
  10.200  0.249E+00  0.838E-01  0.815E-01  0.838E-01
  10.210  0.246E+00  0.830E-01  0.798E-01  0.830E-01
  10.220  0.243E+00  0.825E-01  0.783E-01  0.825E-01
  10.230  0.241E+00  0.820E-01  0.770E-01  0.820E-01
  10.240  0.239E+00  0.817E-01  0.757E-01  0.817E-01
  10.250  0.238E+00  0.815E-01  0.747E-01  0.815E-01
  10.260  0.236E+00  0.812E-01  0.738E-01  0.812E-01
  10.270  0.268E+00  0.912E-01  0.856E-01  0.912E-01
  10.280  0.341E+00  0.116E+00  0.109E+00  0.116E+00
  10.290  0.613E+00  0.206E+00  0.201E+00  0.206E+00
  10.300  0.837E+00  0.281E+00  0.275E+00  0.281E+00
  10.310  0.858E+00  0.293E+00  0.272E+00  0.293E+00
  10.320  0.709E+00  0.262E+00  0.185E+00  0.262E+00
  10.330  0.404E+00  0.156E+00  0.914E-01  0.156E+00
  10.340  0.318E+00  0.126E+00  0.652E-01  0.126E+00
  10.350  0.286E+00  0.113E+00  0.603E-01  0.113E+00
  10.360  0.255E+00  0.980E-01  0.589E-01  0.980E-01
  10.370  0.221E+00  0.811E-01  0.588E-01  0.811E-01
  10.380  0.195E+00  0.674E-01  0.601E-01  0.674E-01
  10.390  0.188E+00  0.620E-01  0.638E-01  0.620E-01
  10.400  0.194E+00  0.624E-01  0.688E-01  0.624E-01
  10.410  0.210E+00  0.678E-01  0.742E-01  0.678E-01
  10.420  0.229E+00  0.744E-01  0.799E-01  0.744E-01
  10.430  0.244E+00  0.790E-01  0.860E-01  0.790E-01
  10.440  0.258E+00  0.831E-01  0.923E-01  0.831E-01
  10.450  0.271E+00  0.871E-01  0.973E-01  0.871E-01
  10.460  0.281E+00  0.907E-01  0.100E+00  0.907E-01
  10.470  0.291E+00  0.941E-01  0.103E+00  0.941E-01
  10.480  0.301E+00  0.971E-01  0.106E+00  0.971E-01
  10.490  0.309E+00  0.995E-01  0.110E+00  0.995E-01
  10.500  0.316E+00  0.101E+00  0.114E+00  0.101E+00
  10.510  0.319E+00  0.102E+00  0.116E+00  0.102E+00
  10.520  0.321E+00  0.101E+00  0.118E+00  0.101E+00
  10.530  0.321E+00  0.101E+00  0.120E+00  0.101E+00
  10.540  0.323E+00  0.101E+00  0.121E+00  0.101E+00
  10.550  0.325E+00  0.102E+00  0.121E+00  0.102E+00
  10.560  0.327E+00  0.103E+00  0.121E+00  0.103E+00
  10.570  0.325E+00  0.103E+00  0.119E+00  0.103E+00
  10.580  0.324E+00  0.103E+00  0.118E+00  0.103E+00
  10.590  0.324E+00  0.104E+00  0.115E+00  0.104E+00
  10.600  0.327E+00  0.107E+00  0.114E+00  0.107E+00
  10.610  0.337E+00  0.111E+00  0.115E+00  0.111E+00
  10.620  0.351E+00  0.117E+00  0.116E+00  0.117E+00
  10.630  0.372E+00  0.126E+00  0.121E+00  0.126E+00
  10.640  0.406E+00  0.138E+00  0.131E+00  0.138E+00
  10.650  0.453E+00  0.153E+00  0.148E+00  0.153E+00
  10.660  0.488E+00  0.163E+00  0.162E+00  0.163E+00
  10.670  0.416E+00  0.138E+00  0.140E+00  0.138E+00
  10.680  0.382E+00  0.126E+00  0.129E+00  0.126E+00
  10.690  0.356E+00  0.117E+00  0.122E+00  0.117E+00
  10.700  0.342E+00  0.112E+00  0.118E+00  0.112E+00
  10.710  0.332E+00  0.108E+00  0.116E+00  0.108E+00
  10.720  0.324E+00  0.105E+00  0.115E+00  0.105E+00
  10.730  0.303E+00  0.974E-01  0.108E+00  0.974E-01
  10.740  0.230E+00  0.750E-01  0.803E-01  0.750E-01
  10.750  0.231E+00  0.740E-01  0.835E-01  0.740E-01
  10.760  0.166E+00  0.554E-01  0.556E-01  0.554E-01
  10.770  0.155E+00  0.526E-01  0.502E-01  0.526E-01
  10.780  0.153E+00  0.520E-01  0.493E-01  0.520E-01
  10.790  0.149E+00  0.508E-01  0.473E-01  0.508E-01
  10.800  0.144E+00  0.492E-01  0.455E-01  0.492E-01
  10.810  0.138E+00  0.473E-01  0.438E-01  0.473E-01
  10.820  0.133E+00  0.452E-01  0.423E-01  0.452E-01
  10.830  0.140E+00  0.470E-01  0.457E-01  0.470E-01
  10.840  0.146E+00  0.485E-01  0.484E-01  0.485E-01
  10.850  0.163E+00  0.547E-01  0.539E-01  0.547E-01
  10.860  0.175E+00  0.593E-01  0.566E-01  0.593E-01
  10.870  0.181E+00  0.620E-01  0.574E-01  0.620E-01
  10.880  0.191E+00  0.665E-01  0.580E-01  0.665E-01
  10.890  0.204E+00  0.731E-01  0.578E-01  0.731E-01
  10.900  0.220E+00  0.819E-01  0.564E-01  0.819E-01
  10.910  0.241E+00  0.909E-01  0.589E-01  0.909E-01
  10.920  0.263E+00  0.101E+00  0.608E-01  0.101E+00
  10.930  0.288E+00  0.112E+00  0.640E-01  0.112E+00
  10.940  0.311E+00  0.121E+00  0.700E-01  0.121E+00
  10.950  0.333E+00  0.122E+00  0.886E-01  0.122E+00
  10.960  0.355E+00  0.129E+00  0.962E-01  0.129E+00
  10.970  0.378E+00  0.136E+00  0.106E+00  0.136E+00
  10.980  0.414E+00  0.144E+00  0.125E+00  0.144E+00
  10.990  0.434E+00  0.149E+00  0.137E+00  0.149E+00
  11.000  0.635E+00  0.229E+00  0.177E+00  0.229E+00
  11.010  0.413E+00  0.143E+00  0.127E+00  0.143E+00
  11.020  0.398E+00  0.136E+00  0.126E+00  0.136E+00
  11.030  0.356E+00  0.117E+00  0.121E+00  0.117E+00
  11.040  0.322E+00  0.106E+00  0.110E+00  0.106E+00
  11.050  0.297E+00  0.978E-01  0.101E+00  0.978E-01
  11.060  0.266E+00  0.872E-01  0.919E-01  0.872E-01
  11.070  0.238E+00  0.772E-01  0.832E-01  0.772E-01
  11.080  0.213E+00  0.689E-01  0.754E-01  0.689E-01
  11.090  0.195E+00  0.628E-01  0.693E-01  0.628E-01
  11.100  0.184E+00  0.594E-01  0.652E-01  0.594E-01
  11.110  0.180E+00  0.583E-01  0.631E-01  0.583E-01
  11.120  0.178E+00  0.581E-01  0.616E-01  0.581E-01
  11.130  0.176E+00  0.581E-01  0.603E-01  0.581E-01
  11.140  0.175E+00  0.582E-01  0.589E-01  0.582E-01
  11.150  0.174E+00  0.584E-01  0.577E-01  0.584E-01
  11.160  0.174E+00  0.586E-01  0.565E-01  0.586E-01
  11.170  0.173E+00  0.589E-01  0.554E-01  0.589E-01
  11.180  0.173E+00  0.593E-01  0.544E-01  0.593E-01
  11.190  0.173E+00  0.597E-01  0.535E-01  0.597E-01
  11.200  0.173E+00  0.602E-01  0.528E-01  0.602E-01
  11.210  0.174E+00  0.609E-01  0.524E-01  0.609E-01
  11.220  0.176E+00  0.618E-01  0.525E-01  0.618E-01
  11.230  0.179E+00  0.628E-01  0.531E-01  0.628E-01
  11.240  0.182E+00  0.641E-01  0.540E-01  0.641E-01
  11.250  0.186E+00  0.656E-01  0.552E-01  0.656E-01
  11.260  0.191E+00  0.672E-01  0.567E-01  0.672E-01
  11.270  0.201E+00  0.702E-01  0.608E-01  0.702E-01
  11.280  0.223E+00  0.763E-01  0.702E-01  0.763E-01
  11.290  0.256E+00  0.855E-01  0.846E-01  0.855E-01
  11.300  0.288E+00  0.949E-01  0.986E-01  0.949E-01
  11.310  0.327E+00  0.106E+00  0.115E+00  0.106E+00
  11.320  0.373E+00  0.120E+00  0.133E+00  0.120E+00
  11.330  0.434E+00  0.140E+00  0.153E+00  0.140E+00
  11.340  0.512E+00  0.167E+00  0.178E+00  0.167E+00
  11.350  0.593E+00  0.193E+00  0.206E+00  0.193E+00
  11.360  0.658E+00  0.212E+00  0.234E+00  0.212E+00
  11.370  0.734E+00  0.231E+00  0.272E+00  0.231E+00
  11.380  0.828E+00  0.256E+00  0.315E+00  0.256E+00
  11.390  0.739E+00  0.232E+00  0.275E+00  0.232E+00
  11.400  0.742E+00  0.238E+00  0.266E+00  0.238E+00
  11.410  0.782E+00  0.251E+00  0.280E+00  0.251E+00
  11.420  0.823E+00  0.270E+00  0.284E+00  0.270E+00
  11.430  0.728E+00  0.246E+00  0.236E+00  0.246E+00
  11.440  0.719E+00  0.237E+00  0.244E+00  0.237E+00
  11.450  0.718E+00  0.234E+00  0.249E+00  0.234E+00
  11.460  0.713E+00  0.231E+00  0.251E+00  0.231E+00
  11.470  0.703E+00  0.226E+00  0.251E+00  0.226E+00
  11.480  0.690E+00  0.222E+00  0.246E+00  0.222E+00
  11.490  0.693E+00  0.226E+00  0.240E+00  0.226E+00
  11.500  0.752E+00  0.237E+00  0.278E+00  0.237E+00
  11.510  0.772E+00  0.247E+00  0.278E+00  0.247E+00
  11.520  0.763E+00  0.253E+00  0.256E+00  0.253E+00
  11.530  0.768E+00  0.263E+00  0.242E+00  0.263E+00
  11.540  0.770E+00  0.268E+00  0.233E+00  0.268E+00
  11.550  0.759E+00  0.266E+00  0.228E+00  0.266E+00
  11.560  0.735E+00  0.253E+00  0.230E+00  0.253E+00
  11.570  0.715E+00  0.240E+00  0.236E+00  0.240E+00
  11.580  0.740E+00  0.247E+00  0.246E+00  0.247E+00
  11.590  0.784E+00  0.258E+00  0.268E+00  0.258E+00
  11.600  0.834E+00  0.273E+00  0.289E+00  0.273E+00
  11.610  0.886E+00  0.289E+00  0.307E+00  0.289E+00
  11.620  0.934E+00  0.306E+00  0.323E+00  0.306E+00
  11.630  0.995E+00  0.321E+00  0.354E+00  0.321E+00
  11.640  0.102E+01  0.332E+00  0.353E+00  0.332E+00
  11.650  0.987E+00  0.336E+00  0.316E+00  0.336E+00
  11.660  0.876E+00  0.307E+00  0.261E+00  0.307E+00
  11.670  0.798E+00  0.281E+00  0.237E+00  0.281E+00
  11.680  0.757E+00  0.263E+00  0.230E+00  0.263E+00
  11.690  0.715E+00  0.247E+00  0.222E+00  0.247E+00
  11.700  0.678E+00  0.233E+00  0.213E+00  0.233E+00
  11.710  0.651E+00  0.223E+00  0.204E+00  0.223E+00
  11.720  0.699E+00  0.247E+00  0.204E+00  0.247E+00
  11.730  0.725E+00  0.260E+00  0.205E+00  0.260E+00
  11.740  0.732E+00  0.261E+00  0.211E+00  0.261E+00
  11.750  0.757E+00  0.266E+00  0.225E+00  0.266E+00
  11.760  0.733E+00  0.257E+00  0.218E+00  0.257E+00
  11.770  0.688E+00  0.242E+00  0.204E+00  0.242E+00
  11.780  0.646E+00  0.228E+00  0.189E+00  0.228E+00
  11.790  0.606E+00  0.215E+00  0.177E+00  0.215E+00
  11.800  0.600E+00  0.211E+00  0.178E+00  0.211E+00
  11.810  0.586E+00  0.207E+00  0.173E+00  0.207E+00
  11.820  0.554E+00  0.196E+00  0.161E+00  0.196E+00
  11.830  0.500E+00  0.179E+00  0.143E+00  0.179E+00
  11.840  0.454E+00  0.162E+00  0.130E+00  0.162E+00
  11.850  0.428E+00  0.152E+00  0.124E+00  0.152E+00
  11.860  0.385E+00  0.137E+00  0.112E+00  0.137E+00
  11.870  0.352E+00  0.124E+00  0.104E+00  0.124E+00
  11.880  0.316E+00  0.111E+00  0.947E-01  0.111E+00
  11.890  0.281E+00  0.986E-01  0.843E-01  0.986E-01
  11.900  0.258E+00  0.905E-01  0.769E-01  0.905E-01
  11.910  0.246E+00  0.860E-01  0.744E-01  0.860E-01
  11.920  0.237E+00  0.820E-01  0.730E-01  0.820E-01
  11.930  0.254E+00  0.888E-01  0.768E-01  0.888E-01
  11.940  0.243E+00  0.848E-01  0.733E-01  0.848E-01
  11.950  0.222E+00  0.763E-01  0.689E-01  0.763E-01
  11.960  0.199E+00  0.673E-01  0.642E-01  0.673E-01
  11.970  0.176E+00  0.583E-01  0.591E-01  0.583E-01
  11.980  0.152E+00  0.497E-01  0.531E-01  0.497E-01
  11.990  0.130E+00  0.420E-01  0.459E-01  0.420E-01
  12.000  0.109E+00  0.359E-01  0.378E-01  0.359E-01
  12.010  0.946E-01  0.315E-01  0.316E-01  0.315E-01
