# E (eV)   ldos(E)   pdos(E)    pdos(E)    pdos(E)   
   0.000  0.148E+00  0.484E-01  0.484E-01  0.507E-01
   0.010  0.684E-01  0.242E-01  0.242E-01  0.201E-01
   0.020  0.357E-01  0.127E-01  0.127E-01  0.102E-01
   0.030  0.215E-01  0.770E-02  0.770E-02  0.613E-02
   0.040  0.234E-01  0.793E-02  0.793E-02  0.750E-02
   0.050  0.500E-01  0.169E-01  0.169E-01  0.161E-01
   0.060  0.111E+00  0.373E-01  0.373E-01  0.362E-01
   0.070  0.100E+00  0.335E-01  0.335E-01  0.333E-01
   0.080  0.778E-01  0.258E-01  0.258E-01  0.261E-01
   0.090  0.500E-01  0.165E-01  0.165E-01  0.169E-01
   0.100  0.333E-01  0.110E-01  0.110E-01  0.113E-01
   0.110  0.212E-01  0.703E-02  0.703E-02  0.711E-02
   0.120  0.158E-01  0.525E-02  0.525E-02  0.528E-02
   0.130  0.963E-02  0.322E-02  0.322E-02  0.320E-02
   0.140  0.289E-02  0.964E-03  0.964E-03  0.958E-03
   0.150  0.210E-03  0.699E-04  0.699E-04  0.699E-04
   0.160  0.458E-07  0.154E-07  0.154E-07  0.150E-07
   0.170  0.000E+00  0.000E+00  0.000E+00  0.000E+00
   0.180  0.000E+00  0.000E+00  0.000E+00  0.000E+00
   0.190  0.000E+00  0.000E+00  0.000E+00  0.000E+00
   0.200  0.317E-06  0.165E-06  0.165E-06 -0.120E-07
   0.210  0.159E-04  0.523E-05  0.523E-05  0.549E-05
   0.220  0.890E-04  0.263E-04  0.263E-04  0.365E-04
   0.230  0.259E-03  0.721E-04  0.721E-04  0.115E-03
   0.240  0.526E-03  0.144E-03  0.144E-03  0.238E-03
   0.250  0.886E-03  0.242E-03  0.242E-03  0.402E-03
   0.260  0.134E-02  0.367E-03  0.367E-03  0.603E-03
   0.270  0.188E-02  0.521E-03  0.521E-03  0.836E-03
   0.280  0.250E-02  0.702E-03  0.702E-03  0.110E-02
   0.290  0.321E-02  0.913E-03  0.913E-03  0.138E-02
   0.300  0.400E-02  0.115E-02  0.115E-02  0.169E-02
   0.310  0.486E-02  0.142E-02  0.142E-02  0.201E-02
   0.320  0.580E-02  0.173E-02  0.173E-02  0.235E-02
   0.330  0.681E-02  0.206E-02  0.206E-02  0.269E-02
   0.340  0.806E-02  0.248E-02  0.248E-02  0.310E-02
   0.350  0.114E-01  0.360E-02  0.360E-02  0.415E-02
   0.360  0.174E-01  0.565E-02  0.565E-02  0.609E-02
   0.370  0.226E-01  0.743E-02  0.743E-02  0.776E-02
   0.380  0.268E-01  0.885E-02  0.885E-02  0.908E-02
   0.390  0.300E-01  0.996E-02  0.996E-02  0.101E-01
   0.400  0.324E-01  0.108E-01  0.108E-01  0.109E-01
   0.410  0.341E-01  0.113E-01  0.113E-01  0.114E-01
   0.420  0.350E-01  0.116E-01  0.116E-01  0.117E-01
   0.430  0.353E-01  0.117E-01  0.117E-01  0.119E-01
   0.440  0.348E-01  0.115E-01  0.115E-01  0.118E-01
   0.450  0.338E-01  0.111E-01  0.111E-01  0.116E-01
   0.460  0.338E-01  0.110E-01  0.110E-01  0.118E-01
   0.470  0.355E-01  0.115E-01  0.115E-01  0.125E-01
   0.480  0.376E-01  0.121E-01  0.121E-01  0.134E-01
   0.490  0.398E-01  0.127E-01  0.127E-01  0.143E-01
   0.500  0.419E-01  0.134E-01  0.134E-01  0.152E-01
   0.510  0.442E-01  0.140E-01  0.140E-01  0.162E-01
   0.520  0.464E-01  0.146E-01  0.146E-01  0.172E-01
   0.530  0.487E-01  0.152E-01  0.152E-01  0.182E-01
   0.540  0.511E-01  0.159E-01  0.159E-01  0.193E-01
   0.550  0.534E-01  0.165E-01  0.165E-01  0.203E-01
   0.560  0.555E-01  0.171E-01  0.171E-01  0.213E-01
   0.570  0.587E-01  0.180E-01  0.180E-01  0.226E-01
   0.580  0.734E-01  0.224E-01  0.224E-01  0.286E-01
   0.590  0.949E-01  0.291E-01  0.291E-01  0.366E-01
   0.600  0.966E-01  0.295E-01  0.295E-01  0.377E-01
   0.610  0.975E-01  0.295E-01  0.295E-01  0.384E-01
   0.620  0.979E-01  0.295E-01  0.295E-01  0.388E-01
   0.630  0.980E-01  0.295E-01  0.295E-01  0.390E-01
   0.640  0.992E-01  0.299E-01  0.299E-01  0.393E-01
   0.650  0.109E+00  0.332E-01  0.332E-01  0.422E-01
   0.660  0.102E+00  0.321E-01  0.321E-01  0.380E-01
   0.670  0.954E-01  0.308E-01  0.308E-01  0.337E-01
   0.680  0.954E-01  0.313E-01  0.313E-01  0.329E-01
   0.690  0.955E-01  0.317E-01  0.317E-01  0.322E-01
   0.700  0.954E-01  0.320E-01  0.320E-01  0.315E-01
   0.710  0.951E-01  0.321E-01  0.321E-01  0.309E-01
   0.720  0.946E-01  0.322E-01  0.322E-01  0.303E-01
   0.730  0.940E-01  0.322E-01  0.322E-01  0.297E-01
   0.740  0.933E-01  0.321E-01  0.321E-01  0.291E-01
   0.750  0.925E-01  0.319E-01  0.319E-01  0.287E-01
   0.760  0.917E-01  0.318E-01  0.318E-01  0.282E-01
   0.770  0.961E-01  0.339E-01  0.339E-01  0.282E-01
   0.780  0.103E+00  0.369E-01  0.369E-01  0.288E-01
   0.790  0.109E+00  0.393E-01  0.393E-01  0.300E-01
   0.800  0.118E+00  0.416E-01  0.416E-01  0.344E-01
   0.810  0.129E+00  0.438E-01  0.438E-01  0.408E-01
   0.820  0.131E+00  0.439E-01  0.439E-01  0.429E-01
   0.830  0.126E+00  0.422E-01  0.422E-01  0.414E-01
   0.840  0.118E+00  0.402E-01  0.402E-01  0.374E-01
   0.850  0.110E+00  0.384E-01  0.384E-01  0.335E-01
   0.860  0.113E+00  0.390E-01  0.390E-01  0.347E-01
   0.870  0.122E+00  0.417E-01  0.417E-01  0.383E-01
   0.880  0.135E+00  0.461E-01  0.461E-01  0.432E-01
   0.890  0.167E+00  0.566E-01  0.566E-01  0.543E-01
   0.900  0.203E+00  0.669E-01  0.669E-01  0.692E-01
   0.910  0.171E+00  0.558E-01  0.558E-01  0.590E-01
   0.920  0.226E+00  0.715E-01  0.715E-01  0.831E-01
   0.930  0.254E+00  0.904E-01  0.904E-01  0.735E-01
   0.940  0.160E+00  0.553E-01  0.553E-01  0.492E-01
   0.950  0.961E-01  0.327E-01  0.327E-01  0.307E-01
   0.960  0.620E-01  0.208E-01  0.208E-01  0.205E-01
   0.970  0.574E-01  0.192E-01  0.192E-01  0.191E-01
   0.980  0.535E-01  0.177E-01  0.177E-01  0.182E-01
   0.990  0.488E-01  0.159E-01  0.159E-01  0.169E-01
   1.000  0.428E-01  0.138E-01  0.138E-01  0.152E-01
   1.010  0.350E-01  0.111E-01  0.111E-01  0.129E-01
   1.020  0.256E-01  0.788E-02  0.788E-02  0.983E-02
   1.030  0.262E-01  0.829E-02  0.829E-02  0.958E-02
   1.040  0.513E-01  0.166E-01  0.166E-01  0.181E-01
   1.050  0.691E-01  0.228E-01  0.228E-01  0.236E-01
   1.060  0.723E-01  0.242E-01  0.242E-01  0.239E-01
   1.070  0.711E-01  0.240E-01  0.240E-01  0.231E-01
   1.080  0.738E-01  0.249E-01  0.249E-01  0.239E-01
   1.090  0.789E-01  0.267E-01  0.267E-01  0.256E-01
   1.100  0.835E-01  0.282E-01  0.282E-01  0.271E-01
   1.110  0.880E-01  0.297E-01  0.297E-01  0.286E-01
   1.120  0.923E-01  0.311E-01  0.311E-01  0.302E-01
   1.130  0.964E-01  0.324E-01  0.324E-01  0.317E-01
   1.140  0.999E-01  0.334E-01  0.334E-01  0.330E-01
   1.150  0.103E+00  0.343E-01  0.343E-01  0.340E-01
   1.160  0.105E+00  0.349E-01  0.349E-01  0.348E-01
   1.170  0.106E+00  0.352E-01  0.352E-01  0.353E-01
   1.180  0.105E+00  0.350E-01  0.350E-01  0.353E-01
   1.190  0.104E+00  0.344E-01  0.344E-01  0.349E-01
   1.200  0.100E+00  0.331E-01  0.331E-01  0.339E-01
   1.210  0.942E-01  0.309E-01  0.309E-01  0.323E-01
   1.220  0.851E-01  0.276E-01  0.276E-01  0.300E-01
   1.230  0.760E-01  0.244E-01  0.244E-01  0.273E-01
   1.240  0.698E-01  0.222E-01  0.222E-01  0.255E-01
   1.250  0.642E-01  0.202E-01  0.202E-01  0.237E-01
   1.260  0.601E-01  0.188E-01  0.188E-01  0.224E-01
   1.270  0.568E-01  0.178E-01  0.178E-01  0.213E-01
   1.280  0.537E-01  0.168E-01  0.168E-01  0.201E-01
   1.290  0.507E-01  0.160E-01  0.160E-01  0.188E-01
   1.300  0.479E-01  0.152E-01  0.152E-01  0.175E-01
   1.310  0.454E-01  0.146E-01  0.146E-01  0.162E-01
   1.320  0.440E-01  0.144E-01  0.144E-01  0.152E-01
   1.330  0.445E-01  0.149E-01  0.149E-01  0.148E-01
   1.340  0.464E-01  0.158E-01  0.158E-01  0.148E-01
   1.350  0.481E-01  0.166E-01  0.166E-01  0.149E-01
   1.360  0.492E-01  0.172E-01  0.172E-01  0.149E-01
   1.370  0.500E-01  0.176E-01  0.176E-01  0.149E-01
   1.380  0.503E-01  0.178E-01  0.178E-01  0.147E-01
   1.390  0.502E-01  0.178E-01  0.178E-01  0.146E-01
   1.400  0.498E-01  0.177E-01  0.177E-01  0.144E-01
   1.410  0.491E-01  0.175E-01  0.175E-01  0.141E-01
   1.420  0.480E-01  0.171E-01  0.171E-01  0.139E-01
   1.430  0.467E-01  0.166E-01  0.166E-01  0.135E-01
   1.440  0.452E-01  0.160E-01  0.160E-01  0.132E-01
   1.450  0.435E-01  0.153E-01  0.153E-01  0.128E-01
   1.460  0.417E-01  0.146E-01  0.146E-01  0.124E-01
   1.470  0.399E-01  0.139E-01  0.139E-01  0.120E-01
   1.480  0.382E-01  0.132E-01  0.132E-01  0.117E-01
   1.490  0.365E-01  0.126E-01  0.126E-01  0.113E-01
   1.500  0.350E-01  0.120E-01  0.120E-01  0.110E-01
   1.510  0.335E-01  0.114E-01  0.114E-01  0.107E-01
   1.520  0.323E-01  0.109E-01  0.109E-01  0.105E-01
   1.530  0.313E-01  0.105E-01  0.105E-01  0.103E-01
   1.540  0.304E-01  0.101E-01  0.101E-01  0.102E-01
   1.550  0.297E-01  0.983E-02  0.983E-02  0.101E-01
   1.560  0.295E-01  0.968E-02  0.968E-02  0.101E-01
   1.570  0.300E-01  0.978E-02  0.978E-02  0.105E-01
   1.580  0.311E-01  0.101E-01  0.101E-01  0.110E-01
   1.590  0.322E-01  0.104E-01  0.104E-01  0.115E-01
   1.600  0.333E-01  0.106E-01  0.106E-01  0.121E-01
   1.610  0.352E-01  0.111E-01  0.111E-01  0.130E-01
   1.620  0.376E-01  0.118E-01  0.118E-01  0.140E-01
   1.630  0.390E-01  0.122E-01  0.122E-01  0.146E-01
   1.640  0.378E-01  0.118E-01  0.118E-01  0.141E-01
   1.650  0.340E-01  0.107E-01  0.107E-01  0.126E-01
   1.660  0.291E-01  0.922E-02  0.922E-02  0.107E-01
   1.670  0.249E-01  0.791E-02  0.791E-02  0.904E-02
   1.680  0.236E-01  0.770E-02  0.770E-02  0.817E-02
   1.690  0.244E-01  0.814E-02  0.814E-02  0.815E-02
   1.700  0.262E-01  0.877E-02  0.877E-02  0.862E-02
   1.710  0.283E-01  0.949E-02  0.949E-02  0.932E-02
   1.720  0.305E-01  0.102E-01  0.102E-01  0.101E-01
   1.730  0.324E-01  0.108E-01  0.108E-01  0.107E-01
   1.740  0.339E-01  0.113E-01  0.113E-01  0.112E-01
   1.750  0.350E-01  0.117E-01  0.117E-01  0.116E-01
   1.760  0.357E-01  0.120E-01  0.120E-01  0.118E-01
   1.770  0.361E-01  0.121E-01  0.121E-01  0.119E-01
   1.780  0.363E-01  0.122E-01  0.122E-01  0.118E-01
   1.790  0.362E-01  0.122E-01  0.122E-01  0.117E-01
   1.800  0.358E-01  0.121E-01  0.121E-01  0.115E-01
   1.810  0.352E-01  0.120E-01  0.120E-01  0.112E-01
   1.820  0.344E-01  0.118E-01  0.118E-01  0.109E-01
   1.830  0.334E-01  0.115E-01  0.115E-01  0.105E-01
   1.840  0.323E-01  0.111E-01  0.111E-01  0.101E-01
   1.850  0.311E-01  0.107E-01  0.107E-01  0.961E-02
   1.860  0.298E-01  0.103E-01  0.103E-01  0.917E-02
   1.870  0.288E-01  0.999E-02  0.999E-02  0.882E-02
   1.880  0.279E-01  0.970E-02  0.970E-02  0.854E-02
   1.890  0.271E-01  0.941E-02  0.941E-02  0.828E-02
   1.900  0.263E-01  0.913E-02  0.913E-02  0.805E-02
   1.910  0.255E-01  0.885E-02  0.885E-02  0.784E-02
   1.920  0.250E-01  0.863E-02  0.863E-02  0.770E-02
   1.930  0.244E-01  0.841E-02  0.841E-02  0.759E-02
   1.940  0.239E-01  0.820E-02  0.820E-02  0.750E-02
   1.950  0.234E-01  0.799E-02  0.799E-02  0.741E-02
   1.960  0.230E-01  0.782E-02  0.782E-02  0.734E-02
   1.970  0.227E-01  0.769E-02  0.769E-02  0.728E-02
   1.980  0.224E-01  0.759E-02  0.759E-02  0.723E-02
   1.990  0.222E-01  0.751E-02  0.751E-02  0.719E-02
   2.000  0.221E-01  0.745E-02  0.745E-02  0.718E-02
   2.010  0.221E-01  0.743E-02  0.743E-02  0.723E-02
   2.020  0.221E-01  0.741E-02  0.741E-02  0.727E-02
   2.030  0.221E-01  0.739E-02  0.739E-02  0.730E-02
   2.040  0.220E-01  0.735E-02  0.735E-02  0.733E-02
   2.050  0.220E-01  0.732E-02  0.732E-02  0.735E-02
   2.060  0.219E-01  0.728E-02  0.728E-02  0.737E-02
   2.070  0.218E-01  0.722E-02  0.722E-02  0.737E-02
   2.080  0.218E-01  0.719E-02  0.719E-02  0.739E-02
   2.090  0.217E-01  0.715E-02  0.715E-02  0.740E-02
   2.100  0.216E-01  0.712E-02  0.712E-02  0.740E-02
   2.110  0.218E-01  0.719E-02  0.719E-02  0.741E-02
   2.120  0.217E-01  0.733E-02  0.733E-02  0.704E-02
   2.130  0.223E-01  0.747E-02  0.747E-02  0.737E-02
   2.140  0.247E-01  0.803E-02  0.803E-02  0.862E-02
   2.150  0.276E-01  0.895E-02  0.895E-02  0.970E-02
   2.160  0.260E-01  0.870E-02  0.870E-02  0.861E-02
   2.170  0.254E-01  0.860E-02  0.860E-02  0.817E-02
   2.180  0.259E-01  0.885E-02  0.885E-02  0.817E-02
   2.190  0.265E-01  0.912E-02  0.912E-02  0.821E-02
   2.200  0.272E-01  0.943E-02  0.943E-02  0.832E-02
   2.210  0.281E-01  0.977E-02  0.977E-02  0.853E-02
   2.220  0.291E-01  0.102E-01  0.102E-01  0.883E-02
   2.230  0.302E-01  0.105E-01  0.105E-01  0.915E-02
   2.240  0.312E-01  0.109E-01  0.109E-01  0.943E-02
   2.250  0.322E-01  0.112E-01  0.112E-01  0.969E-02
   2.260  0.331E-01  0.116E-01  0.116E-01  0.995E-02
   2.270  0.341E-01  0.119E-01  0.119E-01  0.102E-01
   2.280  0.350E-01  0.122E-01  0.122E-01  0.105E-01
   2.290  0.359E-01  0.126E-01  0.126E-01  0.107E-01
   2.300  0.368E-01  0.129E-01  0.129E-01  0.110E-01
   2.310  0.376E-01  0.132E-01  0.132E-01  0.113E-01
   2.320  0.385E-01  0.135E-01  0.135E-01  0.115E-01
   2.330  0.394E-01  0.138E-01  0.138E-01  0.118E-01
   2.340  0.405E-01  0.142E-01  0.142E-01  0.121E-01
   2.350  0.570E-01  0.198E-01  0.198E-01  0.174E-01
   2.360  0.646E-01  0.224E-01  0.224E-01  0.199E-01
   2.370  0.734E-01  0.253E-01  0.253E-01  0.227E-01
   2.380  0.835E-01  0.288E-01  0.288E-01  0.259E-01
   2.390  0.958E-01  0.331E-01  0.331E-01  0.297E-01
   2.400  0.108E+00  0.373E-01  0.373E-01  0.335E-01
   2.410  0.119E+00  0.410E-01  0.410E-01  0.372E-01
   2.420  0.130E+00  0.445E-01  0.445E-01  0.407E-01
   2.430  0.139E+00  0.477E-01  0.477E-01  0.441E-01
   2.440  0.149E+00  0.507E-01  0.507E-01  0.475E-01
   2.450  0.157E+00  0.532E-01  0.532E-01  0.504E-01
   2.460  0.165E+00  0.558E-01  0.558E-01  0.535E-01
   2.470  0.172E+00  0.580E-01  0.580E-01  0.563E-01
   2.480  0.179E+00  0.600E-01  0.600E-01  0.589E-01
   2.490  0.186E+00  0.623E-01  0.623E-01  0.618E-01
   2.500  0.202E+00  0.674E-01  0.674E-01  0.675E-01
   2.510  0.214E+00  0.712E-01  0.712E-01  0.719E-01
   2.520  0.228E+00  0.755E-01  0.755E-01  0.765E-01
   2.530  0.242E+00  0.804E-01  0.804E-01  0.816E-01
   2.540  0.254E+00  0.841E-01  0.841E-01  0.858E-01
   2.550  0.262E+00  0.865E-01  0.865E-01  0.890E-01
   2.560  0.281E+00  0.924E-01  0.924E-01  0.959E-01
   2.570  0.304E+00  0.998E-01  0.998E-01  0.104E+00
   2.580  0.347E+00  0.114E+00  0.114E+00  0.119E+00
   2.590  0.402E+00  0.132E+00  0.132E+00  0.138E+00
   2.600  0.471E+00  0.154E+00  0.154E+00  0.162E+00
   2.610  0.541E+00  0.176E+00  0.176E+00  0.188E+00
   2.620  0.648E+00  0.211E+00  0.211E+00  0.226E+00
   2.630  0.545E+00  0.178E+00  0.178E+00  0.189E+00
   2.640  0.297E+00  0.101E+00  0.101E+00  0.944E-01
   2.650  0.242E+00  0.827E-01  0.827E-01  0.770E-01
   2.660  0.211E+00  0.718E-01  0.718E-01  0.679E-01
   2.670  0.191E+00  0.647E-01  0.647E-01  0.617E-01
   2.680  0.173E+00  0.585E-01  0.585E-01  0.563E-01
   2.690  0.158E+00  0.531E-01  0.531E-01  0.518E-01
   2.700  0.154E+00  0.515E-01  0.515E-01  0.514E-01
   2.710  0.281E+00  0.943E-01  0.943E-01  0.926E-01
   2.720  0.500E+00  0.164E+00  0.164E+00  0.171E+00
   2.730  0.310E+00  0.103E+00  0.103E+00  0.104E+00
   2.740  0.285E+00  0.962E-01  0.962E-01  0.927E-01
   2.750  0.184E+00  0.635E-01  0.635E-01  0.572E-01
   2.760  0.159E+00  0.556E-01  0.556E-01  0.480E-01
   2.770  0.164E+00  0.571E-01  0.571E-01  0.495E-01
   2.780  0.165E+00  0.572E-01  0.572E-01  0.505E-01
   2.790  0.168E+00  0.581E-01  0.581E-01  0.523E-01
   2.800  0.165E+00  0.565E-01  0.565E-01  0.518E-01
   2.810  0.160E+00  0.545E-01  0.545E-01  0.507E-01
   2.820  0.165E+00  0.559E-01  0.559E-01  0.528E-01
   2.830  0.175E+00  0.593E-01  0.593E-01  0.561E-01
   2.840  0.184E+00  0.625E-01  0.625E-01  0.594E-01
   2.850  0.194E+00  0.656E-01  0.656E-01  0.627E-01
   2.860  0.203E+00  0.685E-01  0.685E-01  0.660E-01
   2.870  0.213E+00  0.718E-01  0.718E-01  0.698E-01
   2.880  0.229E+00  0.766E-01  0.766E-01  0.754E-01
   2.890  0.262E+00  0.875E-01  0.875E-01  0.867E-01
   2.900  0.297E+00  0.988E-01  0.988E-01  0.994E-01
   2.910  0.312E+00  0.103E+00  0.103E+00  0.106E+00
   2.920  0.328E+00  0.108E+00  0.108E+00  0.113E+00
   2.930  0.343E+00  0.112E+00  0.112E+00  0.119E+00
   2.940  0.357E+00  0.116E+00  0.116E+00  0.125E+00
   2.950  0.370E+00  0.120E+00  0.120E+00  0.129E+00
   2.960  0.381E+00  0.124E+00  0.124E+00  0.133E+00
   2.970  0.416E+00  0.136E+00  0.136E+00  0.144E+00
   2.980  0.356E+00  0.119E+00  0.119E+00  0.118E+00
   2.990  0.281E+00  0.968E-01  0.968E-01  0.879E-01
   3.000  0.255E+00  0.866E-01  0.866E-01  0.819E-01
   3.010  0.248E+00  0.834E-01  0.834E-01  0.811E-01
   3.020  0.243E+00  0.811E-01  0.811E-01  0.804E-01
   3.030  0.239E+00  0.795E-01  0.795E-01  0.795E-01
   3.040  0.235E+00  0.785E-01  0.785E-01  0.783E-01
   3.050  0.230E+00  0.766E-01  0.766E-01  0.770E-01
   3.060  0.226E+00  0.752E-01  0.752E-01  0.755E-01
   3.070  0.222E+00  0.741E-01  0.741E-01  0.740E-01
   3.080  0.222E+00  0.741E-01  0.741E-01  0.736E-01
   3.090  0.226E+00  0.754E-01  0.754E-01  0.753E-01
   3.100  0.229E+00  0.769E-01  0.769E-01  0.753E-01
   3.110  0.225E+00  0.752E-01  0.752E-01  0.750E-01
   3.120  0.220E+00  0.732E-01  0.732E-01  0.740E-01
   3.130  0.239E+00  0.788E-01  0.788E-01  0.811E-01
   3.140  0.277E+00  0.881E-01  0.881E-01  0.101E+00
   3.150  0.302E+00  0.100E+00  0.100E+00  0.102E+00
   3.160  0.319E+00  0.107E+00  0.107E+00  0.104E+00
   3.170  0.313E+00  0.106E+00  0.106E+00  0.100E+00
   3.180  0.360E+00  0.122E+00  0.122E+00  0.115E+00
   3.190  0.356E+00  0.120E+00  0.120E+00  0.116E+00
   3.200  0.355E+00  0.119E+00  0.119E+00  0.116E+00
   3.210  0.345E+00  0.116E+00  0.116E+00  0.114E+00
   3.220  0.336E+00  0.112E+00  0.112E+00  0.112E+00
   3.230  0.330E+00  0.110E+00  0.110E+00  0.110E+00
   3.240  0.327E+00  0.109E+00  0.109E+00  0.109E+00
   3.250  0.300E+00  0.100E+00  0.100E+00  0.100E+00
   3.260  0.375E+00  0.130E+00  0.130E+00  0.116E+00
   3.270  0.307E+00  0.102E+00  0.102E+00  0.103E+00
   3.280  0.305E+00  0.101E+00  0.101E+00  0.103E+00
   3.290  0.308E+00  0.102E+00  0.102E+00  0.103E+00
   3.300  0.319E+00  0.106E+00  0.106E+00  0.108E+00
   3.310  0.328E+00  0.109E+00  0.109E+00  0.110E+00
   3.320  0.332E+00  0.110E+00  0.110E+00  0.112E+00
   3.330  0.333E+00  0.111E+00  0.111E+00  0.111E+00
   3.340  0.336E+00  0.112E+00  0.112E+00  0.112E+00
   3.350  0.335E+00  0.112E+00  0.112E+00  0.111E+00
   3.360  0.328E+00  0.110E+00  0.110E+00  0.108E+00
   3.370  0.323E+00  0.108E+00  0.108E+00  0.107E+00
   3.380  0.323E+00  0.108E+00  0.108E+00  0.107E+00
   3.390  0.329E+00  0.110E+00  0.110E+00  0.109E+00
   3.400  0.333E+00  0.111E+00  0.111E+00  0.110E+00
   3.410  0.341E+00  0.114E+00  0.114E+00  0.113E+00
   3.420  0.347E+00  0.116E+00  0.116E+00  0.115E+00
   3.430  0.337E+00  0.112E+00  0.112E+00  0.112E+00
   3.440  0.319E+00  0.106E+00  0.106E+00  0.107E+00
   3.450  0.300E+00  0.992E-01  0.992E-01  0.101E+00
   3.460  0.282E+00  0.929E-01  0.929E-01  0.957E-01
   3.470  0.274E+00  0.901E-01  0.901E-01  0.934E-01
   3.480  0.275E+00  0.908E-01  0.908E-01  0.938E-01
   3.490  0.282E+00  0.932E-01  0.932E-01  0.960E-01
   3.500  0.291E+00  0.961E-01  0.961E-01  0.988E-01
   3.510  0.289E+00  0.953E-01  0.953E-01  0.985E-01
   3.520  0.292E+00  0.961E-01  0.961E-01  0.994E-01
   3.530  0.332E+00  0.110E+00  0.110E+00  0.112E+00
   3.540  0.318E+00  0.105E+00  0.105E+00  0.109E+00
   3.550  0.251E+00  0.824E-01  0.824E-01  0.857E-01
   3.560  0.238E+00  0.781E-01  0.781E-01  0.813E-01
   3.570  0.231E+00  0.758E-01  0.758E-01  0.790E-01
   3.580  0.226E+00  0.744E-01  0.744E-01  0.774E-01
   3.590  0.224E+00  0.739E-01  0.739E-01  0.765E-01
   3.600  0.225E+00  0.744E-01  0.744E-01  0.765E-01
   3.610  0.229E+00  0.758E-01  0.758E-01  0.773E-01
   3.620  0.250E+00  0.829E-01  0.829E-01  0.838E-01
   3.630  0.267E+00  0.889E-01  0.889E-01  0.894E-01
   3.640  0.257E+00  0.858E-01  0.858E-01  0.855E-01
   3.650  0.296E+00  0.989E-01  0.989E-01  0.987E-01
   3.660  0.320E+00  0.105E+00  0.105E+00  0.110E+00
   3.670  0.419E+00  0.140E+00  0.140E+00  0.138E+00
   3.680  0.365E+00  0.122E+00  0.122E+00  0.120E+00
   3.690  0.384E+00  0.128E+00  0.128E+00  0.128E+00
   3.700  0.437E+00  0.146E+00  0.146E+00  0.146E+00
   3.710  0.425E+00  0.141E+00  0.141E+00  0.144E+00
   3.720  0.400E+00  0.132E+00  0.132E+00  0.137E+00
   3.730  0.386E+00  0.127E+00  0.127E+00  0.132E+00
   3.740  0.372E+00  0.123E+00  0.123E+00  0.126E+00
   3.750  0.354E+00  0.118E+00  0.118E+00  0.118E+00
   3.760  0.342E+00  0.117E+00  0.117E+00  0.109E+00
   3.770  0.317E+00  0.109E+00  0.109E+00  0.999E-01
   3.780  0.263E+00  0.883E-01  0.883E-01  0.860E-01
   3.790  0.222E+00  0.737E-01  0.737E-01  0.741E-01
   3.800  0.199E+00  0.661E-01  0.661E-01  0.668E-01
   3.810  0.184E+00  0.611E-01  0.611E-01  0.617E-01
   3.820  0.173E+00  0.576E-01  0.576E-01  0.580E-01
   3.830  0.169E+00  0.563E-01  0.563E-01  0.564E-01
   3.840  0.167E+00  0.557E-01  0.557E-01  0.555E-01
   3.850  0.167E+00  0.559E-01  0.559E-01  0.555E-01
   3.860  0.170E+00  0.569E-01  0.569E-01  0.563E-01
   3.870  0.176E+00  0.590E-01  0.590E-01  0.582E-01
   3.880  0.185E+00  0.620E-01  0.620E-01  0.609E-01
   3.890  0.195E+00  0.655E-01  0.655E-01  0.643E-01
   3.900  0.209E+00  0.701E-01  0.701E-01  0.689E-01
   3.910  0.225E+00  0.753E-01  0.753E-01  0.743E-01
   3.920  0.237E+00  0.794E-01  0.794E-01  0.786E-01
   3.930  0.246E+00  0.822E-01  0.822E-01  0.818E-01
   3.940  0.254E+00  0.849E-01  0.849E-01  0.840E-01
   3.950  0.265E+00  0.887E-01  0.887E-01  0.876E-01
   3.960  0.277E+00  0.928E-01  0.928E-01  0.913E-01
   3.970  0.291E+00  0.976E-01  0.976E-01  0.956E-01
   3.980  0.305E+00  0.102E+00  0.102E+00  0.101E+00
   3.990  0.300E+00  0.100E+00  0.100E+00  0.100E+00
   4.000  0.297E+00  0.981E-01  0.981E-01  0.101E+00
   4.010  0.281E+00  0.939E-01  0.939E-01  0.937E-01
   4.020  0.258E+00  0.860E-01  0.860E-01  0.857E-01
   4.030  0.247E+00  0.824E-01  0.824E-01  0.821E-01
   4.040  0.237E+00  0.790E-01  0.790E-01  0.789E-01
   4.050  0.227E+00  0.757E-01  0.757E-01  0.758E-01
   4.060  0.223E+00  0.744E-01  0.744E-01  0.748E-01
   4.070  0.235E+00  0.781E-01  0.781E-01  0.789E-01
   4.080  0.229E+00  0.760E-01  0.760E-01  0.771E-01
   4.090  0.210E+00  0.698E-01  0.698E-01  0.707E-01
   4.100  0.213E+00  0.708E-01  0.708E-01  0.713E-01
   4.110  0.215E+00  0.717E-01  0.717E-01  0.717E-01
   4.120  0.220E+00  0.734E-01  0.734E-01  0.729E-01
   4.130  0.231E+00  0.774E-01  0.774E-01  0.761E-01
   4.140  0.244E+00  0.819E-01  0.819E-01  0.798E-01
   4.150  0.264E+00  0.888E-01  0.888E-01  0.861E-01
   4.160  0.298E+00  0.100E+00  0.100E+00  0.973E-01
   4.170  0.340E+00  0.114E+00  0.114E+00  0.111E+00
   4.180  0.359E+00  0.121E+00  0.121E+00  0.118E+00
   4.190  0.374E+00  0.124E+00  0.124E+00  0.127E+00
   4.200  0.344E+00  0.113E+00  0.113E+00  0.117E+00
   4.210  0.351E+00  0.123E+00  0.123E+00  0.106E+00
   4.220  0.230E+00  0.772E-01  0.772E-01  0.750E-01
   4.230  0.198E+00  0.667E-01  0.667E-01  0.650E-01
   4.240  0.183E+00  0.617E-01  0.617E-01  0.593E-01
   4.250  0.180E+00  0.613E-01  0.613E-01  0.574E-01
   4.260  0.182E+00  0.626E-01  0.626E-01  0.572E-01
   4.270  0.177E+00  0.603E-01  0.603E-01  0.568E-01
   4.280  0.166E+00  0.563E-01  0.563E-01  0.530E-01
   4.290  0.153E+00  0.523E-01  0.523E-01  0.483E-01
   4.300  0.149E+00  0.507E-01  0.507E-01  0.472E-01
   4.310  0.147E+00  0.499E-01  0.499E-01  0.470E-01
   4.320  0.147E+00  0.500E-01  0.500E-01  0.474E-01
   4.330  0.149E+00  0.504E-01  0.504E-01  0.484E-01
   4.340  0.149E+00  0.496E-01  0.496E-01  0.496E-01
   4.350  0.148E+00  0.481E-01  0.481E-01  0.523E-01
   4.360  0.147E+00  0.464E-01  0.464E-01  0.540E-01
   4.370  0.147E+00  0.462E-01  0.462E-01  0.542E-01
   4.380  0.151E+00  0.479E-01  0.479E-01  0.551E-01
   4.390  0.155E+00  0.497E-01  0.497E-01  0.554E-01
   4.400  0.158E+00  0.512E-01  0.512E-01  0.554E-01
   4.410  0.160E+00  0.524E-01  0.524E-01  0.556E-01
   4.420  0.163E+00  0.531E-01  0.531E-01  0.565E-01
   4.430  0.167E+00  0.546E-01  0.546E-01  0.581E-01
   4.440  0.191E+00  0.629E-01  0.629E-01  0.649E-01
   4.450  0.205E+00  0.682E-01  0.682E-01  0.691E-01
   4.460  0.222E+00  0.740E-01  0.740E-01  0.735E-01
   4.470  0.225E+00  0.760E-01  0.760E-01  0.735E-01
   4.480  0.227E+00  0.768E-01  0.768E-01  0.736E-01
   4.490  0.250E+00  0.849E-01  0.849E-01  0.802E-01
   4.500  0.258E+00  0.871E-01  0.871E-01  0.837E-01
   4.510  0.248E+00  0.851E-01  0.851E-01  0.779E-01
   4.520  0.208E+00  0.796E-01  0.796E-01  0.489E-01
   4.530  0.187E+00  0.724E-01  0.724E-01  0.424E-01
   4.540  0.197E+00  0.667E-01  0.667E-01  0.641E-01
   4.550  0.193E+00  0.588E-01  0.588E-01  0.754E-01
   4.560  0.202E+00  0.609E-01  0.609E-01  0.798E-01
   4.570  0.225E+00  0.706E-01  0.706E-01  0.842E-01
   4.580  0.242E+00  0.785E-01  0.785E-01  0.847E-01
   4.590  0.248E+00  0.819E-01  0.819E-01  0.843E-01
   4.600  0.227E+00  0.750E-01  0.750E-01  0.775E-01
   4.610  0.174E+00  0.565E-01  0.565E-01  0.607E-01
   4.620  0.139E+00  0.448E-01  0.448E-01  0.498E-01
   4.630  0.122E+00  0.390E-01  0.390E-01  0.438E-01
   4.640  0.111E+00  0.355E-01  0.355E-01  0.396E-01
   4.650  0.102E+00  0.329E-01  0.329E-01  0.365E-01
   4.660  0.960E-01  0.310E-01  0.310E-01  0.340E-01
   4.670  0.909E-01  0.294E-01  0.294E-01  0.320E-01
   4.680  0.871E-01  0.283E-01  0.283E-01  0.305E-01
   4.690  0.842E-01  0.275E-01  0.275E-01  0.292E-01
   4.700  0.818E-01  0.268E-01  0.268E-01  0.282E-01
   4.710  0.795E-01  0.261E-01  0.261E-01  0.273E-01
   4.720  0.773E-01  0.255E-01  0.255E-01  0.264E-01
   4.730  0.752E-01  0.248E-01  0.248E-01  0.255E-01
   4.740  0.732E-01  0.242E-01  0.242E-01  0.247E-01
   4.750  0.715E-01  0.237E-01  0.237E-01  0.241E-01
   4.760  0.704E-01  0.234E-01  0.234E-01  0.237E-01
   4.770  0.707E-01  0.234E-01  0.234E-01  0.238E-01
   4.780  0.759E-01  0.253E-01  0.253E-01  0.252E-01
   4.790  0.846E-01  0.284E-01  0.284E-01  0.278E-01
   4.800  0.851E-01  0.285E-01  0.285E-01  0.281E-01
   4.810  0.752E-01  0.251E-01  0.251E-01  0.249E-01
   4.820  0.702E-01  0.235E-01  0.235E-01  0.232E-01
   4.830  0.696E-01  0.233E-01  0.233E-01  0.230E-01
   4.840  0.688E-01  0.231E-01  0.231E-01  0.226E-01
   4.850  0.675E-01  0.227E-01  0.227E-01  0.221E-01
   4.860  0.658E-01  0.222E-01  0.222E-01  0.215E-01
   4.870  0.642E-01  0.217E-01  0.217E-01  0.209E-01
   4.880  0.649E-01  0.219E-01  0.219E-01  0.210E-01
   4.890  0.674E-01  0.228E-01  0.228E-01  0.217E-01
   4.900  0.534E-01  0.179E-01  0.179E-01  0.175E-01
   4.910  0.463E-01  0.153E-01  0.153E-01  0.157E-01
   4.920  0.518E-01  0.175E-01  0.175E-01  0.168E-01
   4.930  0.559E-01  0.192E-01  0.192E-01  0.176E-01
   4.940  0.520E-01  0.176E-01  0.176E-01  0.168E-01
   4.950  0.475E-01  0.160E-01  0.160E-01  0.155E-01
   4.960  0.426E-01  0.143E-01  0.143E-01  0.140E-01
   4.970  0.379E-01  0.126E-01  0.126E-01  0.126E-01
   4.980  0.326E-01  0.109E-01  0.109E-01  0.109E-01
   4.990  0.277E-01  0.919E-02  0.919E-02  0.929E-02
   5.000  0.248E-01  0.821E-02  0.821E-02  0.836E-02
   5.010  0.232E-01  0.768E-02  0.768E-02  0.784E-02
   5.020  0.223E-01  0.738E-02  0.738E-02  0.753E-02
   5.030  0.218E-01  0.723E-02  0.723E-02  0.734E-02
   5.040  0.215E-01  0.714E-02  0.714E-02  0.721E-02
   5.050  0.212E-01  0.708E-02  0.708E-02  0.709E-02
   5.060  0.211E-01  0.705E-02  0.705E-02  0.702E-02
   5.070  0.229E-01  0.761E-02  0.761E-02  0.764E-02
   5.080  0.266E-01  0.883E-02  0.883E-02  0.891E-02
   5.090  0.356E-01  0.119E-01  0.119E-01  0.117E-01
   5.100  0.393E-01  0.132E-01  0.132E-01  0.129E-01
   5.110  0.384E-01  0.129E-01  0.129E-01  0.125E-01
   5.120  0.419E-01  0.142E-01  0.142E-01  0.136E-01
   5.130  0.469E-01  0.159E-01  0.159E-01  0.152E-01
   5.140  0.448E-01  0.151E-01  0.151E-01  0.146E-01
   5.150  0.377E-01  0.126E-01  0.126E-01  0.124E-01
   5.160  0.343E-01  0.115E-01  0.115E-01  0.114E-01
   5.170  0.302E-01  0.101E-01  0.101E-01  0.101E-01
   5.180  0.258E-01  0.858E-02  0.858E-02  0.865E-02
   5.190  0.217E-01  0.720E-02  0.720E-02  0.732E-02
   5.200  0.182E-01  0.601E-02  0.601E-02  0.616E-02
   5.210  0.153E-01  0.503E-02  0.503E-02  0.519E-02
   5.220  0.129E-01  0.425E-02  0.425E-02  0.440E-02
   5.230  0.111E-01  0.365E-02  0.365E-02  0.379E-02
   5.240  0.966E-02  0.318E-02  0.318E-02  0.330E-02
   5.250  0.835E-02  0.275E-02  0.275E-02  0.285E-02
   5.260  0.723E-02  0.238E-02  0.238E-02  0.246E-02
   5.270  0.635E-02  0.210E-02  0.210E-02  0.215E-02
   5.280  0.591E-02  0.196E-02  0.196E-02  0.200E-02
   5.290  0.627E-02  0.208E-02  0.208E-02  0.210E-02
   5.300  0.645E-02  0.215E-02  0.215E-02  0.215E-02
   5.310  0.619E-02  0.207E-02  0.207E-02  0.206E-02
   5.320  0.557E-02  0.186E-02  0.186E-02  0.185E-02
   5.330  0.464E-02  0.155E-02  0.155E-02  0.153E-02
   5.340  0.342E-02  0.115E-02  0.115E-02  0.113E-02
   5.350  0.198E-02  0.664E-03  0.664E-03  0.655E-03
   5.360  0.783E-03  0.261E-03  0.261E-03  0.261E-03
   5.370  0.374E-03  0.124E-03  0.124E-03  0.125E-03
   5.380  0.160E-03  0.533E-04  0.533E-04  0.536E-04
   5.390  0.420E-04  0.140E-04  0.140E-04  0.140E-04
   5.400  0.357E-05  0.121E-05  0.121E-05  0.115E-05
   5.410  0.388E-06  0.136E-06  0.136E-06  0.117E-06
   5.420  0.932E-08  0.326E-08  0.326E-08  0.280E-08
   5.430  0.000E+00  0.000E+00  0.000E+00  0.000E+00
   5.440  0.000E+00  0.000E+00  0.000E+00  0.000E+00
   5.450  0.000E+00  0.000E+00  0.000E+00  0.000E+00
   5.460  0.000E+00  0.000E+00  0.000E+00  0.000E+00
   5.470  0.000E+00  0.000E+00  0.000E+00  0.000E+00
   5.480  0.000E+00  0.000E+00  0.000E+00  0.000E+00
   5.490  0.000E+00  0.000E+00  0.000E+00  0.000E+00
   5.500  0.000E+00  0.000E+00  0.000E+00  0.000E+00
   5.510  0.000E+00  0.000E+00  0.000E+00  0.000E+00
   5.520  0.000E+00  0.000E+00  0.000E+00  0.000E+00
   5.530  0.000E+00  0.000E+00  0.000E+00  0.000E+00
   5.540  0.000E+00  0.000E+00  0.000E+00  0.000E+00
   5.550  0.000E+00  0.000E+00  0.000E+00  0.000E+00
   5.560  0.000E+00  0.000E+00  0.000E+00  0.000E+00
   5.570  0.000E+00  0.000E+00  0.000E+00  0.000E+00
   5.580  0.000E+00  0.000E+00  0.000E+00  0.000E+00
   5.590  0.000E+00  0.000E+00  0.000E+00  0.000E+00
   5.600  0.000E+00  0.000E+00  0.000E+00  0.000E+00
   5.610  0.000E+00  0.000E+00  0.000E+00  0.000E+00
   5.620  0.000E+00  0.000E+00  0.000E+00  0.000E+00
   5.630  0.000E+00  0.000E+00  0.000E+00  0.000E+00
   5.640  0.000E+00  0.000E+00  0.000E+00  0.000E+00
   5.650  0.000E+00  0.000E+00  0.000E+00  0.000E+00
   5.660  0.000E+00  0.000E+00  0.000E+00  0.000E+00
   5.670  0.000E+00  0.000E+00  0.000E+00  0.000E+00
   5.680  0.000E+00  0.000E+00  0.000E+00  0.000E+00
   5.690  0.000E+00  0.000E+00  0.000E+00  0.000E+00
   5.700  0.000E+00  0.000E+00  0.000E+00  0.000E+00
   5.710  0.000E+00  0.000E+00  0.000E+00  0.000E+00
   5.720  0.000E+00  0.000E+00  0.000E+00  0.000E+00
   5.730  0.000E+00  0.000E+00  0.000E+00  0.000E+00
   5.740  0.000E+00  0.000E+00  0.000E+00  0.000E+00
   5.750  0.000E+00  0.000E+00  0.000E+00  0.000E+00
   5.760  0.000E+00  0.000E+00  0.000E+00  0.000E+00
   5.770  0.000E+00  0.000E+00  0.000E+00  0.000E+00
   5.780  0.000E+00  0.000E+00  0.000E+00  0.000E+00
   5.790  0.000E+00  0.000E+00  0.000E+00  0.000E+00
   5.800  0.000E+00  0.000E+00  0.000E+00  0.000E+00
   5.810  0.000E+00  0.000E+00  0.000E+00  0.000E+00
   5.820  0.000E+00  0.000E+00  0.000E+00  0.000E+00
   5.830  0.000E+00  0.000E+00  0.000E+00  0.000E+00
   5.840  0.000E+00  0.000E+00  0.000E+00  0.000E+00
   5.850  0.000E+00  0.000E+00  0.000E+00  0.000E+00
   5.860  0.000E+00  0.000E+00  0.000E+00  0.000E+00
   5.870  0.000E+00  0.000E+00  0.000E+00  0.000E+00
   5.880  0.000E+00  0.000E+00  0.000E+00  0.000E+00
   5.890  0.000E+00  0.000E+00  0.000E+00  0.000E+00
   5.900  0.000E+00  0.000E+00  0.000E+00  0.000E+00
   5.910  0.000E+00  0.000E+00  0.000E+00  0.000E+00
   5.920  0.000E+00  0.000E+00  0.000E+00  0.000E+00
   5.930  0.000E+00  0.000E+00  0.000E+00  0.000E+00
   5.940  0.000E+00  0.000E+00  0.000E+00  0.000E+00
   5.950  0.000E+00  0.000E+00  0.000E+00  0.000E+00
   5.960  0.000E+00  0.000E+00  0.000E+00  0.000E+00
   5.970  0.000E+00  0.000E+00  0.000E+00  0.000E+00
   5.980  0.000E+00  0.000E+00  0.000E+00  0.000E+00
   5.990  0.000E+00  0.000E+00  0.000E+00  0.000E+00
   6.000  0.000E+00  0.000E+00  0.000E+00  0.000E+00
   6.010  0.000E+00  0.000E+00  0.000E+00  0.000E+00
   6.020  0.000E+00  0.000E+00  0.000E+00  0.000E+00
   6.030  0.000E+00  0.000E+00  0.000E+00  0.000E+00
   6.040  0.000E+00  0.000E+00  0.000E+00  0.000E+00
   6.050  0.000E+00  0.000E+00  0.000E+00  0.000E+00
   6.060  0.000E+00  0.000E+00  0.000E+00  0.000E+00
   6.070  0.000E+00  0.000E+00  0.000E+00  0.000E+00
   6.080  0.000E+00  0.000E+00  0.000E+00  0.000E+00
   6.090  0.000E+00  0.000E+00  0.000E+00  0.000E+00
   6.100  0.000E+00  0.000E+00  0.000E+00  0.000E+00
   6.110  0.000E+00  0.000E+00  0.000E+00  0.000E+00
   6.120  0.000E+00  0.000E+00  0.000E+00  0.000E+00
   6.130  0.000E+00  0.000E+00  0.000E+00  0.000E+00
   6.140  0.000E+00  0.000E+00  0.000E+00  0.000E+00
   6.150  0.000E+00  0.000E+00  0.000E+00  0.000E+00
   6.160  0.000E+00  0.000E+00  0.000E+00  0.000E+00
   6.170  0.000E+00  0.000E+00  0.000E+00  0.000E+00
   6.180  0.000E+00  0.000E+00  0.000E+00  0.000E+00
   6.190  0.000E+00  0.000E+00  0.000E+00  0.000E+00
   6.200  0.000E+00  0.000E+00  0.000E+00  0.000E+00
   6.210  0.000E+00  0.000E+00  0.000E+00  0.000E+00
   6.220  0.000E+00  0.000E+00  0.000E+00  0.000E+00
   6.230  0.000E+00  0.000E+00  0.000E+00  0.000E+00
   6.240  0.000E+00  0.000E+00  0.000E+00  0.000E+00
   6.250  0.000E+00  0.000E+00  0.000E+00  0.000E+00
   6.260  0.000E+00  0.000E+00  0.000E+00  0.000E+00
   6.270  0.000E+00  0.000E+00  0.000E+00  0.000E+00
   6.280  0.000E+00  0.000E+00  0.000E+00  0.000E+00
   6.290  0.000E+00  0.000E+00  0.000E+00  0.000E+00
   6.300  0.000E+00  0.000E+00  0.000E+00  0.000E+00
   6.310  0.000E+00  0.000E+00  0.000E+00  0.000E+00
   6.320  0.000E+00  0.000E+00  0.000E+00  0.000E+00
   6.330  0.000E+00  0.000E+00  0.000E+00  0.000E+00
   6.340  0.000E+00  0.000E+00  0.000E+00  0.000E+00
   6.350  0.000E+00  0.000E+00  0.000E+00  0.000E+00
   6.360  0.000E+00  0.000E+00  0.000E+00  0.000E+00
   6.370  0.000E+00  0.000E+00  0.000E+00  0.000E+00
   6.380  0.000E+00  0.000E+00  0.000E+00  0.000E+00
   6.390  0.000E+00  0.000E+00  0.000E+00  0.000E+00
   6.400  0.000E+00  0.000E+00  0.000E+00  0.000E+00
   6.410  0.000E+00  0.000E+00  0.000E+00  0.000E+00
   6.420  0.000E+00  0.000E+00  0.000E+00  0.000E+00
   6.430  0.000E+00  0.000E+00  0.000E+00  0.000E+00
   6.440  0.000E+00  0.000E+00  0.000E+00  0.000E+00
   6.450  0.000E+00  0.000E+00  0.000E+00  0.000E+00
   6.460  0.000E+00  0.000E+00  0.000E+00  0.000E+00
   6.470  0.000E+00  0.000E+00  0.000E+00  0.000E+00
   6.480  0.000E+00  0.000E+00  0.000E+00  0.000E+00
   6.490  0.000E+00  0.000E+00  0.000E+00  0.000E+00
   6.500  0.000E+00  0.000E+00  0.000E+00  0.000E+00
   6.510  0.000E+00  0.000E+00  0.000E+00  0.000E+00
   6.520  0.000E+00  0.000E+00  0.000E+00  0.000E+00
   6.530  0.000E+00  0.000E+00  0.000E+00  0.000E+00
   6.540  0.000E+00  0.000E+00  0.000E+00  0.000E+00
   6.550  0.000E+00  0.000E+00  0.000E+00  0.000E+00
   6.560  0.000E+00  0.000E+00  0.000E+00  0.000E+00
   6.570  0.000E+00  0.000E+00  0.000E+00  0.000E+00
   6.580  0.000E+00  0.000E+00  0.000E+00  0.000E+00
   6.590  0.000E+00  0.000E+00  0.000E+00  0.000E+00
   6.600  0.000E+00  0.000E+00  0.000E+00  0.000E+00
   6.610  0.000E+00  0.000E+00  0.000E+00  0.000E+00
   6.620  0.000E+00  0.000E+00  0.000E+00  0.000E+00
   6.630  0.000E+00  0.000E+00  0.000E+00  0.000E+00
   6.640  0.000E+00  0.000E+00  0.000E+00  0.000E+00
   6.650  0.000E+00  0.000E+00  0.000E+00  0.000E+00
   6.660  0.000E+00  0.000E+00  0.000E+00  0.000E+00
   6.670  0.000E+00  0.000E+00  0.000E+00  0.000E+00
   6.680  0.000E+00  0.000E+00  0.000E+00  0.000E+00
   6.690  0.000E+00  0.000E+00  0.000E+00  0.000E+00
   6.700  0.000E+00  0.000E+00  0.000E+00  0.000E+00
   6.710  0.000E+00  0.000E+00  0.000E+00  0.000E+00
   6.720  0.000E+00  0.000E+00  0.000E+00  0.000E+00
   6.730  0.000E+00  0.000E+00  0.000E+00  0.000E+00
   6.740  0.000E+00  0.000E+00  0.000E+00  0.000E+00
   6.750  0.000E+00  0.000E+00  0.000E+00  0.000E+00
   6.760  0.000E+00  0.000E+00  0.000E+00  0.000E+00
   6.770  0.000E+00  0.000E+00  0.000E+00  0.000E+00
   6.780  0.000E+00  0.000E+00  0.000E+00  0.000E+00
   6.790  0.000E+00  0.000E+00  0.000E+00  0.000E+00
   6.800  0.000E+00  0.000E+00  0.000E+00  0.000E+00
   6.810  0.000E+00  0.000E+00  0.000E+00  0.000E+00
   6.820  0.000E+00  0.000E+00  0.000E+00  0.000E+00
   6.830  0.000E+00  0.000E+00  0.000E+00  0.000E+00
   6.840  0.000E+00  0.000E+00  0.000E+00  0.000E+00
   6.850  0.000E+00  0.000E+00  0.000E+00  0.000E+00
   6.860  0.000E+00  0.000E+00  0.000E+00  0.000E+00
   6.870  0.000E+00  0.000E+00  0.000E+00  0.000E+00
   6.880  0.000E+00  0.000E+00  0.000E+00  0.000E+00
   6.890  0.000E+00  0.000E+00  0.000E+00  0.000E+00
   6.900  0.000E+00  0.000E+00  0.000E+00  0.000E+00
   6.910  0.000E+00  0.000E+00  0.000E+00  0.000E+00
   6.920  0.000E+00  0.000E+00  0.000E+00  0.000E+00
   6.930  0.000E+00  0.000E+00  0.000E+00  0.000E+00
   6.940  0.000E+00  0.000E+00  0.000E+00  0.000E+00
   6.950  0.000E+00  0.000E+00  0.000E+00  0.000E+00
   6.960  0.000E+00  0.000E+00  0.000E+00  0.000E+00
   6.970  0.000E+00  0.000E+00  0.000E+00  0.000E+00
   6.980  0.000E+00  0.000E+00  0.000E+00  0.000E+00
   6.990  0.000E+00  0.000E+00  0.000E+00  0.000E+00
   7.000  0.000E+00  0.000E+00  0.000E+00  0.000E+00
   7.010  0.000E+00  0.000E+00  0.000E+00  0.000E+00
   7.020  0.000E+00  0.000E+00  0.000E+00  0.000E+00
   7.030  0.000E+00  0.000E+00  0.000E+00  0.000E+00
   7.040  0.000E+00  0.000E+00  0.000E+00  0.000E+00
   7.050  0.000E+00  0.000E+00  0.000E+00  0.000E+00
   7.060  0.000E+00  0.000E+00  0.000E+00  0.000E+00
   7.070  0.000E+00  0.000E+00  0.000E+00  0.000E+00
   7.080  0.000E+00  0.000E+00  0.000E+00  0.000E+00
   7.090  0.000E+00  0.000E+00  0.000E+00  0.000E+00
   7.100  0.000E+00  0.000E+00  0.000E+00  0.000E+00
   7.110  0.000E+00  0.000E+00  0.000E+00  0.000E+00
   7.120  0.000E+00  0.000E+00  0.000E+00  0.000E+00
   7.130  0.000E+00  0.000E+00  0.000E+00  0.000E+00
   7.140  0.000E+00  0.000E+00  0.000E+00  0.000E+00
   7.150  0.000E+00  0.000E+00  0.000E+00  0.000E+00
   7.160  0.000E+00  0.000E+00  0.000E+00  0.000E+00
   7.170  0.000E+00  0.000E+00  0.000E+00  0.000E+00
   7.180  0.000E+00  0.000E+00  0.000E+00  0.000E+00
   7.190  0.000E+00  0.000E+00  0.000E+00  0.000E+00
   7.200  0.000E+00  0.000E+00  0.000E+00  0.000E+00
   7.210  0.000E+00  0.000E+00  0.000E+00  0.000E+00
   7.220  0.000E+00  0.000E+00  0.000E+00  0.000E+00
   7.230  0.000E+00  0.000E+00  0.000E+00  0.000E+00
   7.240  0.000E+00  0.000E+00  0.000E+00  0.000E+00
   7.250  0.000E+00  0.000E+00  0.000E+00  0.000E+00
   7.260  0.000E+00  0.000E+00  0.000E+00  0.000E+00
   7.270  0.000E+00  0.000E+00  0.000E+00  0.000E+00
   7.280  0.000E+00  0.000E+00  0.000E+00  0.000E+00
   7.290  0.000E+00  0.000E+00  0.000E+00  0.000E+00
   7.300  0.000E+00  0.000E+00  0.000E+00  0.000E+00
   7.310  0.000E+00  0.000E+00  0.000E+00  0.000E+00
   7.320  0.000E+00  0.000E+00  0.000E+00  0.000E+00
   7.330  0.000E+00  0.000E+00  0.000E+00  0.000E+00
   7.340  0.000E+00  0.000E+00  0.000E+00  0.000E+00
   7.350  0.000E+00  0.000E+00  0.000E+00  0.000E+00
   7.360  0.000E+00  0.000E+00  0.000E+00  0.000E+00
   7.370  0.000E+00  0.000E+00  0.000E+00  0.000E+00
   7.380  0.000E+00  0.000E+00  0.000E+00  0.000E+00
   7.390  0.000E+00  0.000E+00  0.000E+00  0.000E+00
   7.400  0.000E+00  0.000E+00  0.000E+00  0.000E+00
   7.410  0.000E+00  0.000E+00  0.000E+00  0.000E+00
   7.420  0.000E+00  0.000E+00  0.000E+00  0.000E+00
   7.430  0.000E+00  0.000E+00  0.000E+00  0.000E+00
   7.440  0.000E+00  0.000E+00  0.000E+00  0.000E+00
   7.450 -0.778E-08 -0.258E-08 -0.258E-08 -0.263E-08
   7.460 -0.555E-07 -0.184E-07 -0.184E-07 -0.187E-07
   7.470 -0.132E-06 -0.439E-07 -0.439E-07 -0.443E-07
   7.480 -0.231E-06 -0.776E-07 -0.776E-07 -0.757E-07
   7.490 -0.398E-06 -0.141E-06 -0.141E-06 -0.116E-06
   7.500 -0.586E-06 -0.220E-06 -0.220E-06 -0.147E-06
   7.510 -0.726E-06 -0.291E-06 -0.291E-06 -0.144E-06
   7.520 -0.746E-06 -0.331E-06 -0.331E-06 -0.836E-07
   7.530 -0.579E-06 -0.319E-06 -0.319E-06  0.588E-07
   7.540 -0.155E-06 -0.231E-06 -0.231E-06  0.307E-06
   7.550  0.596E-06 -0.439E-07 -0.439E-07  0.684E-06
   7.560  0.174E-05  0.264E-06  0.264E-06  0.121E-05
   7.570  0.336E-05  0.717E-06  0.717E-06  0.192E-05
   7.580  0.550E-05  0.134E-05  0.134E-05  0.283E-05
   7.590  0.826E-05  0.214E-05  0.214E-05  0.397E-05
   7.600  0.117E-04  0.317E-05  0.317E-05  0.535E-05
   7.610  0.158E-04  0.442E-05  0.442E-05  0.700E-05
   7.620  0.208E-04  0.594E-05  0.594E-05  0.896E-05
   7.630  0.267E-04  0.773E-05  0.773E-05  0.112E-04
   7.640  0.335E-04  0.983E-05  0.983E-05  0.138E-04
   7.650  0.413E-04  0.123E-04  0.123E-04  0.168E-04
   7.660  0.503E-04  0.150E-04  0.150E-04  0.202E-04
   7.670  0.604E-04  0.182E-04  0.182E-04  0.240E-04
   7.680  0.717E-04  0.217E-04  0.217E-04  0.282E-04
   7.690  0.843E-04  0.257E-04  0.257E-04  0.329E-04
   7.700  0.983E-04  0.301E-04  0.301E-04  0.381E-04
   7.710  0.114E-03  0.349E-04  0.349E-04  0.438E-04
   7.720  0.131E-03  0.403E-04  0.403E-04  0.501E-04
   7.730  0.149E-03  0.461E-04  0.461E-04  0.568E-04
   7.740  0.169E-03  0.525E-04  0.525E-04  0.642E-04
   7.750  0.191E-03  0.595E-04  0.595E-04  0.722E-04
   7.760  0.215E-03  0.670E-04  0.670E-04  0.808E-04
   7.770  0.240E-03  0.751E-04  0.751E-04  0.901E-04
   7.780  0.268E-03  0.838E-04  0.838E-04  0.100E-03
   7.790  0.297E-03  0.932E-04  0.932E-04  0.111E-03
   7.800  0.329E-03  0.103E-03  0.103E-03  0.122E-03
   7.810  0.362E-03  0.114E-03  0.114E-03  0.134E-03
   7.820  0.398E-03  0.125E-03  0.125E-03  0.147E-03
   7.830  0.434E-03  0.137E-03  0.137E-03  0.160E-03
   7.840  0.472E-03  0.149E-03  0.149E-03  0.174E-03
   7.850  0.514E-03  0.163E-03  0.163E-03  0.189E-03
   7.860  0.560E-03  0.177E-03  0.177E-03  0.205E-03
   7.870  0.610E-03  0.194E-03  0.194E-03  0.223E-03
   7.880  0.668E-03  0.212E-03  0.212E-03  0.243E-03
   7.890  0.726E-03  0.231E-03  0.231E-03  0.264E-03
   7.900  0.783E-03  0.250E-03  0.250E-03  0.284E-03
   7.910  0.840E-03  0.268E-03  0.268E-03  0.304E-03
   7.920  0.897E-03  0.287E-03  0.287E-03  0.323E-03
   7.930  0.954E-03  0.306E-03  0.306E-03  0.343E-03
   7.940  0.101E-02  0.325E-03  0.325E-03  0.362E-03
   7.950  0.107E-02  0.344E-03  0.344E-03  0.382E-03
   7.960  0.113E-02  0.363E-03  0.363E-03  0.401E-03
   7.970  0.119E-02  0.383E-03  0.383E-03  0.421E-03
   7.980  0.124E-02  0.402E-03  0.402E-03  0.440E-03
   7.990  0.130E-02  0.422E-03  0.422E-03  0.459E-03
   8.000  0.136E-02  0.442E-03  0.442E-03  0.478E-03
   8.010  0.142E-02  0.462E-03  0.462E-03  0.497E-03
   8.020  0.148E-02  0.482E-03  0.482E-03  0.516E-03
   8.030  0.154E-02  0.503E-03  0.503E-03  0.534E-03
   8.040  0.160E-02  0.523E-03  0.523E-03  0.553E-03
   8.050  0.166E-02  0.543E-03  0.543E-03  0.571E-03
   8.060  0.172E-02  0.563E-03  0.563E-03  0.588E-03
   8.070  0.177E-02  0.584E-03  0.584E-03  0.605E-03
   8.080  0.183E-02  0.604E-03  0.604E-03  0.622E-03
   8.090  0.189E-02  0.624E-03  0.624E-03  0.638E-03
   8.100  0.194E-02  0.644E-03  0.644E-03  0.654E-03
   8.110  0.199E-02  0.662E-03  0.662E-03  0.667E-03
   8.120  0.203E-02  0.677E-03  0.677E-03  0.676E-03
   8.130  0.206E-02  0.689E-03  0.689E-03  0.681E-03
   8.140  0.208E-02  0.697E-03  0.697E-03  0.682E-03
   8.150  0.210E-02  0.707E-03  0.707E-03  0.684E-03
   8.160  0.212E-02  0.718E-03  0.718E-03  0.688E-03
   8.170  0.215E-02  0.731E-03  0.731E-03  0.692E-03
   8.180  0.219E-02  0.745E-03  0.745E-03  0.697E-03
   8.190  0.222E-02  0.758E-03  0.758E-03  0.701E-03
   8.200  0.225E-02  0.771E-03  0.771E-03  0.704E-03
   8.210  0.227E-02  0.784E-03  0.784E-03  0.707E-03
   8.220  0.230E-02  0.797E-03  0.797E-03  0.710E-03
   8.230  0.234E-02  0.811E-03  0.811E-03  0.714E-03
   8.240  0.237E-02  0.827E-03  0.827E-03  0.718E-03
   8.250  0.241E-02  0.843E-03  0.843E-03  0.723E-03
   8.260  0.245E-02  0.861E-03  0.861E-03  0.730E-03
   8.270  0.250E-02  0.881E-03  0.881E-03  0.738E-03
   8.280  0.255E-02  0.903E-03  0.903E-03  0.747E-03
   8.290  0.261E-02  0.927E-03  0.927E-03  0.757E-03
   8.300  0.268E-02  0.954E-03  0.954E-03  0.771E-03
   8.310  0.276E-02  0.985E-03  0.985E-03  0.787E-03
   8.320  0.284E-02  0.102E-02  0.102E-02  0.805E-03
   8.330  0.293E-02  0.105E-02  0.105E-02  0.823E-03
   8.340  0.301E-02  0.109E-02  0.109E-02  0.841E-03
   8.350  0.310E-02  0.112E-02  0.112E-02  0.859E-03
   8.360  0.319E-02  0.116E-02  0.116E-02  0.877E-03
   8.370  0.328E-02  0.119E-02  0.119E-02  0.894E-03
   8.380  0.337E-02  0.123E-02  0.123E-02  0.912E-03
   8.390  0.346E-02  0.127E-02  0.127E-02  0.929E-03
   8.400  0.356E-02  0.130E-02  0.130E-02  0.947E-03
   8.410  0.365E-02  0.134E-02  0.134E-02  0.964E-03
   8.420  0.375E-02  0.138E-02  0.138E-02  0.983E-03
   8.430  0.385E-02  0.142E-02  0.142E-02  0.100E-02
   8.440  0.395E-02  0.147E-02  0.147E-02  0.102E-02
   8.450  0.406E-02  0.151E-02  0.151E-02  0.104E-02
   8.460  0.417E-02  0.155E-02  0.155E-02  0.106E-02
   8.470  0.428E-02  0.160E-02  0.160E-02  0.108E-02
   8.480  0.439E-02  0.165E-02  0.165E-02  0.110E-02
   8.490  0.451E-02  0.170E-02  0.170E-02  0.112E-02
   8.500  0.464E-02  0.175E-02  0.175E-02  0.114E-02
   8.510  0.476E-02  0.180E-02  0.180E-02  0.117E-02
   8.520  0.490E-02  0.185E-02  0.185E-02  0.119E-02
   8.530  0.503E-02  0.191E-02  0.191E-02  0.121E-02
   8.540  0.517E-02  0.197E-02  0.197E-02  0.124E-02
   8.550  0.531E-02  0.202E-02  0.202E-02  0.126E-02
   8.560  0.546E-02  0.208E-02  0.208E-02  0.129E-02
   8.570  0.561E-02  0.215E-02  0.215E-02  0.131E-02
   8.580  0.576E-02  0.221E-02  0.221E-02  0.134E-02
   8.590  0.592E-02  0.227E-02  0.227E-02  0.137E-02
   8.600  0.608E-02  0.234E-02  0.234E-02  0.139E-02
   8.610  0.624E-02  0.241E-02  0.241E-02  0.142E-02
   8.620  0.641E-02  0.248E-02  0.248E-02  0.145E-02
   8.630  0.658E-02  0.255E-02  0.255E-02  0.148E-02
   8.640  0.676E-02  0.263E-02  0.263E-02  0.151E-02
   8.650  0.694E-02  0.270E-02  0.270E-02  0.153E-02
   8.660  0.712E-02  0.278E-02  0.278E-02  0.156E-02
   8.670  0.731E-02  0.286E-02  0.286E-02  0.159E-02
   8.680  0.750E-02  0.294E-02  0.294E-02  0.162E-02
   8.690  0.775E-02  0.303E-02  0.303E-02  0.168E-02
   8.700  0.815E-02  0.317E-02  0.317E-02  0.182E-02
   8.710  0.872E-02  0.334E-02  0.334E-02  0.204E-02
   8.720  0.946E-02  0.355E-02  0.355E-02  0.236E-02
   8.730  0.104E-01  0.381E-02  0.381E-02  0.277E-02
   8.740  0.115E-01  0.411E-02  0.411E-02  0.327E-02
   8.750  0.128E-01  0.447E-02  0.447E-02  0.387E-02
   8.760  0.143E-01  0.487E-02  0.487E-02  0.457E-02
   8.770  0.160E-01  0.534E-02  0.534E-02  0.537E-02
   8.780  0.179E-01  0.585E-02  0.585E-02  0.624E-02
   8.790  0.212E-01  0.674E-02  0.674E-02  0.769E-02
   8.800  0.265E-01  0.823E-02  0.823E-02  0.101E-01
   8.810  0.424E-01  0.129E-01  0.129E-01  0.167E-01
   8.820  0.489E-01  0.148E-01  0.148E-01  0.192E-01
   8.830  0.497E-01  0.151E-01  0.151E-01  0.195E-01
   8.840  0.509E-01  0.154E-01  0.154E-01  0.201E-01
   8.850  0.525E-01  0.159E-01  0.159E-01  0.207E-01
   8.860  0.551E-01  0.167E-01  0.167E-01  0.218E-01
   8.870  0.591E-01  0.179E-01  0.179E-01  0.233E-01
   8.880  0.633E-01  0.193E-01  0.193E-01  0.248E-01
   8.890  0.667E-01  0.203E-01  0.203E-01  0.261E-01
   8.900  0.693E-01  0.211E-01  0.211E-01  0.271E-01
   8.910  0.717E-01  0.218E-01  0.218E-01  0.281E-01
   8.920  0.741E-01  0.225E-01  0.225E-01  0.292E-01
   8.930  0.764E-01  0.231E-01  0.231E-01  0.302E-01
   8.940  0.786E-01  0.238E-01  0.238E-01  0.311E-01
   8.950  0.810E-01  0.245E-01  0.245E-01  0.320E-01
   8.960  0.837E-01  0.254E-01  0.254E-01  0.329E-01
   8.970  0.871E-01  0.265E-01  0.265E-01  0.341E-01
   8.980  0.972E-01  0.300E-01  0.300E-01  0.371E-01
   8.990  0.104E+00  0.328E-01  0.328E-01  0.385E-01
   9.000  0.105E+00  0.334E-01  0.334E-01  0.378E-01
   9.010  0.102E+00  0.325E-01  0.325E-01  0.368E-01
   9.020  0.102E+00  0.326E-01  0.326E-01  0.368E-01
   9.030  0.105E+00  0.338E-01  0.338E-01  0.371E-01
   9.040  0.118E+00  0.360E-01  0.360E-01  0.463E-01
   9.050  0.129E+00  0.401E-01  0.401E-01  0.492E-01
   9.060  0.104E+00  0.361E-01  0.361E-01  0.321E-01
   9.070  0.103E+00  0.362E-01  0.362E-01  0.304E-01
   9.080  0.110E+00  0.385E-01  0.385E-01  0.330E-01
   9.090  0.118E+00  0.409E-01  0.409E-01  0.357E-01
   9.100  0.126E+00  0.435E-01  0.435E-01  0.387E-01
   9.110  0.133E+00  0.458E-01  0.458E-01  0.414E-01
   9.120  0.141E+00  0.483E-01  0.483E-01  0.442E-01
   9.130  0.148E+00  0.507E-01  0.507E-01  0.470E-01
   9.140  0.156E+00  0.531E-01  0.531E-01  0.498E-01
   9.150  0.164E+00  0.556E-01  0.556E-01  0.527E-01
   9.160  0.172E+00  0.582E-01  0.582E-01  0.558E-01
   9.170  0.181E+00  0.609E-01  0.609E-01  0.590E-01
   9.180  0.190E+00  0.636E-01  0.636E-01  0.623E-01
   9.190  0.198E+00  0.663E-01  0.663E-01  0.655E-01
   9.200  0.210E+00  0.700E-01  0.700E-01  0.696E-01
   9.210  0.220E+00  0.733E-01  0.733E-01  0.735E-01
   9.220  0.230E+00  0.765E-01  0.765E-01  0.772E-01
   9.230  0.240E+00  0.796E-01  0.796E-01  0.808E-01
   9.240  0.250E+00  0.828E-01  0.828E-01  0.846E-01
   9.250  0.261E+00  0.862E-01  0.862E-01  0.884E-01
   9.260  0.272E+00  0.896E-01  0.896E-01  0.924E-01
   9.270  0.283E+00  0.931E-01  0.931E-01  0.963E-01
   9.280  0.293E+00  0.966E-01  0.966E-01  0.100E+00
   9.290  0.302E+00  0.993E-01  0.993E-01  0.103E+00
   9.300  0.315E+00  0.104E+00  0.104E+00  0.107E+00
   9.310  0.332E+00  0.110E+00  0.110E+00  0.112E+00
   9.320  0.349E+00  0.116E+00  0.116E+00  0.118E+00
   9.330  0.361E+00  0.120E+00  0.120E+00  0.122E+00
   9.340  0.365E+00  0.121E+00  0.121E+00  0.122E+00
   9.350  0.364E+00  0.121E+00  0.121E+00  0.122E+00
   9.360  0.356E+00  0.119E+00  0.119E+00  0.119E+00
   9.370  0.341E+00  0.114E+00  0.114E+00  0.113E+00
   9.380  0.326E+00  0.109E+00  0.109E+00  0.108E+00
   9.390  0.315E+00  0.106E+00  0.106E+00  0.104E+00
   9.400  0.307E+00  0.103E+00  0.103E+00  0.101E+00
   9.410  0.300E+00  0.101E+00  0.101E+00  0.983E-01
   9.420  0.295E+00  0.991E-01  0.991E-01  0.967E-01
   9.430  0.286E+00  0.958E-01  0.958E-01  0.945E-01
   9.440  0.265E+00  0.877E-01  0.877E-01  0.901E-01
   9.450  0.269E+00  0.885E-01  0.885E-01  0.920E-01
   9.460  0.267E+00  0.888E-01  0.888E-01  0.898E-01
   9.470  0.273E+00  0.916E-01  0.916E-01  0.901E-01
   9.480  0.278E+00  0.944E-01  0.944E-01  0.895E-01
   9.490  0.283E+00  0.970E-01  0.970E-01  0.887E-01
   9.500  0.287E+00  0.996E-01  0.996E-01  0.877E-01
   9.510  0.289E+00  0.101E+00  0.101E+00  0.860E-01
   9.520  0.284E+00  0.100E+00  0.100E+00  0.837E-01
   9.530  0.276E+00  0.969E-01  0.969E-01  0.818E-01
   9.540  0.279E+00  0.975E-01  0.975E-01  0.845E-01
   9.550  0.268E+00  0.940E-01  0.940E-01  0.805E-01
   9.560  0.254E+00  0.889E-01  0.889E-01  0.757E-01
   9.570  0.271E+00  0.945E-01  0.945E-01  0.825E-01
   9.580  0.285E+00  0.982E-01  0.982E-01  0.882E-01
   9.590  0.295E+00  0.101E+00  0.101E+00  0.934E-01
   9.600  0.304E+00  0.103E+00  0.103E+00  0.982E-01
   9.610  0.313E+00  0.105E+00  0.105E+00  0.103E+00
   9.620  0.323E+00  0.108E+00  0.108E+00  0.107E+00
   9.630  0.336E+00  0.112E+00  0.112E+00  0.112E+00
   9.640  0.349E+00  0.117E+00  0.117E+00  0.116E+00
   9.650  0.364E+00  0.122E+00  0.122E+00  0.121E+00
   9.660  0.381E+00  0.127E+00  0.127E+00  0.127E+00
   9.670  0.397E+00  0.132E+00  0.132E+00  0.132E+00
   9.680  0.410E+00  0.137E+00  0.137E+00  0.137E+00
   9.690  0.422E+00  0.140E+00  0.140E+00  0.141E+00
   9.700  0.427E+00  0.142E+00  0.142E+00  0.143E+00
   9.710  0.463E+00  0.154E+00  0.154E+00  0.155E+00
   9.720  0.457E+00  0.152E+00  0.152E+00  0.153E+00
   9.730  0.341E+00  0.110E+00  0.110E+00  0.122E+00
   9.740  0.321E+00  0.102E+00  0.102E+00  0.117E+00
   9.750  0.303E+00  0.956E-01  0.956E-01  0.112E+00
   9.760  0.291E+00  0.911E-01  0.911E-01  0.109E+00
   9.770  0.282E+00  0.881E-01  0.881E-01  0.106E+00
   9.780  0.278E+00  0.867E-01  0.867E-01  0.104E+00
   9.790  0.277E+00  0.867E-01  0.867E-01  0.104E+00
   9.800  0.280E+00  0.881E-01  0.881E-01  0.104E+00
   9.810  0.293E+00  0.929E-01  0.929E-01  0.107E+00
   9.820  0.590E+00  0.192E+00  0.192E+00  0.206E+00
   9.830  0.105E+01  0.343E+00  0.343E+00  0.359E+00
   9.840  0.965E+00  0.320E+00  0.320E+00  0.326E+00
   9.850  0.103E+01  0.343E+00  0.343E+00  0.345E+00
   9.860  0.902E+00  0.293E+00  0.293E+00  0.317E+00
   9.870  0.757E+00  0.246E+00  0.246E+00  0.265E+00
   9.880  0.800E+00  0.254E+00  0.254E+00  0.293E+00
   9.890  0.657E+00  0.203E+00  0.203E+00  0.252E+00
   9.900  0.511E+00  0.175E+00  0.175E+00  0.161E+00
   9.910  0.540E+00  0.186E+00  0.186E+00  0.167E+00
   9.920  0.588E+00  0.203E+00  0.203E+00  0.182E+00
   9.930  0.594E+00  0.204E+00  0.204E+00  0.185E+00
   9.940  0.588E+00  0.202E+00  0.202E+00  0.185E+00
   9.950  0.581E+00  0.198E+00  0.198E+00  0.184E+00
   9.960  0.575E+00  0.196E+00  0.196E+00  0.183E+00
   9.970  0.568E+00  0.193E+00  0.193E+00  0.182E+00
   9.980  0.560E+00  0.190E+00  0.190E+00  0.180E+00
   9.990  0.553E+00  0.188E+00  0.188E+00  0.177E+00
  10.000  0.546E+00  0.185E+00  0.185E+00  0.176E+00
  10.010  0.538E+00  0.182E+00  0.182E+00  0.174E+00
  10.020  0.527E+00  0.178E+00  0.178E+00  0.172E+00
  10.030  0.522E+00  0.175E+00  0.175E+00  0.171E+00
  10.040  0.526E+00  0.176E+00  0.176E+00  0.174E+00
  10.050  0.679E+00  0.220E+00  0.220E+00  0.239E+00
  10.060  0.731E+00  0.242E+00  0.242E+00  0.247E+00
  10.070  0.868E+00  0.289E+00  0.289E+00  0.289E+00
  10.080  0.574E+00  0.188E+00  0.188E+00  0.198E+00
  10.090  0.481E+00  0.158E+00  0.158E+00  0.165E+00
  10.100  0.431E+00  0.141E+00  0.141E+00  0.150E+00
  10.110  0.394E+00  0.129E+00  0.129E+00  0.136E+00
  10.120  0.361E+00  0.118E+00  0.118E+00  0.125E+00
  10.130  0.331E+00  0.108E+00  0.108E+00  0.115E+00
  10.140  0.304E+00  0.993E-01  0.993E-01  0.106E+00
  10.150  0.282E+00  0.920E-01  0.920E-01  0.980E-01
  10.160  0.267E+00  0.869E-01  0.869E-01  0.928E-01
  10.170  0.257E+00  0.836E-01  0.836E-01  0.896E-01
  10.180  0.249E+00  0.810E-01  0.810E-01  0.871E-01
  10.190  0.243E+00  0.789E-01  0.789E-01  0.849E-01
  10.200  0.237E+00  0.771E-01  0.771E-01  0.830E-01
  10.210  0.233E+00  0.757E-01  0.757E-01  0.815E-01
  10.220  0.229E+00  0.746E-01  0.746E-01  0.802E-01
  10.230  0.227E+00  0.737E-01  0.737E-01  0.792E-01
  10.240  0.225E+00  0.731E-01  0.731E-01  0.787E-01
  10.250  0.224E+00  0.727E-01  0.727E-01  0.784E-01
  10.260  0.226E+00  0.730E-01  0.730E-01  0.797E-01
  10.270  0.320E+00  0.995E-01  0.995E-01  0.121E+00
  10.280  0.365E+00  0.114E+00  0.114E+00  0.138E+00
  10.290  0.483E+00  0.158E+00  0.158E+00  0.166E+00
  10.300  0.627E+00  0.211E+00  0.211E+00  0.206E+00
  10.310  0.728E+00  0.250E+00  0.250E+00  0.229E+00
  10.320  0.781E+00  0.287E+00  0.287E+00  0.207E+00
  10.330  0.453E+00  0.162E+00  0.162E+00  0.128E+00
  10.340  0.363E+00  0.129E+00  0.129E+00  0.106E+00
  10.350  0.317E+00  0.109E+00  0.109E+00  0.993E-01
  10.360  0.281E+00  0.942E-01  0.942E-01  0.928E-01
  10.370  0.248E+00  0.819E-01  0.819E-01  0.845E-01
  10.380  0.223E+00  0.734E-01  0.734E-01  0.764E-01
  10.390  0.213E+00  0.706E-01  0.706E-01  0.715E-01
  10.400  0.217E+00  0.726E-01  0.726E-01  0.716E-01
  10.410  0.230E+00  0.776E-01  0.776E-01  0.751E-01
  10.420  0.244E+00  0.823E-01  0.823E-01  0.793E-01
  10.430  0.255E+00  0.859E-01  0.859E-01  0.836E-01
  10.440  0.266E+00  0.891E-01  0.891E-01  0.879E-01
  10.450  0.276E+00  0.920E-01  0.920E-01  0.918E-01
  10.460  0.283E+00  0.943E-01  0.943E-01  0.948E-01
  10.470  0.291E+00  0.966E-01  0.966E-01  0.981E-01
  10.480  0.297E+00  0.983E-01  0.983E-01  0.101E+00
  10.490  0.299E+00  0.986E-01  0.986E-01  0.102E+00
  10.500  0.297E+00  0.977E-01  0.977E-01  0.102E+00
  10.510  0.294E+00  0.959E-01  0.959E-01  0.102E+00
  10.520  0.289E+00  0.934E-01  0.934E-01  0.102E+00
  10.530  0.283E+00  0.904E-01  0.904E-01  0.102E+00
  10.540  0.281E+00  0.890E-01  0.890E-01  0.103E+00
  10.550  0.283E+00  0.894E-01  0.894E-01  0.104E+00
  10.560  0.285E+00  0.900E-01  0.900E-01  0.105E+00
  10.570  0.287E+00  0.906E-01  0.906E-01  0.106E+00
  10.580  0.291E+00  0.921E-01  0.921E-01  0.107E+00
  10.590  0.299E+00  0.955E-01  0.955E-01  0.108E+00
  10.600  0.311E+00  0.100E+00  0.100E+00  0.110E+00
  10.610  0.329E+00  0.108E+00  0.108E+00  0.114E+00
  10.620  0.352E+00  0.118E+00  0.118E+00  0.117E+00
  10.630  0.388E+00  0.132E+00  0.132E+00  0.123E+00
  10.640  0.433E+00  0.152E+00  0.152E+00  0.130E+00
  10.650  0.497E+00  0.177E+00  0.177E+00  0.142E+00
  10.660  0.586E+00  0.214E+00  0.214E+00  0.157E+00
  10.670  0.457E+00  0.161E+00  0.161E+00  0.136E+00
  10.680  0.393E+00  0.134E+00  0.134E+00  0.124E+00
  10.690  0.366E+00  0.125E+00  0.125E+00  0.116E+00
  10.700  0.354E+00  0.121E+00  0.121E+00  0.112E+00
  10.710  0.344E+00  0.117E+00  0.117E+00  0.110E+00
  10.720  0.335E+00  0.113E+00  0.113E+00  0.109E+00
  10.730  0.318E+00  0.106E+00  0.106E+00  0.106E+00
  10.740  0.251E+00  0.838E-01  0.838E-01  0.838E-01
  10.750  0.242E+00  0.800E-01  0.800E-01  0.822E-01
  10.760  0.185E+00  0.621E-01  0.621E-01  0.609E-01
  10.770  0.174E+00  0.587E-01  0.587E-01  0.563E-01
  10.780  0.167E+00  0.565E-01  0.565E-01  0.542E-01
  10.790  0.159E+00  0.537E-01  0.537E-01  0.514E-01
  10.800  0.150E+00  0.508E-01  0.508E-01  0.486E-01
  10.810  0.141E+00  0.476E-01  0.476E-01  0.456E-01
  10.820  0.132E+00  0.447E-01  0.447E-01  0.430E-01
  10.830  0.137E+00  0.460E-01  0.460E-01  0.446E-01
  10.840  0.140E+00  0.470E-01  0.470E-01  0.459E-01
  10.850  0.153E+00  0.515E-01  0.515E-01  0.503E-01
  10.860  0.162E+00  0.542E-01  0.542E-01  0.534E-01
  10.870  0.169E+00  0.557E-01  0.557E-01  0.573E-01
  10.880  0.178E+00  0.582E-01  0.582E-01  0.617E-01
  10.890  0.187E+00  0.609E-01  0.609E-01  0.655E-01
  10.900  0.198E+00  0.646E-01  0.646E-01  0.691E-01
  10.910  0.218E+00  0.702E-01  0.702E-01  0.775E-01
  10.920  0.251E+00  0.812E-01  0.812E-01  0.886E-01
  10.930  0.317E+00  0.107E+00  0.107E+00  0.103E+00
  10.940  0.378E+00  0.132E+00  0.132E+00  0.115E+00
  10.950  0.455E+00  0.161E+00  0.161E+00  0.134E+00
  10.960  0.485E+00  0.173E+00  0.173E+00  0.140E+00
  10.970  0.502E+00  0.179E+00  0.179E+00  0.144E+00
  10.980  0.524E+00  0.185E+00  0.185E+00  0.154E+00
  10.990  0.518E+00  0.180E+00  0.180E+00  0.159E+00
  11.000  0.584E+00  0.206E+00  0.206E+00  0.172E+00
  11.010  0.434E+00  0.148E+00  0.148E+00  0.139E+00
  11.020  0.414E+00  0.140E+00  0.140E+00  0.135E+00
  11.030  0.377E+00  0.124E+00  0.124E+00  0.128E+00
  11.040  0.336E+00  0.111E+00  0.111E+00  0.115E+00
  11.050  0.300E+00  0.989E-01  0.989E-01  0.102E+00
  11.060  0.259E+00  0.849E-01  0.849E-01  0.894E-01
  11.070  0.223E+00  0.724E-01  0.724E-01  0.781E-01
  11.080  0.194E+00  0.622E-01  0.622E-01  0.691E-01
  11.090  0.172E+00  0.546E-01  0.546E-01  0.626E-01
  11.100  0.159E+00  0.498E-01  0.498E-01  0.590E-01
  11.110  0.152E+00  0.474E-01  0.474E-01  0.575E-01
  11.120  0.148E+00  0.458E-01  0.458E-01  0.569E-01
  11.130  0.145E+00  0.444E-01  0.444E-01  0.565E-01
  11.140  0.142E+00  0.431E-01  0.431E-01  0.561E-01
  11.150  0.140E+00  0.420E-01  0.420E-01  0.558E-01
  11.160  0.138E+00  0.411E-01  0.411E-01  0.557E-01
  11.170  0.136E+00  0.403E-01  0.403E-01  0.556E-01
  11.180  0.135E+00  0.396E-01  0.396E-01  0.556E-01
  11.190  0.134E+00  0.392E-01  0.392E-01  0.557E-01
  11.200  0.134E+00  0.389E-01  0.389E-01  0.560E-01
  11.210  0.135E+00  0.391E-01  0.391E-01  0.566E-01
  11.220  0.137E+00  0.397E-01  0.397E-01  0.576E-01
  11.230  0.140E+00  0.407E-01  0.407E-01  0.589E-01
  11.240  0.145E+00  0.422E-01  0.422E-01  0.607E-01
  11.250  0.151E+00  0.440E-01  0.440E-01  0.627E-01
  11.260  0.157E+00  0.462E-01  0.462E-01  0.650E-01
  11.270  0.170E+00  0.507E-01  0.507E-01  0.686E-01
  11.280  0.196E+00  0.604E-01  0.604E-01  0.750E-01
  11.290  0.238E+00  0.772E-01  0.772E-01  0.841E-01
  11.300  0.286E+00  0.964E-01  0.964E-01  0.931E-01
  11.310  0.338E+00  0.117E+00  0.117E+00  0.104E+00
  11.320  0.397E+00  0.140E+00  0.140E+00  0.117E+00
  11.330  0.465E+00  0.164E+00  0.164E+00  0.136E+00
  11.340  0.546E+00  0.190E+00  0.190E+00  0.165E+00
  11.350  0.629E+00  0.217E+00  0.217E+00  0.195E+00
  11.360  0.696E+00  0.238E+00  0.238E+00  0.221E+00
  11.370  0.778E+00  0.261E+00  0.261E+00  0.257E+00
  11.380  0.901E+00  0.298E+00  0.298E+00  0.306E+00
  11.390  0.845E+00  0.277E+00  0.277E+00  0.291E+00
  11.400  0.835E+00  0.275E+00  0.275E+00  0.286E+00
  11.410  0.830E+00  0.269E+00  0.269E+00  0.291E+00
  11.420  0.835E+00  0.268E+00  0.268E+00  0.299E+00
  11.430  0.727E+00  0.239E+00  0.239E+00  0.249E+00
  11.440  0.707E+00  0.235E+00  0.235E+00  0.237E+00
  11.450  0.703E+00  0.235E+00  0.235E+00  0.234E+00
  11.460  0.699E+00  0.234E+00  0.234E+00  0.231E+00
  11.470  0.692E+00  0.232E+00  0.232E+00  0.228E+00
  11.480  0.683E+00  0.229E+00  0.229E+00  0.226E+00
  11.490  0.687E+00  0.230E+00  0.230E+00  0.227E+00
  11.500  0.714E+00  0.240E+00  0.240E+00  0.234E+00
  11.510  0.721E+00  0.246E+00  0.246E+00  0.230E+00
  11.520  0.719E+00  0.246E+00  0.246E+00  0.227E+00
  11.530  0.732E+00  0.251E+00  0.251E+00  0.231E+00
  11.540  0.746E+00  0.256E+00  0.256E+00  0.234E+00
  11.550  0.750E+00  0.257E+00  0.257E+00  0.236E+00
  11.560  0.743E+00  0.253E+00  0.253E+00  0.236E+00
  11.570  0.733E+00  0.248E+00  0.248E+00  0.236E+00
  11.580  0.749E+00  0.255E+00  0.255E+00  0.239E+00
  11.590  0.791E+00  0.269E+00  0.269E+00  0.254E+00
  11.600  0.836E+00  0.283E+00  0.283E+00  0.269E+00
  11.610  0.880E+00  0.298E+00  0.298E+00  0.284E+00
  11.620  0.920E+00  0.310E+00  0.310E+00  0.300E+00
  11.630  0.961E+00  0.320E+00  0.320E+00  0.321E+00
  11.640  0.985E+00  0.327E+00  0.327E+00  0.330E+00
  11.650  0.989E+00  0.332E+00  0.332E+00  0.325E+00
  11.660  0.900E+00  0.306E+00  0.306E+00  0.288E+00
  11.670  0.820E+00  0.278E+00  0.278E+00  0.263E+00
  11.680  0.760E+00  0.256E+00  0.256E+00  0.248E+00
  11.690  0.696E+00  0.232E+00  0.232E+00  0.232E+00
  11.700  0.643E+00  0.212E+00  0.212E+00  0.219E+00
  11.710  0.616E+00  0.202E+00  0.202E+00  0.211E+00
  11.720  0.652E+00  0.218E+00  0.218E+00  0.216E+00
  11.730  0.680E+00  0.230E+00  0.230E+00  0.219E+00
  11.740  0.699E+00  0.238E+00  0.238E+00  0.223E+00
  11.750  0.738E+00  0.253E+00  0.253E+00  0.233E+00
  11.760  0.727E+00  0.251E+00  0.251E+00  0.226E+00
  11.770  0.686E+00  0.238E+00  0.238E+00  0.210E+00
  11.780  0.644E+00  0.225E+00  0.225E+00  0.195E+00
  11.790  0.610E+00  0.213E+00  0.213E+00  0.184E+00
  11.800  0.601E+00  0.210E+00  0.210E+00  0.182E+00
  11.810  0.587E+00  0.204E+00  0.204E+00  0.179E+00
  11.820  0.556E+00  0.192E+00  0.192E+00  0.171E+00
  11.830  0.502E+00  0.173E+00  0.173E+00  0.156E+00
  11.840  0.453E+00  0.155E+00  0.155E+00  0.142E+00
  11.850  0.426E+00  0.146E+00  0.146E+00  0.135E+00
  11.860  0.393E+00  0.136E+00  0.136E+00  0.121E+00
  11.870  0.361E+00  0.125E+00  0.125E+00  0.111E+00
  11.880  0.326E+00  0.113E+00  0.113E+00  0.101E+00
  11.890  0.291E+00  0.101E+00  0.101E+00  0.901E-01
  11.900  0.268E+00  0.926E-01  0.926E-01  0.826E-01
  11.910  0.259E+00  0.896E-01  0.896E-01  0.794E-01
  11.920  0.252E+00  0.870E-01  0.870E-01  0.777E-01
  11.930  0.272E+00  0.938E-01  0.938E-01  0.839E-01
  11.940  0.258E+00  0.888E-01  0.888E-01  0.809E-01
  11.950  0.236E+00  0.803E-01  0.803E-01  0.752E-01
  11.960  0.212E+00  0.715E-01  0.715E-01  0.690E-01
  11.970  0.188E+00  0.626E-01  0.626E-01  0.625E-01
  11.980  0.163E+00  0.537E-01  0.537E-01  0.557E-01
  11.990  0.139E+00  0.450E-01  0.450E-01  0.487E-01
  12.000  0.116E+00  0.373E-01  0.373E-01  0.417E-01
  12.010  0.100E+00  0.318E-01  0.318E-01  0.364E-01
