#  E (eV)   dosup(E)     dosdw(E)   Int dos(E) EFermi =    5.527 eV
 -15.000  0.0000E+00  0.0000E+00  0.8000E+01
 -14.990  0.0000E+00  0.0000E+00  0.8000E+01
 -14.980  0.0000E+00  0.0000E+00  0.8000E+01
 -14.970  0.0000E+00  0.0000E+00  0.8000E+01
 -14.960  0.0000E+00  0.0000E+00  0.8000E+01
 -14.950  0.0000E+00  0.0000E+00  0.8000E+01
 -14.940  0.0000E+00  0.0000E+00  0.8000E+01
 -14.930  0.0000E+00  0.0000E+00  0.8000E+01
 -14.920  0.0000E+00  0.0000E+00  0.8000E+01
 -14.910  0.0000E+00  0.0000E+00  0.8000E+01
 -14.900  0.0000E+00  0.0000E+00  0.8000E+01
 -14.890  0.0000E+00  0.0000E+00  0.8000E+01
 -14.880  0.0000E+00  0.0000E+00  0.8000E+01
 -14.870  0.0000E+00  0.0000E+00  0.8000E+01
 -14.860  0.0000E+00  0.0000E+00  0.8000E+01
 -14.850  0.0000E+00  0.0000E+00  0.8000E+01
 -14.840  0.0000E+00  0.0000E+00  0.8000E+01
 -14.830  0.0000E+00  0.0000E+00  0.8000E+01
 -14.820  0.0000E+00  0.0000E+00  0.8000E+01
 -14.810  0.0000E+00  0.0000E+00  0.8000E+01
 -14.800  0.0000E+00  0.0000E+00  0.8000E+01
 -14.790  0.0000E+00  0.0000E+00  0.8000E+01
 -14.780  0.0000E+00  0.0000E+00  0.8000E+01
 -14.770  0.0000E+00  0.0000E+00  0.8000E+01
 -14.760  0.0000E+00  0.0000E+00  0.8000E+01
 -14.750  0.0000E+00  0.0000E+00  0.8000E+01
 -14.740  0.0000E+00  0.0000E+00  0.8000E+01
 -14.730  0.0000E+00  0.0000E+00  0.8000E+01
 -14.720  0.0000E+00  0.0000E+00  0.8000E+01
 -14.710  0.0000E+00  0.0000E+00  0.8000E+01
 -14.700  0.0000E+00  0.0000E+00  0.8000E+01
 -14.690  0.0000E+00  0.0000E+00  0.8000E+01
 -14.680  0.0000E+00  0.0000E+00  0.8000E+01
 -14.670  0.0000E+00  0.0000E+00  0.8000E+01
 -14.660  0.0000E+00  0.0000E+00  0.8000E+01
 -14.650  0.0000E+00  0.0000E+00  0.8000E+01
 -14.640  0.0000E+00  0.0000E+00  0.8000E+01
 -14.630  0.0000E+00  0.0000E+00  0.8000E+01
 -14.620  0.0000E+00  0.0000E+00  0.8000E+01
 -14.610  0.0000E+00  0.0000E+00  0.8000E+01
 -14.600  0.0000E+00  0.0000E+00  0.8000E+01
 -14.590  0.0000E+00  0.0000E+00  0.8000E+01
 -14.580  0.0000E+00  0.0000E+00  0.8000E+01
 -14.570  0.0000E+00  0.0000E+00  0.8000E+01
 -14.560  0.0000E+00  0.0000E+00  0.8000E+01
 -14.550  0.0000E+00  0.0000E+00  0.8000E+01
 -14.540  0.0000E+00  0.0000E+00  0.8000E+01
 -14.530  0.0000E+00  0.0000E+00  0.8000E+01
 -14.520  0.0000E+00  0.0000E+00  0.8000E+01
 -14.510  0.0000E+00  0.0000E+00  0.8000E+01
 -14.500  0.0000E+00  0.0000E+00  0.8000E+01
 -14.490  0.0000E+00  0.0000E+00  0.8000E+01
 -14.480  0.0000E+00  0.0000E+00  0.8000E+01
 -14.470  0.0000E+00  0.0000E+00  0.8000E+01
 -14.460  0.0000E+00  0.0000E+00  0.8000E+01
 -14.450  0.0000E+00  0.0000E+00  0.8000E+01
 -14.440  0.0000E+00  0.0000E+00  0.8000E+01
 -14.430  0.0000E+00  0.0000E+00  0.8000E+01
 -14.420  0.0000E+00  0.0000E+00  0.8000E+01
 -14.410  0.0000E+00  0.0000E+00  0.8000E+01
 -14.400  0.0000E+00  0.0000E+00  0.8000E+01
 -14.390  0.0000E+00  0.0000E+00  0.8000E+01
 -14.380  0.0000E+00  0.0000E+00  0.8000E+01
 -14.370  0.0000E+00  0.0000E+00  0.8000E+01
 -14.360  0.0000E+00  0.0000E+00  0.8000E+01
 -14.350  0.0000E+00  0.0000E+00  0.8000E+01
 -14.340  0.0000E+00  0.0000E+00  0.8000E+01
 -14.330  0.0000E+00  0.0000E+00  0.8000E+01
 -14.320  0.0000E+00  0.0000E+00  0.8000E+01
 -14.310  0.0000E+00  0.0000E+00  0.8000E+01
 -14.300  0.0000E+00  0.0000E+00  0.8000E+01
 -14.290  0.0000E+00  0.0000E+00  0.8000E+01
 -14.280  0.0000E+00  0.0000E+00  0.8000E+01
 -14.270  0.0000E+00  0.0000E+00  0.8000E+01
 -14.260  0.0000E+00  0.0000E+00  0.8000E+01
 -14.250  0.0000E+00  0.0000E+00  0.8000E+01
 -14.240  0.0000E+00  0.0000E+00  0.8000E+01
 -14.230  0.0000E+00  0.0000E+00  0.8000E+01
 -14.220  0.0000E+00  0.0000E+00  0.8000E+01
 -14.210  0.0000E+00  0.0000E+00  0.8000E+01
 -14.200  0.0000E+00  0.0000E+00  0.8000E+01
 -14.190  0.0000E+00  0.0000E+00  0.8000E+01
 -14.180  0.0000E+00  0.0000E+00  0.8000E+01
 -14.170  0.0000E+00  0.0000E+00  0.8000E+01
 -14.160  0.0000E+00  0.0000E+00  0.8000E+01
 -14.150  0.0000E+00  0.0000E+00  0.8000E+01
 -14.140  0.0000E+00  0.0000E+00  0.8000E+01
 -14.130  0.0000E+00  0.0000E+00  0.8000E+01
 -14.120  0.0000E+00  0.0000E+00  0.8000E+01
 -14.110  0.0000E+00  0.0000E+00  0.8000E+01
 -14.100  0.0000E+00  0.0000E+00  0.8000E+01
 -14.090  0.0000E+00  0.0000E+00  0.8000E+01
 -14.080  0.0000E+00  0.0000E+00  0.8000E+01
 -14.070  0.0000E+00  0.0000E+00  0.8000E+01
 -14.060  0.0000E+00  0.0000E+00  0.8000E+01
 -14.050  0.0000E+00  0.0000E+00  0.8000E+01
 -14.040  0.0000E+00  0.0000E+00  0.8000E+01
 -14.030  0.0000E+00  0.0000E+00  0.8000E+01
 -14.020  0.0000E+00  0.0000E+00  0.8000E+01
 -14.010  0.0000E+00  0.0000E+00  0.8000E+01
 -14.000  0.0000E+00  0.0000E+00  0.8000E+01
 -13.990  0.0000E+00  0.0000E+00  0.8000E+01
 -13.980  0.0000E+00  0.0000E+00  0.8000E+01
 -13.970  0.0000E+00  0.0000E+00  0.8000E+01
 -13.960  0.0000E+00  0.0000E+00  0.8000E+01
 -13.950  0.0000E+00  0.0000E+00  0.8000E+01
 -13.940  0.0000E+00  0.0000E+00  0.8000E+01
 -13.930  0.0000E+00  0.0000E+00  0.8000E+01
 -13.920  0.0000E+00  0.0000E+00  0.8000E+01
 -13.910  0.0000E+00  0.0000E+00  0.8000E+01
 -13.900  0.0000E+00  0.0000E+00  0.8000E+01
 -13.890  0.0000E+00  0.0000E+00  0.8000E+01
 -13.880  0.0000E+00  0.0000E+00  0.8000E+01
 -13.870  0.0000E+00  0.0000E+00  0.8000E+01
 -13.860  0.0000E+00  0.0000E+00  0.8000E+01
 -13.850  0.0000E+00  0.0000E+00  0.8000E+01
 -13.840  0.0000E+00  0.0000E+00  0.8000E+01
 -13.830  0.0000E+00  0.0000E+00  0.8000E+01
 -13.820  0.0000E+00  0.0000E+00  0.8000E+01
 -13.810  0.0000E+00  0.0000E+00  0.8000E+01
 -13.800  0.0000E+00  0.0000E+00  0.8000E+01
 -13.790  0.0000E+00  0.0000E+00  0.8000E+01
 -13.780  0.0000E+00  0.0000E+00  0.8000E+01
 -13.770  0.0000E+00  0.0000E+00  0.8000E+01
 -13.760  0.0000E+00  0.0000E+00  0.8000E+01
 -13.750  0.0000E+00  0.0000E+00  0.8000E+01
 -13.740  0.0000E+00  0.0000E+00  0.8000E+01
 -13.730  0.0000E+00  0.0000E+00  0.8000E+01
 -13.720  0.0000E+00  0.0000E+00  0.8000E+01
 -13.710  0.0000E+00  0.0000E+00  0.8000E+01
 -13.700  0.0000E+00  0.0000E+00  0.8000E+01
 -13.690  0.0000E+00  0.0000E+00  0.8000E+01
 -13.680  0.0000E+00  0.0000E+00  0.8000E+01
 -13.670  0.0000E+00  0.0000E+00  0.8000E+01
 -13.660  0.0000E+00  0.0000E+00  0.8000E+01
 -13.650  0.0000E+00  0.0000E+00  0.8000E+01
 -13.640  0.0000E+00  0.0000E+00  0.8000E+01
 -13.630  0.0000E+00  0.0000E+00  0.8000E+01
 -13.620  0.0000E+00  0.0000E+00  0.8000E+01
 -13.610  0.0000E+00  0.0000E+00  0.8000E+01
 -13.600  0.0000E+00  0.0000E+00  0.8000E+01
 -13.590  0.0000E+00  0.0000E+00  0.8000E+01
 -13.580  0.0000E+00  0.0000E+00  0.8000E+01
 -13.570  0.0000E+00  0.0000E+00  0.8000E+01
 -13.560  0.0000E+00  0.0000E+00  0.8000E+01
 -13.550  0.0000E+00  0.0000E+00  0.8000E+01
 -13.540  0.0000E+00  0.0000E+00  0.8000E+01
 -13.530  0.0000E+00  0.0000E+00  0.8000E+01
 -13.520  0.0000E+00  0.0000E+00  0.8000E+01
 -13.510  0.0000E+00  0.0000E+00  0.8000E+01
 -13.500  0.0000E+00  0.0000E+00  0.8000E+01
 -13.490  0.0000E+00  0.0000E+00  0.8000E+01
 -13.480  0.0000E+00  0.0000E+00  0.8000E+01
 -13.470  0.0000E+00  0.0000E+00  0.8000E+01
 -13.460  0.0000E+00  0.0000E+00  0.8000E+01
 -13.450  0.0000E+00  0.0000E+00  0.8000E+01
 -13.440  0.0000E+00  0.0000E+00  0.8000E+01
 -13.430  0.0000E+00  0.0000E+00  0.8000E+01
 -13.420  0.0000E+00  0.0000E+00  0.8000E+01
 -13.410  0.0000E+00  0.0000E+00  0.8000E+01
 -13.400  0.0000E+00  0.0000E+00  0.8000E+01
 -13.390  0.0000E+00  0.0000E+00  0.8000E+01
 -13.380  0.0000E+00  0.0000E+00  0.8000E+01
 -13.370  0.0000E+00  0.0000E+00  0.8000E+01
 -13.360  0.0000E+00  0.0000E+00  0.8000E+01
 -13.350  0.0000E+00  0.0000E+00  0.8000E+01
 -13.340  0.0000E+00  0.0000E+00  0.8000E+01
 -13.330  0.0000E+00  0.0000E+00  0.8000E+01
 -13.320  0.0000E+00  0.0000E+00  0.8000E+01
 -13.310  0.0000E+00  0.0000E+00  0.8000E+01
 -13.300  0.0000E+00  0.0000E+00  0.8000E+01
 -13.290  0.0000E+00  0.0000E+00  0.8000E+01
 -13.280  0.0000E+00  0.0000E+00  0.8000E+01
 -13.270  0.0000E+00  0.0000E+00  0.8000E+01
 -13.260  0.0000E+00  0.0000E+00  0.8000E+01
 -13.250  0.0000E+00  0.0000E+00  0.8000E+01
 -13.240  0.0000E+00  0.0000E+00  0.8000E+01
 -13.230  0.0000E+00  0.0000E+00  0.8000E+01
 -13.220  0.0000E+00  0.0000E+00  0.8000E+01
 -13.210  0.0000E+00  0.0000E+00  0.8000E+01
 -13.200  0.0000E+00  0.0000E+00  0.8000E+01
 -13.190  0.0000E+00  0.0000E+00  0.8000E+01
 -13.180  0.0000E+00  0.0000E+00  0.8000E+01
 -13.170  0.0000E+00  0.0000E+00  0.8000E+01
 -13.160  0.0000E+00  0.0000E+00  0.8000E+01
 -13.150  0.0000E+00  0.0000E+00  0.8000E+01
 -13.140  0.0000E+00  0.0000E+00  0.8000E+01
 -13.130  0.0000E+00  0.0000E+00  0.8000E+01
 -13.120  0.0000E+00  0.0000E+00  0.8000E+01
 -13.110  0.0000E+00  0.0000E+00  0.8000E+01
 -13.100  0.0000E+00  0.0000E+00  0.8000E+01
 -13.090  0.0000E+00  0.0000E+00  0.8000E+01
 -13.080  0.0000E+00  0.0000E+00  0.8000E+01
 -13.070  0.0000E+00  0.0000E+00  0.8000E+01
 -13.060  0.0000E+00  0.0000E+00  0.8000E+01
 -13.050  0.0000E+00  0.0000E+00  0.8000E+01
 -13.040  0.0000E+00  0.0000E+00  0.8000E+01
 -13.030  0.0000E+00  0.0000E+00  0.8000E+01
 -13.020  0.0000E+00  0.0000E+00  0.8000E+01
 -13.010  0.0000E+00  0.0000E+00  0.8000E+01
 -13.000  0.0000E+00  0.0000E+00  0.8000E+01
 -12.990  0.0000E+00  0.0000E+00  0.8000E+01
 -12.980  0.0000E+00  0.0000E+00  0.8000E+01
 -12.970  0.0000E+00  0.0000E+00  0.8000E+01
 -12.960  0.0000E+00  0.0000E+00  0.8000E+01
 -12.950  0.0000E+00  0.0000E+00  0.8000E+01
 -12.940  0.0000E+00  0.0000E+00  0.8000E+01
 -12.930  0.0000E+00  0.0000E+00  0.8000E+01
 -12.920  0.0000E+00  0.0000E+00  0.8000E+01
 -12.910  0.0000E+00  0.0000E+00  0.8000E+01
 -12.900  0.0000E+00  0.0000E+00  0.8000E+01
 -12.890  0.0000E+00  0.0000E+00  0.8000E+01
 -12.880  0.0000E+00  0.0000E+00  0.8000E+01
 -12.870  0.0000E+00  0.0000E+00  0.8000E+01
 -12.860  0.0000E+00  0.0000E+00  0.8000E+01
 -12.850  0.0000E+00  0.0000E+00  0.8000E+01
 -12.840  0.0000E+00  0.0000E+00  0.8000E+01
 -12.830  0.0000E+00  0.0000E+00  0.8000E+01
 -12.820  0.0000E+00  0.0000E+00  0.8000E+01
 -12.810  0.0000E+00  0.0000E+00  0.8000E+01
 -12.800  0.0000E+00  0.0000E+00  0.8000E+01
 -12.790  0.0000E+00  0.0000E+00  0.8000E+01
 -12.780  0.0000E+00  0.0000E+00  0.8000E+01
 -12.770  0.0000E+00  0.0000E+00  0.8000E+01
 -12.760  0.0000E+00  0.0000E+00  0.8000E+01
 -12.750  0.0000E+00  0.0000E+00  0.8000E+01
 -12.740  0.0000E+00  0.0000E+00  0.8000E+01
 -12.730  0.0000E+00  0.0000E+00  0.8000E+01
 -12.720  0.0000E+00  0.0000E+00  0.8000E+01
 -12.710  0.0000E+00  0.0000E+00  0.8000E+01
 -12.700  0.0000E+00  0.0000E+00  0.8000E+01
 -12.690  0.0000E+00  0.0000E+00  0.8000E+01
 -12.680  0.0000E+00  0.0000E+00  0.8000E+01
 -12.670  0.0000E+00  0.0000E+00  0.8000E+01
 -12.660  0.0000E+00  0.0000E+00  0.8000E+01
 -12.650  0.0000E+00  0.0000E+00  0.8000E+01
 -12.640  0.0000E+00  0.0000E+00  0.8000E+01
 -12.630  0.0000E+00  0.0000E+00  0.8000E+01
 -12.620  0.0000E+00  0.0000E+00  0.8000E+01
 -12.610  0.0000E+00  0.0000E+00  0.8000E+01
 -12.600  0.0000E+00  0.0000E+00  0.8000E+01
 -12.590  0.0000E+00  0.0000E+00  0.8000E+01
 -12.580  0.0000E+00  0.0000E+00  0.8000E+01
 -12.570  0.0000E+00  0.0000E+00  0.8000E+01
 -12.560  0.0000E+00  0.0000E+00  0.8000E+01
 -12.550  0.0000E+00  0.0000E+00  0.8000E+01
 -12.540  0.0000E+00  0.0000E+00  0.8000E+01
 -12.530  0.0000E+00  0.0000E+00  0.8000E+01
 -12.520  0.0000E+00  0.0000E+00  0.8000E+01
 -12.510  0.0000E+00  0.0000E+00  0.8000E+01
 -12.500  0.0000E+00  0.0000E+00  0.8000E+01
 -12.490  0.0000E+00  0.0000E+00  0.8000E+01
 -12.480  0.0000E+00  0.0000E+00  0.8000E+01
 -12.470  0.0000E+00  0.0000E+00  0.8000E+01
 -12.460  0.0000E+00  0.0000E+00  0.8000E+01
 -12.450  0.0000E+00  0.0000E+00  0.8000E+01
 -12.440  0.0000E+00  0.0000E+00  0.8000E+01
 -12.430  0.0000E+00  0.0000E+00  0.8000E+01
 -12.420  0.0000E+00  0.0000E+00  0.8000E+01
 -12.410  0.0000E+00  0.0000E+00  0.8000E+01
 -12.400  0.0000E+00  0.0000E+00  0.8000E+01
 -12.390  0.0000E+00  0.0000E+00  0.8000E+01
 -12.380  0.0000E+00  0.0000E+00  0.8000E+01
 -12.370  0.0000E+00  0.0000E+00  0.8000E+01
 -12.360  0.0000E+00  0.0000E+00  0.8000E+01
 -12.350  0.0000E+00  0.0000E+00  0.8000E+01
 -12.340  0.0000E+00  0.0000E+00  0.8000E+01
 -12.330  0.0000E+00  0.0000E+00  0.8000E+01
 -12.320  0.0000E+00  0.0000E+00  0.8000E+01
 -12.310  0.0000E+00  0.0000E+00  0.8000E+01
 -12.300  0.0000E+00  0.0000E+00  0.8000E+01
 -12.290  0.0000E+00  0.0000E+00  0.8000E+01
 -12.280  0.0000E+00  0.0000E+00  0.8000E+01
 -12.270  0.0000E+00  0.0000E+00  0.8000E+01
 -12.260  0.0000E+00  0.0000E+00  0.8000E+01
 -12.250  0.0000E+00  0.0000E+00  0.8000E+01
 -12.240  0.0000E+00  0.0000E+00  0.8000E+01
 -12.230  0.0000E+00  0.0000E+00  0.8000E+01
 -12.220  0.0000E+00  0.0000E+00  0.8000E+01
 -12.210  0.0000E+00  0.0000E+00  0.8000E+01
 -12.200  0.0000E+00  0.0000E+00  0.8000E+01
 -12.190  0.0000E+00  0.0000E+00  0.8000E+01
 -12.180  0.0000E+00  0.0000E+00  0.8000E+01
 -12.170  0.0000E+00  0.0000E+00  0.8000E+01
 -12.160  0.0000E+00  0.0000E+00  0.8000E+01
 -12.150  0.0000E+00  0.0000E+00  0.8000E+01
 -12.140  0.0000E+00  0.0000E+00  0.8000E+01
 -12.130  0.0000E+00  0.0000E+00  0.8000E+01
 -12.120  0.0000E+00  0.0000E+00  0.8000E+01
 -12.110  0.0000E+00  0.0000E+00  0.8000E+01
 -12.100  0.0000E+00  0.0000E+00  0.8000E+01
 -12.090  0.0000E+00  0.0000E+00  0.8000E+01
 -12.080  0.0000E+00  0.0000E+00  0.8000E+01
 -12.070  0.0000E+00  0.0000E+00  0.8000E+01
 -12.060  0.0000E+00  0.0000E+00  0.8000E+01
 -12.050  0.0000E+00  0.0000E+00  0.8000E+01
 -12.040  0.0000E+00  0.0000E+00  0.8000E+01
 -12.030  0.0000E+00  0.0000E+00  0.8000E+01
 -12.020  0.0000E+00  0.0000E+00  0.8000E+01
 -12.010  0.0000E+00  0.0000E+00  0.8000E+01
 -12.000  0.0000E+00  0.0000E+00  0.8000E+01
 -11.990  0.0000E+00  0.0000E+00  0.8000E+01
 -11.980  0.0000E+00  0.0000E+00  0.8000E+01
 -11.970  0.0000E+00  0.0000E+00  0.8000E+01
 -11.960  0.0000E+00  0.0000E+00  0.8000E+01
 -11.950  0.0000E+00  0.0000E+00  0.8000E+01
 -11.940  0.0000E+00  0.0000E+00  0.8000E+01
 -11.930  0.0000E+00  0.0000E+00  0.8000E+01
 -11.920  0.0000E+00  0.0000E+00  0.8000E+01
 -11.910  0.0000E+00  0.0000E+00  0.8000E+01
 -11.900  0.0000E+00  0.0000E+00  0.8000E+01
 -11.890  0.0000E+00  0.0000E+00  0.8000E+01
 -11.880  0.0000E+00  0.0000E+00  0.8000E+01
 -11.870  0.0000E+00  0.0000E+00  0.8000E+01
 -11.860  0.0000E+00  0.0000E+00  0.8000E+01
 -11.850  0.0000E+00  0.0000E+00  0.8000E+01
 -11.840  0.0000E+00  0.0000E+00  0.8000E+01
 -11.830  0.0000E+00  0.0000E+00  0.8000E+01
 -11.820  0.0000E+00  0.0000E+00  0.8000E+01
 -11.810  0.0000E+00  0.0000E+00  0.8000E+01
 -11.800  0.0000E+00  0.0000E+00  0.8000E+01
 -11.790  0.0000E+00  0.0000E+00  0.8000E+01
 -11.780  0.0000E+00  0.0000E+00  0.8000E+01
 -11.770  0.0000E+00  0.0000E+00  0.8000E+01
 -11.760  0.0000E+00  0.0000E+00  0.8000E+01
 -11.750  0.0000E+00  0.0000E+00  0.8000E+01
 -11.740  0.0000E+00  0.0000E+00  0.8000E+01
 -11.730  0.0000E+00  0.0000E+00  0.8000E+01
 -11.720  0.0000E+00  0.0000E+00  0.8000E+01
 -11.710  0.0000E+00  0.0000E+00  0.8000E+01
 -11.700  0.0000E+00  0.0000E+00  0.8000E+01
 -11.690  0.0000E+00  0.0000E+00  0.8000E+01
 -11.680  0.0000E+00  0.0000E+00  0.8000E+01
 -11.670  0.0000E+00  0.0000E+00  0.8000E+01
 -11.660  0.0000E+00  0.0000E+00  0.8000E+01
 -11.650  0.0000E+00  0.0000E+00  0.8000E+01
 -11.640  0.0000E+00  0.0000E+00  0.8000E+01
 -11.630  0.0000E+00  0.0000E+00  0.8000E+01
 -11.620  0.0000E+00  0.0000E+00  0.8000E+01
 -11.610  0.0000E+00  0.0000E+00  0.8000E+01
 -11.600  0.0000E+00  0.0000E+00  0.8000E+01
 -11.590  0.0000E+00  0.0000E+00  0.8000E+01
 -11.580  0.0000E+00  0.0000E+00  0.8000E+01
 -11.570  0.0000E+00  0.0000E+00  0.8000E+01
 -11.560  0.0000E+00  0.0000E+00  0.8000E+01
 -11.550  0.0000E+00  0.0000E+00  0.8000E+01
 -11.540  0.0000E+00  0.0000E+00  0.8000E+01
 -11.530  0.0000E+00  0.0000E+00  0.8000E+01
 -11.520  0.0000E+00  0.0000E+00  0.8000E+01
 -11.510  0.0000E+00  0.0000E+00  0.8000E+01
 -11.500  0.0000E+00  0.0000E+00  0.8000E+01
 -11.490  0.0000E+00  0.0000E+00  0.8000E+01
 -11.480  0.0000E+00  0.0000E+00  0.8000E+01
 -11.470  0.0000E+00  0.0000E+00  0.8000E+01
 -11.460  0.0000E+00  0.0000E+00  0.8000E+01
 -11.450  0.0000E+00  0.0000E+00  0.8000E+01
 -11.440  0.0000E+00  0.0000E+00  0.8000E+01
 -11.430  0.0000E+00  0.0000E+00  0.8000E+01
 -11.420  0.0000E+00  0.0000E+00  0.8000E+01
 -11.410  0.0000E+00  0.0000E+00  0.8000E+01
 -11.400  0.0000E+00  0.0000E+00  0.8000E+01
 -11.390  0.0000E+00  0.0000E+00  0.8000E+01
 -11.380  0.0000E+00  0.0000E+00  0.8000E+01
 -11.370  0.0000E+00  0.0000E+00  0.8000E+01
 -11.360  0.0000E+00  0.0000E+00  0.8000E+01
 -11.350  0.0000E+00  0.0000E+00  0.8000E+01
 -11.340  0.0000E+00  0.0000E+00  0.8000E+01
 -11.330  0.0000E+00  0.0000E+00  0.8000E+01
 -11.320  0.0000E+00  0.0000E+00  0.8000E+01
 -11.310  0.0000E+00  0.0000E+00  0.8000E+01
 -11.300  0.0000E+00  0.0000E+00  0.8000E+01
 -11.290  0.0000E+00  0.0000E+00  0.8000E+01
 -11.280  0.0000E+00  0.0000E+00  0.8000E+01
 -11.270  0.0000E+00  0.0000E+00  0.8000E+01
 -11.260  0.0000E+00  0.0000E+00  0.8000E+01
 -11.250  0.0000E+00  0.0000E+00  0.8000E+01
 -11.240  0.0000E+00  0.0000E+00  0.8000E+01
 -11.230  0.0000E+00  0.0000E+00  0.8000E+01
 -11.220  0.0000E+00  0.0000E+00  0.8000E+01
 -11.210  0.0000E+00  0.0000E+00  0.8000E+01
 -11.200  0.0000E+00  0.0000E+00  0.8000E+01
 -11.190  0.0000E+00  0.0000E+00  0.8000E+01
 -11.180  0.0000E+00  0.0000E+00  0.8000E+01
 -11.170  0.0000E+00  0.0000E+00  0.8000E+01
 -11.160  0.0000E+00  0.0000E+00  0.8000E+01
 -11.150  0.0000E+00  0.0000E+00  0.8000E+01
 -11.140  0.0000E+00  0.0000E+00  0.8000E+01
 -11.130  0.0000E+00  0.0000E+00  0.8000E+01
 -11.120  0.0000E+00  0.0000E+00  0.8000E+01
 -11.110  0.0000E+00  0.0000E+00  0.8000E+01
 -11.100  0.0000E+00  0.0000E+00  0.8000E+01
 -11.090  0.0000E+00  0.0000E+00  0.8000E+01
 -11.080  0.0000E+00  0.0000E+00  0.8000E+01
 -11.070  0.0000E+00  0.0000E+00  0.8000E+01
 -11.060  0.0000E+00  0.0000E+00  0.8000E+01
 -11.050  0.0000E+00  0.0000E+00  0.8000E+01
 -11.040  0.0000E+00  0.0000E+00  0.8000E+01
 -11.030  0.0000E+00  0.0000E+00  0.8000E+01
 -11.020  0.0000E+00  0.0000E+00  0.8000E+01
 -11.010  0.0000E+00  0.0000E+00  0.8000E+01
 -11.000  0.0000E+00  0.0000E+00  0.8000E+01
 -10.990  0.0000E+00  0.0000E+00  0.8000E+01
 -10.980  0.0000E+00  0.0000E+00  0.8000E+01
 -10.970  0.0000E+00  0.0000E+00  0.8000E+01
 -10.960  0.0000E+00  0.0000E+00  0.8000E+01
 -10.950  0.0000E+00  0.0000E+00  0.8000E+01
 -10.940  0.0000E+00  0.0000E+00  0.8000E+01
 -10.930  0.0000E+00  0.0000E+00  0.8000E+01
 -10.920  0.0000E+00  0.0000E+00  0.8000E+01
 -10.910  0.0000E+00  0.0000E+00  0.8000E+01
 -10.900  0.0000E+00  0.0000E+00  0.8000E+01
 -10.890  0.0000E+00  0.0000E+00  0.8000E+01
 -10.880  0.0000E+00  0.0000E+00  0.8000E+01
 -10.870  0.0000E+00  0.0000E+00  0.8000E+01
 -10.860  0.0000E+00  0.0000E+00  0.8000E+01
 -10.850  0.0000E+00  0.0000E+00  0.8000E+01
 -10.840  0.0000E+00  0.0000E+00  0.8000E+01
 -10.830  0.0000E+00  0.0000E+00  0.8000E+01
 -10.820  0.0000E+00  0.0000E+00  0.8000E+01
 -10.810  0.0000E+00  0.0000E+00  0.8000E+01
 -10.800  0.0000E+00  0.0000E+00  0.8000E+01
 -10.790  0.0000E+00  0.0000E+00  0.8000E+01
 -10.780  0.0000E+00  0.0000E+00  0.8000E+01
 -10.770  0.0000E+00  0.0000E+00  0.8000E+01
 -10.760  0.0000E+00  0.0000E+00  0.8000E+01
 -10.750  0.0000E+00  0.0000E+00  0.8000E+01
 -10.740  0.0000E+00  0.0000E+00  0.8000E+01
 -10.730  0.0000E+00  0.0000E+00  0.8000E+01
 -10.720  0.0000E+00  0.0000E+00  0.8000E+01
 -10.710  0.0000E+00  0.0000E+00  0.8000E+01
 -10.700  0.0000E+00  0.0000E+00  0.8000E+01
 -10.690  0.0000E+00  0.0000E+00  0.8000E+01
 -10.680  0.0000E+00  0.0000E+00  0.8000E+01
 -10.670  0.0000E+00  0.0000E+00  0.8000E+01
 -10.660  0.0000E+00  0.0000E+00  0.8000E+01
 -10.650  0.0000E+00  0.0000E+00  0.8000E+01
 -10.640  0.0000E+00  0.0000E+00  0.8000E+01
 -10.630  0.0000E+00  0.0000E+00  0.8000E+01
 -10.620  0.0000E+00  0.0000E+00  0.8000E+01
 -10.610  0.0000E+00  0.0000E+00  0.8000E+01
 -10.600  0.0000E+00  0.0000E+00  0.8000E+01
 -10.590  0.0000E+00  0.0000E+00  0.8000E+01
 -10.580  0.0000E+00  0.0000E+00  0.8000E+01
 -10.570  0.0000E+00  0.0000E+00  0.8000E+01
 -10.560  0.0000E+00  0.0000E+00  0.8000E+01
 -10.550  0.0000E+00  0.0000E+00  0.8000E+01
 -10.540  0.0000E+00  0.0000E+00  0.8000E+01
 -10.530  0.0000E+00  0.0000E+00  0.8000E+01
 -10.520  0.0000E+00  0.0000E+00  0.8000E+01
 -10.510  0.0000E+00  0.0000E+00  0.8000E+01
 -10.500  0.0000E+00  0.0000E+00  0.8000E+01
 -10.490  0.0000E+00  0.0000E+00  0.8000E+01
 -10.480  0.0000E+00  0.0000E+00  0.8000E+01
 -10.470  0.0000E+00  0.0000E+00  0.8000E+01
 -10.460  0.0000E+00  0.0000E+00  0.8000E+01
 -10.450  0.0000E+00  0.0000E+00  0.8000E+01
 -10.440  0.0000E+00  0.0000E+00  0.8000E+01
 -10.430  0.0000E+00  0.0000E+00  0.8000E+01
 -10.420  0.0000E+00  0.0000E+00  0.8000E+01
 -10.410  0.0000E+00  0.0000E+00  0.8000E+01
 -10.400  0.0000E+00  0.0000E+00  0.8000E+01
 -10.390  0.0000E+00  0.0000E+00  0.8000E+01
 -10.380  0.0000E+00  0.0000E+00  0.8000E+01
 -10.370  0.0000E+00  0.0000E+00  0.8000E+01
 -10.360  0.0000E+00  0.0000E+00  0.8000E+01
 -10.350  0.0000E+00  0.0000E+00  0.8000E+01
 -10.340  0.0000E+00  0.0000E+00  0.8000E+01
 -10.330  0.0000E+00  0.0000E+00  0.8000E+01
 -10.320  0.0000E+00  0.0000E+00  0.8000E+01
 -10.310  0.0000E+00  0.0000E+00  0.8000E+01
 -10.300  0.0000E+00  0.0000E+00  0.8000E+01
 -10.290  0.0000E+00  0.0000E+00  0.8000E+01
 -10.280  0.0000E+00  0.0000E+00  0.8000E+01
 -10.270  0.0000E+00  0.0000E+00  0.8000E+01
 -10.260  0.0000E+00  0.0000E+00  0.8000E+01
 -10.250  0.0000E+00  0.0000E+00  0.8000E+01
 -10.240  0.0000E+00  0.0000E+00  0.8000E+01
 -10.230  0.0000E+00  0.0000E+00  0.8000E+01
 -10.220  0.0000E+00  0.0000E+00  0.8000E+01
 -10.210  0.0000E+00  0.0000E+00  0.8000E+01
 -10.200  0.0000E+00  0.0000E+00  0.8000E+01
 -10.190  0.0000E+00  0.0000E+00  0.8000E+01
 -10.180  0.0000E+00  0.0000E+00  0.8000E+01
 -10.170  0.0000E+00  0.0000E+00  0.8000E+01
 -10.160  0.0000E+00  0.0000E+00  0.8000E+01
 -10.150  0.0000E+00  0.0000E+00  0.8000E+01
 -10.140  0.0000E+00  0.0000E+00  0.8000E+01
 -10.130  0.0000E+00  0.0000E+00  0.8000E+01
 -10.120  0.0000E+00  0.0000E+00  0.8000E+01
 -10.110  0.0000E+00  0.0000E+00  0.8000E+01
 -10.100  0.0000E+00  0.0000E+00  0.8000E+01
 -10.090  0.0000E+00  0.0000E+00  0.8000E+01
 -10.080  0.0000E+00  0.0000E+00  0.8000E+01
 -10.070  0.0000E+00  0.0000E+00  0.8000E+01
 -10.060  0.0000E+00  0.0000E+00  0.8000E+01
 -10.050  0.0000E+00  0.0000E+00  0.8000E+01
 -10.040  0.0000E+00  0.0000E+00  0.8000E+01
 -10.030  0.0000E+00  0.0000E+00  0.8000E+01
 -10.020  0.0000E+00  0.0000E+00  0.8000E+01
 -10.010  0.0000E+00  0.0000E+00  0.8000E+01
 -10.000  0.0000E+00  0.0000E+00  0.8000E+01
  -9.990  0.0000E+00  0.0000E+00  0.8000E+01
  -9.980  0.0000E+00  0.0000E+00  0.8000E+01
  -9.970  0.0000E+00  0.0000E+00  0.8000E+01
  -9.960  0.0000E+00  0.0000E+00  0.8000E+01
  -9.950  0.0000E+00  0.0000E+00  0.8000E+01
  -9.940  0.0000E+00  0.0000E+00  0.8000E+01
  -9.930  0.0000E+00  0.0000E+00  0.8000E+01
  -9.920  0.0000E+00  0.0000E+00  0.8000E+01
  -9.910  0.0000E+00  0.0000E+00  0.8000E+01
  -9.900  0.0000E+00  0.0000E+00  0.8000E+01
  -9.890  0.0000E+00  0.0000E+00  0.8000E+01
  -9.880  0.0000E+00  0.0000E+00  0.8000E+01
  -9.870  0.0000E+00  0.0000E+00  0.8000E+01
  -9.860  0.0000E+00  0.0000E+00  0.8000E+01
  -9.850  0.0000E+00  0.0000E+00  0.8000E+01
  -9.840  0.0000E+00  0.0000E+00  0.8000E+01
  -9.830  0.0000E+00  0.0000E+00  0.8000E+01
  -9.820  0.0000E+00  0.0000E+00  0.8000E+01
  -9.810  0.0000E+00  0.0000E+00  0.8000E+01
  -9.800  0.0000E+00  0.0000E+00  0.8000E+01
  -9.790  0.0000E+00  0.0000E+00  0.8000E+01
  -9.780  0.0000E+00  0.0000E+00  0.8000E+01
  -9.770  0.0000E+00  0.0000E+00  0.8000E+01
  -9.760  0.0000E+00  0.0000E+00  0.8000E+01
  -9.750  0.0000E+00  0.0000E+00  0.8000E+01
  -9.740  0.0000E+00  0.0000E+00  0.8000E+01
  -9.730  0.0000E+00  0.0000E+00  0.8000E+01
  -9.720  0.0000E+00  0.0000E+00  0.8000E+01
  -9.710  0.0000E+00  0.0000E+00  0.8000E+01
  -9.700  0.0000E+00  0.0000E+00  0.8000E+01
  -9.690  0.0000E+00  0.0000E+00  0.8000E+01
  -9.680  0.0000E+00  0.0000E+00  0.8000E+01
  -9.670  0.0000E+00  0.0000E+00  0.8000E+01
  -9.660  0.0000E+00  0.0000E+00  0.8000E+01
  -9.650  0.0000E+00  0.0000E+00  0.8000E+01
  -9.640  0.0000E+00  0.0000E+00  0.8000E+01
  -9.630  0.0000E+00  0.0000E+00  0.8000E+01
  -9.620  0.0000E+00  0.0000E+00  0.8000E+01
  -9.610  0.0000E+00  0.0000E+00  0.8000E+01
  -9.600  0.0000E+00  0.0000E+00  0.8000E+01
  -9.590  0.0000E+00  0.0000E+00  0.8000E+01
  -9.580  0.0000E+00  0.0000E+00  0.8000E+01
  -9.570  0.0000E+00  0.0000E+00  0.8000E+01
  -9.560  0.0000E+00  0.0000E+00  0.8000E+01
  -9.550  0.0000E+00  0.0000E+00  0.8000E+01
  -9.540  0.0000E+00  0.0000E+00  0.8000E+01
  -9.530  0.0000E+00  0.0000E+00  0.8000E+01
  -9.520  0.0000E+00  0.0000E+00  0.8000E+01
  -9.510  0.0000E+00  0.0000E+00  0.8000E+01
  -9.500  0.0000E+00  0.0000E+00  0.8000E+01
  -9.490  0.0000E+00  0.0000E+00  0.8000E+01
  -9.480  0.0000E+00  0.0000E+00  0.8000E+01
  -9.470  0.0000E+00  0.0000E+00  0.8000E+01
  -9.460  0.0000E+00  0.0000E+00  0.8000E+01
  -9.450  0.0000E+00  0.0000E+00  0.8000E+01
  -9.440  0.0000E+00  0.0000E+00  0.8000E+01
  -9.430  0.0000E+00  0.0000E+00  0.8000E+01
  -9.420  0.0000E+00  0.0000E+00  0.8000E+01
  -9.410  0.0000E+00  0.0000E+00  0.8000E+01
  -9.400  0.0000E+00  0.0000E+00  0.8000E+01
  -9.390  0.0000E+00  0.0000E+00  0.8000E+01
  -9.380  0.0000E+00  0.0000E+00  0.8000E+01
  -9.370  0.0000E+00  0.0000E+00  0.8000E+01
  -9.360  0.0000E+00  0.0000E+00  0.8000E+01
  -9.350  0.0000E+00  0.0000E+00  0.8000E+01
  -9.340  0.0000E+00  0.0000E+00  0.8000E+01
  -9.330  0.0000E+00  0.0000E+00  0.8000E+01
  -9.320  0.0000E+00  0.0000E+00  0.8000E+01
  -9.310  0.0000E+00  0.0000E+00  0.8000E+01
  -9.300  0.0000E+00  0.0000E+00  0.8000E+01
  -9.290  0.0000E+00  0.0000E+00  0.8000E+01
  -9.280  0.0000E+00  0.0000E+00  0.8000E+01
  -9.270  0.0000E+00  0.0000E+00  0.8000E+01
  -9.260  0.0000E+00  0.0000E+00  0.8000E+01
  -9.250  0.0000E+00  0.0000E+00  0.8000E+01
  -9.240  0.0000E+00  0.0000E+00  0.8000E+01
  -9.230  0.0000E+00  0.0000E+00  0.8000E+01
  -9.220  0.0000E+00  0.0000E+00  0.8000E+01
  -9.210  0.0000E+00  0.0000E+00  0.8000E+01
  -9.200  0.0000E+00  0.0000E+00  0.8000E+01
  -9.190  0.0000E+00  0.0000E+00  0.8000E+01
  -9.180  0.0000E+00  0.0000E+00  0.8000E+01
  -9.170  0.0000E+00  0.0000E+00  0.8000E+01
  -9.160  0.0000E+00  0.0000E+00  0.8000E+01
  -9.150  0.0000E+00  0.0000E+00  0.8000E+01
  -9.140  0.0000E+00  0.0000E+00  0.8000E+01
  -9.130  0.0000E+00  0.0000E+00  0.8000E+01
  -9.120  0.0000E+00  0.0000E+00  0.8000E+01
  -9.110  0.0000E+00  0.0000E+00  0.8000E+01
  -9.100  0.0000E+00  0.0000E+00  0.8000E+01
  -9.090  0.0000E+00  0.0000E+00  0.8000E+01
  -9.080  0.0000E+00  0.0000E+00  0.8000E+01
  -9.070  0.0000E+00  0.0000E+00  0.8000E+01
  -9.060  0.0000E+00  0.0000E+00  0.8000E+01
  -9.050  0.0000E+00  0.0000E+00  0.8000E+01
  -9.040  0.0000E+00  0.0000E+00  0.8000E+01
  -9.030  0.0000E+00  0.0000E+00  0.8000E+01
  -9.020  0.0000E+00  0.0000E+00  0.8000E+01
  -9.010  0.0000E+00  0.0000E+00  0.8000E+01
  -9.000  0.0000E+00  0.0000E+00  0.8000E+01
  -8.990  0.0000E+00  0.0000E+00  0.8000E+01
  -8.980  0.0000E+00  0.0000E+00  0.8000E+01
  -8.970  0.0000E+00  0.0000E+00  0.8000E+01
  -8.960  0.0000E+00  0.0000E+00  0.8000E+01
  -8.950  0.0000E+00  0.0000E+00  0.8000E+01
  -8.940  0.0000E+00  0.0000E+00  0.8000E+01
  -8.930  0.0000E+00  0.0000E+00  0.8000E+01
  -8.920  0.0000E+00  0.0000E+00  0.8000E+01
  -8.910  0.0000E+00  0.0000E+00  0.8000E+01
  -8.900  0.0000E+00  0.0000E+00  0.8000E+01
  -8.890  0.0000E+00  0.0000E+00  0.8000E+01
  -8.880  0.0000E+00  0.0000E+00  0.8000E+01
  -8.870  0.0000E+00  0.0000E+00  0.8000E+01
  -8.860  0.0000E+00  0.0000E+00  0.8000E+01
  -8.850  0.0000E+00  0.0000E+00  0.8000E+01
  -8.840  0.0000E+00  0.0000E+00  0.8000E+01
  -8.830  0.0000E+00  0.0000E+00  0.8000E+01
  -8.820  0.0000E+00  0.0000E+00  0.8000E+01
  -8.810  0.0000E+00  0.0000E+00  0.8000E+01
  -8.800  0.0000E+00  0.0000E+00  0.8000E+01
  -8.790  0.0000E+00  0.0000E+00  0.8000E+01
  -8.780  0.0000E+00  0.0000E+00  0.8000E+01
  -8.770  0.0000E+00  0.0000E+00  0.8000E+01
  -8.760  0.0000E+00  0.0000E+00  0.8000E+01
  -8.750  0.0000E+00  0.0000E+00  0.8000E+01
  -8.740  0.0000E+00  0.0000E+00  0.8000E+01
  -8.730  0.0000E+00  0.0000E+00  0.8000E+01
  -8.720  0.0000E+00  0.0000E+00  0.8000E+01
  -8.710  0.0000E+00  0.0000E+00  0.8000E+01
  -8.700  0.0000E+00  0.0000E+00  0.8000E+01
  -8.690  0.0000E+00  0.0000E+00  0.8000E+01
  -8.680  0.0000E+00  0.0000E+00  0.8000E+01
  -8.670  0.0000E+00  0.0000E+00  0.8000E+01
  -8.660  0.0000E+00  0.0000E+00  0.8000E+01
  -8.650  0.0000E+00  0.0000E+00  0.8000E+01
  -8.640  0.0000E+00  0.0000E+00  0.8000E+01
  -8.630  0.0000E+00  0.0000E+00  0.8000E+01
  -8.620  0.0000E+00  0.0000E+00  0.8000E+01
  -8.610  0.0000E+00  0.0000E+00  0.8000E+01
  -8.600  0.0000E+00  0.0000E+00  0.8000E+01
  -8.590  0.0000E+00  0.0000E+00  0.8000E+01
  -8.580  0.0000E+00  0.0000E+00  0.8000E+01
  -8.570  0.0000E+00  0.0000E+00  0.8000E+01
  -8.560  0.0000E+00  0.0000E+00  0.8000E+01
  -8.550  0.0000E+00  0.0000E+00  0.8000E+01
  -8.540  0.0000E+00  0.0000E+00  0.8000E+01
  -8.530  0.0000E+00  0.0000E+00  0.8000E+01
  -8.520  0.0000E+00  0.0000E+00  0.8000E+01
  -8.510  0.0000E+00  0.0000E+00  0.8000E+01
  -8.500  0.0000E+00  0.0000E+00  0.8000E+01
  -8.490  0.0000E+00  0.0000E+00  0.8000E+01
  -8.480  0.0000E+00  0.0000E+00  0.8000E+01
  -8.470  0.0000E+00  0.0000E+00  0.8000E+01
  -8.460  0.0000E+00  0.0000E+00  0.8000E+01
  -8.450  0.0000E+00  0.0000E+00  0.8000E+01
  -8.440  0.0000E+00  0.0000E+00  0.8000E+01
  -8.430  0.0000E+00  0.0000E+00  0.8000E+01
  -8.420  0.0000E+00  0.0000E+00  0.8000E+01
  -8.410  0.0000E+00  0.0000E+00  0.8000E+01
  -8.400  0.0000E+00  0.0000E+00  0.8000E+01
  -8.390  0.0000E+00  0.0000E+00  0.8000E+01
  -8.380  0.0000E+00  0.0000E+00  0.8000E+01
  -8.370  0.0000E+00  0.0000E+00  0.8000E+01
  -8.360  0.0000E+00  0.0000E+00  0.8000E+01
  -8.350  0.0000E+00  0.0000E+00  0.8000E+01
  -8.340  0.0000E+00  0.0000E+00  0.8000E+01
  -8.330  0.0000E+00  0.0000E+00  0.8000E+01
  -8.320  0.0000E+00  0.0000E+00  0.8000E+01
  -8.310  0.0000E+00  0.0000E+00  0.8000E+01
  -8.300  0.0000E+00  0.0000E+00  0.8000E+01
  -8.290  0.0000E+00  0.0000E+00  0.8000E+01
  -8.280  0.0000E+00  0.0000E+00  0.8000E+01
  -8.270  0.0000E+00  0.0000E+00  0.8000E+01
  -8.260  0.0000E+00  0.0000E+00  0.8000E+01
  -8.250  0.0000E+00  0.0000E+00  0.8000E+01
  -8.240  0.0000E+00  0.0000E+00  0.8000E+01
  -8.230  0.0000E+00  0.0000E+00  0.8000E+01
  -8.220  0.0000E+00  0.0000E+00  0.8000E+01
  -8.210  0.0000E+00  0.0000E+00  0.8000E+01
  -8.200  0.0000E+00  0.0000E+00  0.8000E+01
  -8.190  0.0000E+00  0.0000E+00  0.8000E+01
  -8.180  0.0000E+00  0.0000E+00  0.8000E+01
  -8.170  0.0000E+00  0.0000E+00  0.8000E+01
  -8.160  0.0000E+00  0.0000E+00  0.8000E+01
  -8.150  0.0000E+00  0.0000E+00  0.8000E+01
  -8.140  0.0000E+00  0.0000E+00  0.8000E+01
  -8.130  0.0000E+00  0.0000E+00  0.8000E+01
  -8.120  0.0000E+00  0.0000E+00  0.8000E+01
  -8.110  0.0000E+00  0.0000E+00  0.8000E+01
  -8.100  0.0000E+00  0.0000E+00  0.8000E+01
  -8.090  0.0000E+00  0.0000E+00  0.8000E+01
  -8.080  0.0000E+00  0.0000E+00  0.8000E+01
  -8.070  0.0000E+00  0.0000E+00  0.8000E+01
  -8.060  0.0000E+00  0.0000E+00  0.8000E+01
  -8.050  0.0000E+00  0.0000E+00  0.8000E+01
  -8.040  0.0000E+00  0.0000E+00  0.8000E+01
  -8.030  0.0000E+00  0.0000E+00  0.8000E+01
  -8.020  0.0000E+00  0.0000E+00  0.8000E+01
  -8.010  0.0000E+00  0.0000E+00  0.8000E+01
  -8.000  0.0000E+00  0.0000E+00  0.8000E+01
  -7.990  0.0000E+00  0.0000E+00  0.8000E+01
  -7.980  0.0000E+00  0.0000E+00  0.8000E+01
  -7.970  0.0000E+00  0.0000E+00  0.8000E+01
  -7.960  0.0000E+00  0.0000E+00  0.8000E+01
  -7.950  0.0000E+00  0.0000E+00  0.8000E+01
  -7.940  0.0000E+00  0.0000E+00  0.8000E+01
  -7.930  0.0000E+00  0.0000E+00  0.8000E+01
  -7.920  0.0000E+00  0.0000E+00  0.8000E+01
  -7.910  0.0000E+00  0.0000E+00  0.8000E+01
  -7.900  0.0000E+00  0.0000E+00  0.8000E+01
  -7.890  0.0000E+00  0.0000E+00  0.8000E+01
  -7.880  0.0000E+00  0.0000E+00  0.8000E+01
  -7.870  0.0000E+00  0.0000E+00  0.8000E+01
  -7.860  0.0000E+00  0.0000E+00  0.8000E+01
  -7.850  0.0000E+00  0.0000E+00  0.8000E+01
  -7.840  0.0000E+00  0.0000E+00  0.8000E+01
  -7.830  0.0000E+00  0.0000E+00  0.8000E+01
  -7.820  0.0000E+00  0.0000E+00  0.8000E+01
  -7.810  0.0000E+00  0.0000E+00  0.8000E+01
  -7.800  0.0000E+00  0.0000E+00  0.8000E+01
  -7.790  0.0000E+00  0.0000E+00  0.8000E+01
  -7.780  0.0000E+00  0.0000E+00  0.8000E+01
  -7.770  0.0000E+00  0.0000E+00  0.8000E+01
  -7.760  0.0000E+00  0.0000E+00  0.8000E+01
  -7.750  0.0000E+00  0.0000E+00  0.8000E+01
  -7.740  0.0000E+00  0.0000E+00  0.8000E+01
  -7.730  0.0000E+00  0.0000E+00  0.8000E+01
  -7.720  0.0000E+00  0.0000E+00  0.8000E+01
  -7.710  0.0000E+00  0.0000E+00  0.8000E+01
  -7.700  0.0000E+00  0.0000E+00  0.8000E+01
  -7.690  0.0000E+00  0.0000E+00  0.8000E+01
  -7.680  0.0000E+00  0.0000E+00  0.8000E+01
  -7.670  0.0000E+00  0.0000E+00  0.8000E+01
  -7.660  0.0000E+00  0.0000E+00  0.8000E+01
  -7.650  0.0000E+00  0.0000E+00  0.8000E+01
  -7.640  0.0000E+00  0.0000E+00  0.8000E+01
  -7.630  0.0000E+00  0.0000E+00  0.8000E+01
  -7.620  0.0000E+00  0.0000E+00  0.8000E+01
  -7.610  0.0000E+00  0.0000E+00  0.8000E+01
  -7.600  0.0000E+00  0.0000E+00  0.8000E+01
  -7.590  0.0000E+00  0.0000E+00  0.8000E+01
  -7.580  0.0000E+00  0.0000E+00  0.8000E+01
  -7.570  0.0000E+00  0.0000E+00  0.8000E+01
  -7.560  0.0000E+00  0.0000E+00  0.8000E+01
  -7.550  0.0000E+00  0.0000E+00  0.8000E+01
  -7.540  0.0000E+00  0.0000E+00  0.8000E+01
  -7.530  0.0000E+00  0.0000E+00  0.8000E+01
  -7.520  0.0000E+00  0.0000E+00  0.8000E+01
  -7.510  0.0000E+00  0.0000E+00  0.8000E+01
  -7.500  0.0000E+00  0.0000E+00  0.8000E+01
  -7.490  0.0000E+00  0.0000E+00  0.8000E+01
  -7.480  0.0000E+00  0.0000E+00  0.8000E+01
  -7.470  0.7003E-02  0.0000E+00  0.8000E+01
  -7.460  0.1321E+00  0.0000E+00  0.8000E+01
  -7.450  0.5661E+00  0.5239E-03  0.8004E+01
  -7.440  0.1317E+01  0.2951E-01  0.8013E+01
  -7.430  0.2111E+01  0.2715E+00  0.8031E+01
  -7.420  0.2635E+01  0.8284E+00  0.8061E+01
  -7.410  0.2960E+01  0.1641E+01  0.8101E+01
  -7.400  0.3148E+01  0.2287E+01  0.8152E+01
  -7.390  0.3372E+01  0.2643E+01  0.8209E+01
  -7.380  0.3579E+01  0.2787E+01  0.8271E+01
  -7.370  0.3910E+01  0.2814E+01  0.8336E+01
  -7.360  0.4479E+01  0.2904E+01  0.8406E+01
  -7.350  0.5201E+01  0.2996E+01  0.8485E+01
  -7.340  0.6023E+01  0.3183E+01  0.8571E+01
  -7.330  0.6586E+01  0.3533E+01  0.8668E+01
  -7.320  0.6577E+01  0.3987E+01  0.8772E+01
  -7.310  0.6067E+01  0.4424E+01  0.8877E+01
  -7.300  0.5482E+01  0.5050E+01  0.8982E+01
  -7.290  0.5253E+01  0.5565E+01  0.9089E+01
  -7.280  0.5481E+01  0.5716E+01  0.9199E+01
  -7.270  0.5529E+01  0.5576E+01  0.9311E+01
  -7.260  0.5899E+01  0.5382E+01  0.9422E+01
  -7.250  0.6493E+01  0.5555E+01  0.9538E+01
  -7.240  0.6961E+01  0.6286E+01  0.9665E+01
  -7.230  0.7303E+01  0.7366E+01  0.9804E+01
  -7.220  0.7479E+01  0.8211E+01  0.9957E+01
  -7.210  0.7429E+01  0.8460E+01  0.1011E+02
  -7.200  0.7407E+01  0.8495E+01  0.1027E+02
  -7.190  0.7283E+01  0.8405E+01  0.1043E+02
  -7.180  0.7156E+01  0.8211E+01  0.1059E+02
  -7.170  0.7148E+01  0.7914E+01  0.1074E+02
  -7.160  0.7348E+01  0.7539E+01  0.1089E+02
  -7.150  0.7661E+01  0.7310E+01  0.1104E+02
  -7.140  0.7856E+01  0.7290E+01  0.1119E+02
  -7.130  0.8085E+01  0.7467E+01  0.1134E+02
  -7.120  0.1170E+02  0.7867E+01  0.1151E+02
  -7.110  0.1068E+02  0.8424E+01  0.1171E+02
  -7.100  0.7942E+01  0.8851E+01  0.1189E+02
  -7.090  0.9909E+01  0.1043E+02  0.1207E+02
  -7.080  0.1189E+02  0.1208E+02  0.1230E+02
  -7.070  0.1370E+02  0.1235E+02  0.1255E+02
  -7.060  0.1488E+02  0.1184E+02  0.1281E+02
  -7.050  0.1523E+02  0.1098E+02  0.1308E+02
  -7.040  0.1389E+02  0.1123E+02  0.1334E+02
  -7.030  0.1074E+02  0.1141E+02  0.1358E+02
  -7.020  0.8430E+01  0.1163E+02  0.1378E+02
  -7.010  0.8928E+01  0.1200E+02  0.1399E+02
  -7.000  0.9423E+01  0.1196E+02  0.1420E+02
  -6.990  0.8906E+01  0.1178E+02  0.1441E+02
  -6.980  0.1278E+02  0.1087E+02  0.1462E+02
  -6.970  0.1081E+02  0.9513E+01  0.1486E+02
  -6.960  0.1165E+02  0.1061E+02  0.1507E+02
  -6.950  0.1247E+02  0.1173E+02  0.1530E+02
  -6.940  0.1321E+02  0.1245E+02  0.1555E+02
  -6.930  0.1386E+02  0.1273E+02  0.1581E+02
  -6.920  0.1454E+02  0.1258E+02  0.1608E+02
  -6.910  0.1555E+02  0.1284E+02  0.1636E+02
  -6.900  0.1905E+02  0.1318E+02  0.1666E+02
  -6.890  0.2240E+02  0.1414E+02  0.1700E+02
  -6.880  0.2794E+02  0.1691E+02  0.1741E+02
  -6.870  0.2674E+02  0.2130E+02  0.1786E+02
  -6.860  0.2702E+02  0.2339E+02  0.1836E+02
  -6.850  0.2555E+02  0.2568E+02  0.1887E+02
  -6.840  0.2141E+02  0.2583E+02  0.1938E+02
  -6.830  0.1685E+02  0.2315E+02  0.1981E+02
  -6.820  0.1284E+02  0.2188E+02  0.2019E+02
  -6.810  0.1053E+02  0.2039E+02  0.2051E+02
  -6.800  0.1172E+02  0.1856E+02  0.2082E+02
  -6.790  0.1528E+02  0.1677E+02  0.2113E+02
  -6.780  0.2283E+02  0.1634E+02  0.2148E+02
  -6.770  0.2403E+02  0.2017E+02  0.2191E+02
  -6.760  0.2056E+02  0.2084E+02  0.2233E+02
  -6.750  0.1770E+02  0.1845E+02  0.2272E+02
  -6.740  0.1529E+02  0.1649E+02  0.2306E+02
  -6.730  0.1543E+02  0.1497E+02  0.2337E+02
  -6.720  0.2062E+02  0.1397E+02  0.2372E+02
  -6.710  0.2169E+02  0.1358E+02  0.2411E+02
  -6.700  0.2809E+02  0.1421E+02  0.2448E+02
  -6.690  0.4591E+02  0.2365E+02  0.2510E+02
  -6.680  0.3837E+02  0.2802E+02  0.2577E+02
  -6.670  0.3551E+02  0.2475E+02  0.2642E+02
  -6.660  0.3305E+02  0.3084E+02  0.2701E+02
  -6.650  0.2971E+02  0.3466E+02  0.2766E+02
  -6.640  0.2713E+02  0.3915E+02  0.2833E+02
  -6.630  0.2975E+02  0.3459E+02  0.2897E+02
  -6.620  0.3824E+02  0.3097E+02  0.2964E+02
  -6.610  0.5143E+02  0.2983E+02  0.3040E+02
  -6.600  0.4847E+02  0.3976E+02  0.3128E+02
  -6.590  0.4241E+02  0.4431E+02  0.3215E+02
  -6.580  0.3144E+02  0.4652E+02  0.3297E+02
  -6.570  0.3063E+02  0.4553E+02  0.3373E+02
  -6.560  0.4402E+02  0.3945E+02  0.3452E+02
  -6.550  0.4595E+02  0.4155E+02  0.3538E+02
  -6.540  0.4660E+02  0.4451E+02  0.3628E+02
  -6.530  0.4429E+02  0.4214E+02  0.3717E+02
  -6.520  0.4348E+02  0.4465E+02  0.3804E+02
  -6.510  0.4647E+02  0.4971E+02  0.3895E+02
  -6.500  0.4804E+02  0.5066E+02  0.3994E+02
  -6.490  0.5059E+02  0.4894E+02  0.4093E+02
  -6.480  0.5270E+02  0.4847E+02  0.4193E+02
  -6.470  0.5475E+02  0.5275E+02  0.4299E+02
  -6.460  0.5644E+02  0.5843E+02  0.4415E+02
  -6.450  0.5130E+02  0.8831E+02  0.4541E+02
  -6.440  0.4786E+02  0.6690E+02  0.4671E+02
  -6.430  0.4795E+02  0.5713E+02  0.4781E+02
  -6.420  0.5108E+02  0.5331E+02  0.4885E+02
  -6.410  0.6684E+02  0.4567E+02  0.4993E+02
  -6.400  0.7990E+02  0.5948E+02  0.5126E+02
  -6.390  0.7100E+02  0.8055E+02  0.5269E+02
  -6.380  0.5813E+02  0.8080E+02  0.5422E+02
  -6.370  0.4151E+02  0.5618E+02  0.5532E+02
  -6.360  0.4942E+02  0.5081E+02  0.5631E+02
  -6.350  0.5937E+02  0.4398E+02  0.5732E+02
  -6.340  0.6379E+02  0.5024E+02  0.5841E+02
  -6.330  0.5103E+02  0.5565E+02  0.5958E+02
  -6.320  0.6066E+02  0.5255E+02  0.6067E+02
  -6.310  0.7040E+02  0.6270E+02  0.6193E+02
  -6.300  0.6779E+02  0.1046E+03  0.6348E+02
  -6.290  0.7449E+02  0.1018E+03  0.6520E+02
  -6.280  0.7898E+02  0.8456E+02  0.6686E+02
  -6.270  0.6880E+02  0.8309E+02  0.6847E+02
  -6.260  0.5047E+02  0.7051E+02  0.6984E+02
  -6.250  0.3675E+02  0.4979E+02  0.7087E+02
  -6.240  0.3896E+02  0.3881E+02  0.7159E+02
  -6.230  0.5212E-02  0.1196E+00  0.7200E+02
  -6.220  0.0000E+00  0.0000E+00  0.7200E+02
  -6.210  0.0000E+00  0.0000E+00  0.7200E+02
  -6.200  0.0000E+00  0.0000E+00  0.7200E+02
  -6.190  0.0000E+00  0.0000E+00  0.7200E+02
  -6.180  0.0000E+00  0.0000E+00  0.7200E+02
  -6.170  0.0000E+00  0.0000E+00  0.7200E+02
  -6.160  0.0000E+00  0.0000E+00  0.7200E+02
  -6.150  0.0000E+00  0.0000E+00  0.7200E+02
  -6.140  0.0000E+00  0.0000E+00  0.7200E+02
  -6.130  0.0000E+00  0.0000E+00  0.7200E+02
  -6.120  0.0000E+00  0.0000E+00  0.7200E+02
  -6.110  0.0000E+00  0.0000E+00  0.7200E+02
  -6.100  0.0000E+00  0.0000E+00  0.7200E+02
  -6.090  0.0000E+00  0.0000E+00  0.7200E+02
  -6.080  0.0000E+00  0.0000E+00  0.7200E+02
  -6.070  0.0000E+00  0.0000E+00  0.7200E+02
  -6.060  0.0000E+00  0.0000E+00  0.7200E+02
  -6.050  0.0000E+00  0.0000E+00  0.7200E+02
  -6.040  0.0000E+00  0.0000E+00  0.7200E+02
  -6.030  0.0000E+00  0.0000E+00  0.7200E+02
  -6.020  0.0000E+00  0.0000E+00  0.7200E+02
  -6.010  0.0000E+00  0.0000E+00  0.7200E+02
  -6.000  0.0000E+00  0.0000E+00  0.7200E+02
  -5.990  0.0000E+00  0.0000E+00  0.7200E+02
  -5.980  0.0000E+00  0.0000E+00  0.7200E+02
  -5.970  0.0000E+00  0.0000E+00  0.7200E+02
  -5.960  0.0000E+00  0.0000E+00  0.7200E+02
  -5.950  0.0000E+00  0.0000E+00  0.7200E+02
  -5.940  0.0000E+00  0.0000E+00  0.7200E+02
  -5.930  0.0000E+00  0.0000E+00  0.7200E+02
  -5.920  0.0000E+00  0.0000E+00  0.7200E+02
  -5.910  0.0000E+00  0.0000E+00  0.7200E+02
  -5.900  0.0000E+00  0.0000E+00  0.7200E+02
  -5.890  0.0000E+00  0.0000E+00  0.7200E+02
  -5.880  0.0000E+00  0.0000E+00  0.7200E+02
  -5.870  0.0000E+00  0.0000E+00  0.7200E+02
  -5.860  0.0000E+00  0.0000E+00  0.7200E+02
  -5.850  0.0000E+00  0.0000E+00  0.7200E+02
  -5.840  0.0000E+00  0.0000E+00  0.7200E+02
  -5.830  0.0000E+00  0.0000E+00  0.7200E+02
  -5.820  0.0000E+00  0.0000E+00  0.7200E+02
  -5.810  0.0000E+00  0.0000E+00  0.7200E+02
  -5.800  0.0000E+00  0.0000E+00  0.7200E+02
  -5.790  0.0000E+00  0.0000E+00  0.7200E+02
  -5.780  0.0000E+00  0.0000E+00  0.7200E+02
  -5.770  0.0000E+00  0.0000E+00  0.7200E+02
  -5.760  0.0000E+00  0.0000E+00  0.7200E+02
  -5.750  0.0000E+00  0.0000E+00  0.7200E+02
  -5.740  0.0000E+00  0.0000E+00  0.7200E+02
  -5.730  0.0000E+00  0.0000E+00  0.7200E+02
  -5.720  0.0000E+00  0.0000E+00  0.7200E+02
  -5.710  0.0000E+00  0.0000E+00  0.7200E+02
  -5.700  0.0000E+00  0.0000E+00  0.7200E+02
  -5.690  0.0000E+00  0.0000E+00  0.7200E+02
  -5.680  0.0000E+00  0.0000E+00  0.7200E+02
  -5.670  0.0000E+00  0.0000E+00  0.7200E+02
  -5.660  0.0000E+00  0.0000E+00  0.7200E+02
  -5.650  0.0000E+00  0.0000E+00  0.7200E+02
  -5.640  0.0000E+00  0.0000E+00  0.7200E+02
  -5.630  0.0000E+00  0.0000E+00  0.7200E+02
  -5.620  0.0000E+00  0.0000E+00  0.7200E+02
  -5.610  0.0000E+00  0.0000E+00  0.7200E+02
  -5.600  0.0000E+00  0.0000E+00  0.7200E+02
  -5.590  0.0000E+00  0.0000E+00  0.7200E+02
  -5.580  0.0000E+00  0.0000E+00  0.7200E+02
  -5.570  0.0000E+00  0.0000E+00  0.7200E+02
  -5.560  0.0000E+00  0.0000E+00  0.7200E+02
  -5.550  0.0000E+00  0.0000E+00  0.7200E+02
  -5.540  0.0000E+00  0.0000E+00  0.7200E+02
  -5.530  0.0000E+00  0.0000E+00  0.7200E+02
  -5.520  0.0000E+00  0.0000E+00  0.7200E+02
  -5.510  0.0000E+00  0.0000E+00  0.7200E+02
  -5.500  0.0000E+00  0.0000E+00  0.7200E+02
  -5.490  0.0000E+00  0.0000E+00  0.7200E+02
  -5.480  0.0000E+00  0.0000E+00  0.7200E+02
  -5.470  0.0000E+00  0.0000E+00  0.7200E+02
  -5.460  0.0000E+00  0.0000E+00  0.7200E+02
  -5.450  0.0000E+00  0.0000E+00  0.7200E+02
  -5.440  0.0000E+00  0.0000E+00  0.7200E+02
  -5.430  0.0000E+00  0.0000E+00  0.7200E+02
  -5.420  0.0000E+00  0.0000E+00  0.7200E+02
  -5.410  0.0000E+00  0.0000E+00  0.7200E+02
  -5.400  0.0000E+00  0.0000E+00  0.7200E+02
  -5.390  0.0000E+00  0.0000E+00  0.7200E+02
  -5.380  0.0000E+00  0.0000E+00  0.7200E+02
  -5.370  0.0000E+00  0.0000E+00  0.7200E+02
  -5.360  0.0000E+00  0.0000E+00  0.7200E+02
  -5.350  0.0000E+00  0.0000E+00  0.7200E+02
  -5.340  0.0000E+00  0.0000E+00  0.7200E+02
  -5.330  0.0000E+00  0.0000E+00  0.7200E+02
  -5.320  0.0000E+00  0.0000E+00  0.7200E+02
  -5.310  0.0000E+00  0.0000E+00  0.7200E+02
  -5.300  0.0000E+00  0.0000E+00  0.7200E+02
  -5.290  0.0000E+00  0.0000E+00  0.7200E+02
  -5.280  0.0000E+00  0.0000E+00  0.7200E+02
  -5.270  0.0000E+00  0.0000E+00  0.7200E+02
  -5.260  0.0000E+00  0.0000E+00  0.7200E+02
  -5.250  0.0000E+00  0.0000E+00  0.7200E+02
  -5.240  0.0000E+00  0.0000E+00  0.7200E+02
  -5.230  0.0000E+00  0.0000E+00  0.7200E+02
  -5.220  0.0000E+00  0.0000E+00  0.7200E+02
  -5.210  0.0000E+00  0.0000E+00  0.7200E+02
  -5.200  0.0000E+00  0.0000E+00  0.7200E+02
  -5.190  0.0000E+00  0.0000E+00  0.7200E+02
  -5.180  0.0000E+00  0.0000E+00  0.7200E+02
  -5.170  0.0000E+00  0.0000E+00  0.7200E+02
  -5.160  0.0000E+00  0.0000E+00  0.7200E+02
  -5.150  0.0000E+00  0.0000E+00  0.7200E+02
  -5.140  0.0000E+00  0.0000E+00  0.7200E+02
  -5.130  0.0000E+00  0.0000E+00  0.7200E+02
  -5.120  0.0000E+00  0.0000E+00  0.7200E+02
  -5.110  0.0000E+00  0.0000E+00  0.7200E+02
  -5.100  0.0000E+00  0.0000E+00  0.7200E+02
  -5.090  0.0000E+00  0.0000E+00  0.7200E+02
  -5.080  0.0000E+00  0.0000E+00  0.7200E+02
  -5.070  0.0000E+00  0.0000E+00  0.7200E+02
  -5.060  0.0000E+00  0.0000E+00  0.7200E+02
  -5.050  0.0000E+00  0.0000E+00  0.7200E+02
  -5.040  0.0000E+00  0.0000E+00  0.7200E+02
  -5.030  0.0000E+00  0.0000E+00  0.7200E+02
  -5.020  0.0000E+00  0.0000E+00  0.7200E+02
  -5.010  0.0000E+00  0.0000E+00  0.7200E+02
  -5.000  0.0000E+00  0.0000E+00  0.7200E+02
  -4.990  0.0000E+00  0.0000E+00  0.7200E+02
  -4.980  0.0000E+00  0.0000E+00  0.7200E+02
  -4.970  0.0000E+00  0.0000E+00  0.7200E+02
  -4.960  0.0000E+00  0.0000E+00  0.7200E+02
  -4.950  0.0000E+00  0.0000E+00  0.7200E+02
  -4.940  0.0000E+00  0.0000E+00  0.7200E+02
  -4.930  0.0000E+00  0.0000E+00  0.7200E+02
  -4.920  0.0000E+00  0.0000E+00  0.7200E+02
  -4.910  0.0000E+00  0.0000E+00  0.7200E+02
  -4.900  0.0000E+00  0.0000E+00  0.7200E+02
  -4.890  0.0000E+00  0.0000E+00  0.7200E+02
  -4.880  0.0000E+00  0.0000E+00  0.7200E+02
  -4.870  0.0000E+00  0.0000E+00  0.7200E+02
  -4.860  0.0000E+00  0.0000E+00  0.7200E+02
  -4.850  0.0000E+00  0.0000E+00  0.7200E+02
  -4.840  0.0000E+00  0.0000E+00  0.7200E+02
  -4.830  0.0000E+00  0.0000E+00  0.7200E+02
  -4.820  0.0000E+00  0.0000E+00  0.7200E+02
  -4.810  0.0000E+00  0.0000E+00  0.7200E+02
  -4.800  0.0000E+00  0.0000E+00  0.7200E+02
  -4.790  0.0000E+00  0.0000E+00  0.7200E+02
  -4.780  0.0000E+00  0.0000E+00  0.7200E+02
  -4.770  0.0000E+00  0.0000E+00  0.7200E+02
  -4.760  0.0000E+00  0.0000E+00  0.7200E+02
  -4.750  0.0000E+00  0.0000E+00  0.7200E+02
  -4.740  0.0000E+00  0.0000E+00  0.7200E+02
  -4.730  0.0000E+00  0.0000E+00  0.7200E+02
  -4.720  0.0000E+00  0.0000E+00  0.7200E+02
  -4.710  0.0000E+00  0.0000E+00  0.7200E+02
  -4.700  0.0000E+00  0.0000E+00  0.7200E+02
  -4.690  0.0000E+00  0.0000E+00  0.7200E+02
  -4.680  0.0000E+00  0.0000E+00  0.7200E+02
  -4.670  0.0000E+00  0.0000E+00  0.7200E+02
  -4.660  0.0000E+00  0.0000E+00  0.7200E+02
  -4.650  0.0000E+00  0.0000E+00  0.7200E+02
  -4.640  0.0000E+00  0.0000E+00  0.7200E+02
  -4.630  0.0000E+00  0.0000E+00  0.7200E+02
  -4.620  0.0000E+00  0.0000E+00  0.7200E+02
  -4.610  0.0000E+00  0.0000E+00  0.7200E+02
  -4.600  0.0000E+00  0.0000E+00  0.7200E+02
  -4.590  0.0000E+00  0.0000E+00  0.7200E+02
  -4.580  0.0000E+00  0.0000E+00  0.7200E+02
  -4.570  0.0000E+00  0.0000E+00  0.7200E+02
  -4.560  0.0000E+00  0.0000E+00  0.7200E+02
  -4.550  0.0000E+00  0.0000E+00  0.7200E+02
  -4.540  0.0000E+00  0.0000E+00  0.7200E+02
  -4.530  0.0000E+00  0.0000E+00  0.7200E+02
  -4.520  0.0000E+00  0.0000E+00  0.7200E+02
  -4.510  0.0000E+00  0.0000E+00  0.7200E+02
  -4.500  0.0000E+00  0.0000E+00  0.7200E+02
  -4.490  0.0000E+00  0.0000E+00  0.7200E+02
  -4.480  0.0000E+00  0.0000E+00  0.7200E+02
  -4.470  0.0000E+00  0.0000E+00  0.7200E+02
  -4.460  0.0000E+00  0.0000E+00  0.7200E+02
  -4.450  0.0000E+00  0.0000E+00  0.7200E+02
  -4.440  0.0000E+00  0.0000E+00  0.7200E+02
  -4.430  0.0000E+00  0.0000E+00  0.7200E+02
  -4.420  0.0000E+00  0.0000E+00  0.7200E+02
  -4.410  0.0000E+00  0.0000E+00  0.7200E+02
  -4.400  0.0000E+00  0.0000E+00  0.7200E+02
  -4.390  0.0000E+00  0.0000E+00  0.7200E+02
  -4.380  0.0000E+00  0.0000E+00  0.7200E+02
  -4.370  0.0000E+00  0.0000E+00  0.7200E+02
  -4.360  0.0000E+00  0.0000E+00  0.7200E+02
  -4.350  0.0000E+00  0.0000E+00  0.7200E+02
  -4.340  0.0000E+00  0.0000E+00  0.7200E+02
  -4.330  0.0000E+00  0.0000E+00  0.7200E+02
  -4.320  0.0000E+00  0.0000E+00  0.7200E+02
  -4.310  0.0000E+00  0.0000E+00  0.7200E+02
  -4.300  0.0000E+00  0.0000E+00  0.7200E+02
  -4.290  0.0000E+00  0.0000E+00  0.7200E+02
  -4.280  0.0000E+00  0.0000E+00  0.7200E+02
  -4.270  0.0000E+00  0.0000E+00  0.7200E+02
  -4.260  0.0000E+00  0.0000E+00  0.7200E+02
  -4.250  0.0000E+00  0.0000E+00  0.7200E+02
  -4.240  0.0000E+00  0.0000E+00  0.7200E+02
  -4.230  0.0000E+00  0.0000E+00  0.7200E+02
  -4.220  0.0000E+00  0.0000E+00  0.7200E+02
  -4.210  0.0000E+00  0.0000E+00  0.7200E+02
  -4.200  0.0000E+00  0.0000E+00  0.7200E+02
  -4.190  0.0000E+00  0.0000E+00  0.7200E+02
  -4.180  0.0000E+00  0.0000E+00  0.7200E+02
  -4.170  0.0000E+00  0.0000E+00  0.7200E+02
  -4.160  0.0000E+00  0.0000E+00  0.7200E+02
  -4.150  0.0000E+00  0.0000E+00  0.7200E+02
  -4.140  0.0000E+00  0.0000E+00  0.7200E+02
  -4.130  0.0000E+00  0.0000E+00  0.7200E+02
  -4.120  0.0000E+00  0.0000E+00  0.7200E+02
  -4.110  0.0000E+00  0.0000E+00  0.7200E+02
  -4.100  0.0000E+00  0.0000E+00  0.7200E+02
  -4.090  0.0000E+00  0.0000E+00  0.7200E+02
  -4.080  0.0000E+00  0.0000E+00  0.7200E+02
  -4.070  0.0000E+00  0.0000E+00  0.7200E+02
  -4.060  0.0000E+00  0.0000E+00  0.7200E+02
  -4.050  0.0000E+00  0.0000E+00  0.7200E+02
  -4.040  0.0000E+00  0.0000E+00  0.7200E+02
  -4.030  0.0000E+00  0.0000E+00  0.7200E+02
  -4.020  0.0000E+00  0.0000E+00  0.7200E+02
  -4.010  0.0000E+00  0.0000E+00  0.7200E+02
  -4.000  0.0000E+00  0.0000E+00  0.7200E+02
  -3.990  0.0000E+00  0.0000E+00  0.7200E+02
  -3.980  0.0000E+00  0.0000E+00  0.7200E+02
  -3.970  0.0000E+00  0.0000E+00  0.7200E+02
  -3.960  0.0000E+00  0.0000E+00  0.7200E+02
  -3.950  0.0000E+00  0.0000E+00  0.7200E+02
  -3.940  0.0000E+00  0.0000E+00  0.7200E+02
  -3.930  0.0000E+00  0.0000E+00  0.7200E+02
  -3.920  0.0000E+00  0.0000E+00  0.7200E+02
  -3.910  0.0000E+00  0.0000E+00  0.7200E+02
  -3.900  0.0000E+00  0.0000E+00  0.7200E+02
  -3.890  0.0000E+00  0.0000E+00  0.7200E+02
  -3.880  0.0000E+00  0.0000E+00  0.7200E+02
  -3.870  0.0000E+00  0.0000E+00  0.7200E+02
  -3.860  0.0000E+00  0.0000E+00  0.7200E+02
  -3.850  0.0000E+00  0.0000E+00  0.7200E+02
  -3.840  0.0000E+00  0.0000E+00  0.7200E+02
  -3.830  0.0000E+00  0.0000E+00  0.7200E+02
  -3.820  0.0000E+00  0.0000E+00  0.7200E+02
  -3.810  0.0000E+00  0.0000E+00  0.7200E+02
  -3.800  0.0000E+00  0.0000E+00  0.7200E+02
  -3.790  0.0000E+00  0.0000E+00  0.7200E+02
  -3.780  0.0000E+00  0.0000E+00  0.7200E+02
  -3.770  0.0000E+00  0.0000E+00  0.7200E+02
  -3.760  0.0000E+00  0.0000E+00  0.7200E+02
  -3.750  0.0000E+00  0.0000E+00  0.7200E+02
  -3.740  0.0000E+00  0.0000E+00  0.7200E+02
  -3.730  0.0000E+00  0.0000E+00  0.7200E+02
  -3.720  0.0000E+00  0.0000E+00  0.7200E+02
  -3.710  0.0000E+00  0.0000E+00  0.7200E+02
  -3.700  0.0000E+00  0.0000E+00  0.7200E+02
  -3.690  0.0000E+00  0.0000E+00  0.7200E+02
  -3.680  0.0000E+00  0.0000E+00  0.7200E+02
  -3.670  0.0000E+00  0.0000E+00  0.7200E+02
  -3.660  0.0000E+00  0.0000E+00  0.7200E+02
  -3.650  0.0000E+00  0.0000E+00  0.7200E+02
  -3.640  0.0000E+00  0.0000E+00  0.7200E+02
  -3.630  0.0000E+00  0.0000E+00  0.7200E+02
  -3.620  0.0000E+00  0.0000E+00  0.7200E+02
  -3.610  0.0000E+00  0.0000E+00  0.7200E+02
  -3.600  0.0000E+00  0.0000E+00  0.7200E+02
  -3.590  0.0000E+00  0.0000E+00  0.7200E+02
  -3.580  0.0000E+00  0.0000E+00  0.7200E+02
  -3.570  0.0000E+00  0.0000E+00  0.7200E+02
  -3.560  0.0000E+00  0.0000E+00  0.7200E+02
  -3.550  0.0000E+00  0.0000E+00  0.7200E+02
  -3.540  0.0000E+00  0.0000E+00  0.7200E+02
  -3.530  0.0000E+00  0.0000E+00  0.7200E+02
  -3.520  0.0000E+00  0.0000E+00  0.7200E+02
  -3.510  0.0000E+00  0.0000E+00  0.7200E+02
  -3.500  0.0000E+00  0.0000E+00  0.7200E+02
  -3.490  0.0000E+00  0.0000E+00  0.7200E+02
  -3.480  0.0000E+00  0.0000E+00  0.7200E+02
  -3.470  0.0000E+00  0.0000E+00  0.7200E+02
  -3.460  0.0000E+00  0.0000E+00  0.7200E+02
  -3.450  0.0000E+00  0.0000E+00  0.7200E+02
  -3.440  0.0000E+00  0.0000E+00  0.7200E+02
  -3.430  0.0000E+00  0.0000E+00  0.7200E+02
  -3.420  0.0000E+00  0.0000E+00  0.7200E+02
  -3.410  0.0000E+00  0.0000E+00  0.7200E+02
  -3.400  0.0000E+00  0.0000E+00  0.7200E+02
  -3.390  0.0000E+00  0.0000E+00  0.7200E+02
  -3.380  0.0000E+00  0.0000E+00  0.7200E+02
  -3.370  0.0000E+00  0.0000E+00  0.7200E+02
  -3.360  0.0000E+00  0.0000E+00  0.7200E+02
  -3.350  0.0000E+00  0.0000E+00  0.7200E+02
  -3.340  0.0000E+00  0.0000E+00  0.7200E+02
  -3.330  0.0000E+00  0.0000E+00  0.7200E+02
  -3.320  0.0000E+00  0.0000E+00  0.7200E+02
  -3.310  0.0000E+00  0.0000E+00  0.7200E+02
  -3.300  0.0000E+00  0.0000E+00  0.7200E+02
  -3.290  0.0000E+00  0.0000E+00  0.7200E+02
  -3.280  0.0000E+00  0.0000E+00  0.7200E+02
  -3.270  0.0000E+00  0.0000E+00  0.7200E+02
  -3.260  0.0000E+00  0.0000E+00  0.7200E+02
  -3.250  0.0000E+00  0.0000E+00  0.7200E+02
  -3.240  0.0000E+00  0.0000E+00  0.7200E+02
  -3.230  0.0000E+00  0.0000E+00  0.7200E+02
  -3.220  0.0000E+00  0.0000E+00  0.7200E+02
  -3.210  0.0000E+00  0.0000E+00  0.7200E+02
  -3.200  0.0000E+00  0.0000E+00  0.7200E+02
  -3.190  0.0000E+00  0.0000E+00  0.7200E+02
  -3.180  0.0000E+00  0.0000E+00  0.7200E+02
  -3.170  0.0000E+00  0.0000E+00  0.7200E+02
  -3.160  0.0000E+00  0.0000E+00  0.7200E+02
  -3.150  0.0000E+00  0.0000E+00  0.7200E+02
  -3.140  0.0000E+00  0.0000E+00  0.7200E+02
  -3.130  0.0000E+00  0.0000E+00  0.7200E+02
  -3.120  0.0000E+00  0.0000E+00  0.7200E+02
  -3.110  0.0000E+00  0.0000E+00  0.7200E+02
  -3.100  0.0000E+00  0.0000E+00  0.7200E+02
  -3.090  0.0000E+00  0.0000E+00  0.7200E+02
  -3.080  0.0000E+00  0.0000E+00  0.7200E+02
  -3.070  0.0000E+00  0.0000E+00  0.7200E+02
  -3.060  0.0000E+00  0.0000E+00  0.7200E+02
  -3.050  0.0000E+00  0.0000E+00  0.7200E+02
  -3.040  0.0000E+00  0.0000E+00  0.7200E+02
  -3.030  0.0000E+00  0.0000E+00  0.7200E+02
  -3.020  0.0000E+00  0.0000E+00  0.7200E+02
  -3.010  0.0000E+00  0.0000E+00  0.7200E+02
  -3.000  0.0000E+00  0.0000E+00  0.7200E+02
  -2.990  0.0000E+00  0.0000E+00  0.7200E+02
  -2.980  0.0000E+00  0.0000E+00  0.7200E+02
  -2.970  0.0000E+00  0.0000E+00  0.7200E+02
  -2.960  0.0000E+00  0.0000E+00  0.7200E+02
  -2.950  0.0000E+00  0.0000E+00  0.7200E+02
  -2.940  0.0000E+00  0.0000E+00  0.7200E+02
  -2.930  0.0000E+00  0.0000E+00  0.7200E+02
  -2.920  0.0000E+00  0.0000E+00  0.7200E+02
  -2.910  0.0000E+00  0.0000E+00  0.7200E+02
  -2.900  0.0000E+00  0.0000E+00  0.7200E+02
  -2.890  0.0000E+00  0.0000E+00  0.7200E+02
  -2.880  0.0000E+00  0.0000E+00  0.7200E+02
  -2.870  0.0000E+00  0.0000E+00  0.7200E+02
  -2.860  0.0000E+00  0.0000E+00  0.7200E+02
  -2.850  0.0000E+00  0.0000E+00  0.7200E+02
  -2.840  0.0000E+00  0.0000E+00  0.7200E+02
  -2.830  0.0000E+00  0.0000E+00  0.7200E+02
  -2.820  0.0000E+00  0.0000E+00  0.7200E+02
  -2.810  0.0000E+00  0.0000E+00  0.7200E+02
  -2.800  0.0000E+00  0.0000E+00  0.7200E+02
  -2.790  0.0000E+00  0.0000E+00  0.7200E+02
  -2.780  0.0000E+00  0.0000E+00  0.7200E+02
  -2.770  0.0000E+00  0.0000E+00  0.7200E+02
  -2.760  0.0000E+00  0.0000E+00  0.7200E+02
  -2.750  0.0000E+00  0.0000E+00  0.7200E+02
  -2.740  0.0000E+00  0.0000E+00  0.7200E+02
  -2.730  0.0000E+00  0.0000E+00  0.7200E+02
  -2.720  0.0000E+00  0.0000E+00  0.7200E+02
  -2.710  0.0000E+00  0.0000E+00  0.7200E+02
  -2.700  0.0000E+00  0.0000E+00  0.7200E+02
  -2.690  0.0000E+00  0.0000E+00  0.7200E+02
  -2.680  0.0000E+00  0.0000E+00  0.7200E+02
  -2.670  0.0000E+00  0.0000E+00  0.7200E+02
  -2.660  0.0000E+00  0.0000E+00  0.7200E+02
  -2.650  0.0000E+00  0.0000E+00  0.7200E+02
  -2.640  0.0000E+00  0.0000E+00  0.7200E+02
  -2.630  0.0000E+00  0.0000E+00  0.7200E+02
  -2.620  0.0000E+00  0.0000E+00  0.7200E+02
  -2.610  0.0000E+00  0.0000E+00  0.7200E+02
  -2.600  0.0000E+00  0.0000E+00  0.7200E+02
  -2.590  0.0000E+00  0.0000E+00  0.7200E+02
  -2.580  0.0000E+00  0.0000E+00  0.7200E+02
  -2.570  0.0000E+00  0.0000E+00  0.7200E+02
  -2.560  0.0000E+00  0.0000E+00  0.7200E+02
  -2.550  0.0000E+00  0.0000E+00  0.7200E+02
  -2.540  0.0000E+00  0.0000E+00  0.7200E+02
  -2.530  0.0000E+00  0.0000E+00  0.7200E+02
  -2.520  0.0000E+00  0.0000E+00  0.7200E+02
  -2.510  0.0000E+00  0.0000E+00  0.7200E+02
  -2.500  0.0000E+00  0.0000E+00  0.7200E+02
  -2.490  0.0000E+00  0.0000E+00  0.7200E+02
  -2.480  0.0000E+00  0.0000E+00  0.7200E+02
  -2.470  0.0000E+00  0.0000E+00  0.7200E+02
  -2.460  0.0000E+00  0.0000E+00  0.7200E+02
  -2.450  0.0000E+00  0.0000E+00  0.7200E+02
  -2.440  0.0000E+00  0.0000E+00  0.7200E+02
  -2.430  0.0000E+00  0.0000E+00  0.7200E+02
  -2.420  0.0000E+00  0.0000E+00  0.7200E+02
  -2.410  0.0000E+00  0.0000E+00  0.7200E+02
  -2.400  0.0000E+00  0.0000E+00  0.7200E+02
  -2.390  0.0000E+00  0.0000E+00  0.7200E+02
  -2.380  0.0000E+00  0.0000E+00  0.7200E+02
  -2.370  0.0000E+00  0.0000E+00  0.7200E+02
  -2.360  0.0000E+00  0.0000E+00  0.7200E+02
  -2.350  0.0000E+00  0.0000E+00  0.7200E+02
  -2.340  0.0000E+00  0.0000E+00  0.7200E+02
  -2.330  0.0000E+00  0.0000E+00  0.7200E+02
  -2.320  0.0000E+00  0.0000E+00  0.7200E+02
  -2.310  0.0000E+00  0.0000E+00  0.7200E+02
  -2.300  0.0000E+00  0.0000E+00  0.7200E+02
  -2.290  0.0000E+00  0.0000E+00  0.7200E+02
  -2.280  0.0000E+00  0.0000E+00  0.7200E+02
  -2.270  0.0000E+00  0.0000E+00  0.7200E+02
  -2.260  0.0000E+00  0.0000E+00  0.7200E+02
  -2.250  0.0000E+00  0.0000E+00  0.7200E+02
  -2.240  0.0000E+00  0.0000E+00  0.7200E+02
  -2.230  0.0000E+00  0.0000E+00  0.7200E+02
  -2.220  0.0000E+00  0.0000E+00  0.7200E+02
  -2.210  0.0000E+00  0.0000E+00  0.7200E+02
  -2.200  0.0000E+00  0.0000E+00  0.7200E+02
  -2.190  0.0000E+00  0.0000E+00  0.7200E+02
  -2.180  0.0000E+00  0.0000E+00  0.7200E+02
  -2.170  0.0000E+00  0.0000E+00  0.7200E+02
  -2.160  0.0000E+00  0.0000E+00  0.7200E+02
  -2.150  0.0000E+00  0.0000E+00  0.7200E+02
  -2.140  0.0000E+00  0.0000E+00  0.7200E+02
  -2.130  0.0000E+00  0.0000E+00  0.7200E+02
  -2.120  0.0000E+00  0.0000E+00  0.7200E+02
  -2.110  0.0000E+00  0.0000E+00  0.7200E+02
  -2.100  0.0000E+00  0.0000E+00  0.7200E+02
  -2.090  0.0000E+00  0.0000E+00  0.7200E+02
  -2.080  0.0000E+00  0.0000E+00  0.7200E+02
  -2.070  0.0000E+00  0.0000E+00  0.7200E+02
  -2.060  0.0000E+00  0.0000E+00  0.7200E+02
  -2.050  0.0000E+00  0.0000E+00  0.7200E+02
  -2.040  0.0000E+00  0.0000E+00  0.7200E+02
  -2.030  0.0000E+00  0.0000E+00  0.7200E+02
  -2.020  0.0000E+00  0.0000E+00  0.7200E+02
  -2.010  0.0000E+00  0.0000E+00  0.7200E+02
  -2.000  0.0000E+00  0.0000E+00  0.7200E+02
  -1.990  0.0000E+00  0.0000E+00  0.7200E+02
  -1.980  0.0000E+00  0.0000E+00  0.7200E+02
  -1.970  0.0000E+00  0.0000E+00  0.7200E+02
  -1.960  0.0000E+00  0.0000E+00  0.7200E+02
  -1.950  0.0000E+00  0.0000E+00  0.7200E+02
  -1.940  0.0000E+00  0.0000E+00  0.7200E+02
  -1.930  0.0000E+00  0.0000E+00  0.7200E+02
  -1.920  0.0000E+00  0.0000E+00  0.7200E+02
  -1.910  0.0000E+00  0.0000E+00  0.7200E+02
  -1.900  0.0000E+00  0.0000E+00  0.7200E+02
  -1.890  0.0000E+00  0.0000E+00  0.7200E+02
  -1.880  0.0000E+00  0.0000E+00  0.7200E+02
  -1.870  0.0000E+00  0.0000E+00  0.7200E+02
  -1.860  0.0000E+00  0.0000E+00  0.7200E+02
  -1.850  0.0000E+00  0.0000E+00  0.7200E+02
  -1.840  0.0000E+00  0.0000E+00  0.7200E+02
  -1.830  0.0000E+00  0.0000E+00  0.7200E+02
  -1.820  0.0000E+00  0.0000E+00  0.7200E+02
  -1.810  0.0000E+00  0.0000E+00  0.7200E+02
  -1.800  0.0000E+00  0.0000E+00  0.7200E+02
  -1.790  0.0000E+00  0.0000E+00  0.7200E+02
  -1.780  0.0000E+00  0.0000E+00  0.7200E+02
  -1.770  0.0000E+00  0.0000E+00  0.7200E+02
  -1.760  0.0000E+00  0.0000E+00  0.7200E+02
  -1.750  0.0000E+00  0.0000E+00  0.7200E+02
  -1.740  0.0000E+00  0.0000E+00  0.7200E+02
  -1.730  0.0000E+00  0.0000E+00  0.7200E+02
  -1.720  0.0000E+00  0.0000E+00  0.7200E+02
  -1.710  0.0000E+00  0.0000E+00  0.7200E+02
  -1.700  0.0000E+00  0.0000E+00  0.7200E+02
  -1.690  0.0000E+00  0.0000E+00  0.7200E+02
  -1.680  0.0000E+00  0.0000E+00  0.7200E+02
  -1.670  0.0000E+00  0.0000E+00  0.7200E+02
  -1.660  0.0000E+00  0.0000E+00  0.7200E+02
  -1.650  0.0000E+00  0.0000E+00  0.7200E+02
  -1.640  0.0000E+00  0.0000E+00  0.7200E+02
  -1.630  0.0000E+00  0.0000E+00  0.7200E+02
  -1.620  0.0000E+00  0.0000E+00  0.7200E+02
  -1.610  0.0000E+00  0.0000E+00  0.7200E+02
  -1.600  0.0000E+00  0.0000E+00  0.7200E+02
  -1.590  0.0000E+00  0.0000E+00  0.7200E+02
  -1.580  0.0000E+00  0.0000E+00  0.7200E+02
  -1.570  0.0000E+00  0.0000E+00  0.7200E+02
  -1.560  0.0000E+00  0.0000E+00  0.7200E+02
  -1.550  0.0000E+00  0.0000E+00  0.7200E+02
  -1.540  0.0000E+00  0.0000E+00  0.7200E+02
  -1.530  0.0000E+00  0.0000E+00  0.7200E+02
  -1.520  0.0000E+00  0.0000E+00  0.7200E+02
  -1.510  0.0000E+00  0.0000E+00  0.7200E+02
  -1.500  0.0000E+00  0.0000E+00  0.7200E+02
  -1.490  0.0000E+00  0.0000E+00  0.7200E+02
  -1.480  0.0000E+00  0.0000E+00  0.7200E+02
  -1.470  0.0000E+00  0.0000E+00  0.7200E+02
  -1.460  0.0000E+00  0.0000E+00  0.7200E+02
  -1.450  0.0000E+00  0.0000E+00  0.7200E+02
  -1.440  0.0000E+00  0.0000E+00  0.7200E+02
  -1.430  0.0000E+00  0.0000E+00  0.7200E+02
  -1.420  0.0000E+00  0.0000E+00  0.7200E+02
  -1.410  0.0000E+00  0.0000E+00  0.7200E+02
  -1.400  0.0000E+00  0.0000E+00  0.7200E+02
  -1.390  0.0000E+00  0.0000E+00  0.7200E+02
  -1.380  0.0000E+00  0.0000E+00  0.7200E+02
  -1.370  0.0000E+00  0.0000E+00  0.7200E+02
  -1.360  0.0000E+00  0.0000E+00  0.7200E+02
  -1.350  0.0000E+00  0.0000E+00  0.7200E+02
  -1.340  0.0000E+00  0.0000E+00  0.7200E+02
  -1.330  0.0000E+00  0.0000E+00  0.7200E+02
  -1.320  0.0000E+00  0.0000E+00  0.7200E+02
  -1.310  0.0000E+00  0.0000E+00  0.7200E+02
  -1.300  0.0000E+00  0.0000E+00  0.7200E+02
  -1.290  0.0000E+00  0.0000E+00  0.7200E+02
  -1.280  0.0000E+00  0.0000E+00  0.7200E+02
  -1.270  0.0000E+00  0.0000E+00  0.7200E+02
  -1.260  0.0000E+00  0.0000E+00  0.7200E+02
  -1.250  0.0000E+00  0.0000E+00  0.7200E+02
  -1.240  0.0000E+00  0.0000E+00  0.7200E+02
  -1.230  0.0000E+00  0.0000E+00  0.7200E+02
  -1.220  0.0000E+00  0.0000E+00  0.7200E+02
  -1.210  0.0000E+00  0.0000E+00  0.7200E+02
  -1.200  0.0000E+00  0.0000E+00  0.7200E+02
  -1.190  0.0000E+00  0.0000E+00  0.7200E+02
  -1.180  0.0000E+00  0.0000E+00  0.7200E+02
  -1.170  0.0000E+00  0.0000E+00  0.7200E+02
  -1.160  0.0000E+00  0.0000E+00  0.7200E+02
  -1.150  0.0000E+00  0.0000E+00  0.7200E+02
  -1.140  0.0000E+00  0.0000E+00  0.7200E+02
  -1.130  0.0000E+00  0.0000E+00  0.7200E+02
  -1.120  0.0000E+00  0.0000E+00  0.7200E+02
  -1.110  0.0000E+00  0.0000E+00  0.7200E+02
  -1.100  0.0000E+00  0.0000E+00  0.7200E+02
  -1.090  0.0000E+00  0.0000E+00  0.7200E+02
  -1.080  0.0000E+00  0.0000E+00  0.7200E+02
  -1.070  0.0000E+00  0.0000E+00  0.7200E+02
  -1.060  0.0000E+00  0.0000E+00  0.7200E+02
  -1.050  0.0000E+00  0.0000E+00  0.7200E+02
  -1.040  0.0000E+00  0.0000E+00  0.7200E+02
  -1.030  0.0000E+00  0.0000E+00  0.7200E+02
  -1.020  0.0000E+00  0.0000E+00  0.7200E+02
  -1.010  0.0000E+00  0.0000E+00  0.7200E+02
  -1.000  0.0000E+00  0.0000E+00  0.7200E+02
  -0.990  0.0000E+00  0.0000E+00  0.7200E+02
  -0.980  0.0000E+00  0.0000E+00  0.7200E+02
  -0.970  0.0000E+00  0.0000E+00  0.7200E+02
  -0.960  0.0000E+00  0.0000E+00  0.7200E+02
  -0.950  0.0000E+00  0.0000E+00  0.7200E+02
  -0.940  0.0000E+00  0.0000E+00  0.7200E+02
  -0.930  0.0000E+00  0.0000E+00  0.7200E+02
  -0.920  0.0000E+00  0.0000E+00  0.7200E+02
  -0.910  0.0000E+00  0.0000E+00  0.7200E+02
  -0.900  0.0000E+00  0.0000E+00  0.7200E+02
  -0.890  0.0000E+00  0.0000E+00  0.7200E+02
  -0.880  0.0000E+00  0.0000E+00  0.7200E+02
  -0.870  0.0000E+00  0.0000E+00  0.7200E+02
  -0.860  0.0000E+00  0.0000E+00  0.7200E+02
  -0.850  0.0000E+00  0.0000E+00  0.7200E+02
  -0.840  0.0000E+00  0.0000E+00  0.7200E+02
  -0.830  0.0000E+00  0.0000E+00  0.7200E+02
  -0.820  0.0000E+00  0.0000E+00  0.7200E+02
  -0.810  0.0000E+00  0.0000E+00  0.7200E+02
  -0.800  0.0000E+00  0.0000E+00  0.7200E+02
  -0.790  0.0000E+00  0.0000E+00  0.7200E+02
  -0.780  0.0000E+00  0.0000E+00  0.7200E+02
  -0.770  0.0000E+00  0.0000E+00  0.7200E+02
  -0.760  0.0000E+00  0.0000E+00  0.7200E+02
  -0.750  0.0000E+00  0.0000E+00  0.7200E+02
  -0.740  0.0000E+00  0.0000E+00  0.7200E+02
  -0.730  0.0000E+00  0.0000E+00  0.7200E+02
  -0.720  0.0000E+00  0.0000E+00  0.7200E+02
  -0.710  0.0000E+00  0.0000E+00  0.7200E+02
  -0.700  0.1019E-02  0.0000E+00  0.7200E+02
  -0.690  0.6814E+01  0.1911E+00  0.7202E+02
  -0.680  0.2438E+02  0.1227E+02  0.7222E+02
  -0.670  0.7377E+02  0.5057E+02  0.7300E+02
  -0.660  0.1257E+03  0.1082E+03  0.7480E+02
  -0.650  0.1406E+03  0.1420E+03  0.7745E+02
  -0.640  0.1805E+03  0.1527E+03  0.8042E+02
  -0.630  0.1767E+03  0.1822E+03  0.8402E+02
  -0.620  0.1950E+03  0.1962E+03  0.8775E+02
  -0.610  0.1756E+03  0.2049E+03  0.9176E+02
  -0.600  0.1779E+03  0.1554E+03  0.9524E+02
  -0.590  0.1978E+03  0.1568E+03  0.9850E+02
  -0.580  0.2816E+03  0.3210E+03  0.1034E+03
  -0.570  0.2967E+03  0.2795E+03  0.1093E+03
  -0.560  0.3359E+03  0.2977E+03  0.1152E+03
  -0.550  0.4576E+03  0.4363E+03  0.1230E+03
  -0.540  0.3764E+03  0.4374E+03  0.1317E+03
  -0.530  0.4853E+03  0.5882E+03  0.1408E+03
  -0.520  0.4466E+03  0.4092E+03  0.1504E+03
  -0.510  0.3520E+03  0.4989E+03  0.1591E+03
  -0.500  0.2103E+03  0.4371E+03  0.1658E+03
  -0.490  0.2048E+03  0.2125E+03  0.1708E+03
  -0.480  0.3118E+03  0.2493E+03  0.1752E+03
  -0.470  0.1689E+03  0.2216E+03  0.1804E+03
  -0.460  0.2250E+03  0.1641E+03  0.1839E+03
  -0.450  0.1846E+03  0.1607E+03  0.1877E+03
  -0.440  0.2038E+03  0.1800E+03  0.1915E+03
  -0.430  0.1523E+03  0.1890E+03  0.1958E+03
  -0.420  0.1839E+03  0.1324E+03  0.1987E+03
  -0.410  0.2038E+03  0.2032E+03  0.2029E+03
  -0.400  0.1352E+03  0.1916E+03  0.2063E+03
  -0.390  0.2075E+03  0.2035E+03  0.2093E+03
  -0.380  0.9471E+02  0.1438E+03  0.2125E+03
  -0.370  0.1703E+03  0.1612E+03  0.2152E+03
  -0.360  0.1449E+03  0.1354E+03  0.2184E+03
  -0.350  0.1356E+03  0.1327E+03  0.2210E+03
  -0.340  0.1467E+03  0.1529E+03  0.2239E+03
  -0.330  0.1303E+03  0.1188E+03  0.2265E+03
  -0.320  0.9067E+02  0.9957E+02  0.2289E+03
  -0.310  0.9134E+02  0.8579E+02  0.2306E+03
  -0.300  0.8374E+02  0.6856E+02  0.2322E+03
  -0.290  0.1066E+03  0.9943E+02  0.2341E+03
  -0.280  0.1674E+03  0.1368E+03  0.2366E+03
  -0.270  0.1344E+03  0.1340E+03  0.2396E+03
  -0.260  0.1318E+03  0.1226E+03  0.2421E+03
  -0.250  0.1217E+03  0.1437E+03  0.2449E+03
  -0.240  0.1525E+03  0.1718E+03  0.2479E+03
  -0.230  0.2714E+03  0.1499E+03  0.2512E+03
  -0.220  0.1047E+03  0.1655E+03  0.2549E+03
  -0.210  0.1359E+03  0.7016E+03  0.2601E+03
  -0.200  0.2009E+03  0.1812E+03  0.2642E+03
  -0.190  0.2413E+03  0.4115E+03  0.2714E+03
  -0.180  0.2644E+03  0.2937E+03  0.2776E+03
  -0.170  0.3274E+03  0.5817E+03  0.2842E+03
  -0.160  0.3652E+03  0.3761E+03  0.2928E+03
  -0.150  0.3977E+03  0.4112E+03  0.3002E+03
  -0.140  0.4041E+03  0.3887E+03  0.3090E+03
  -0.130  0.4376E+03  0.4373E+03  0.3194E+03
  -0.120  0.5869E+03  0.4211E+03  0.3278E+03
  -0.110  0.5357E+03  0.5580E+03  0.3368E+03
  -0.100  0.2530E+03  0.2887E+03  0.3430E+03
  -0.090  0.1468E+03  0.1748E+03  0.3485E+03
  -0.080  0.7647E+02  0.7690E+02  0.3504E+03
  -0.070  0.6598E+02  0.7151E+02  0.3518E+03
  -0.060  0.7555E+02  0.7260E+02  0.3533E+03
  -0.050  0.7621E+02  0.7899E+02  0.3549E+03
  -0.040  0.7387E+02  0.7375E+02  0.3564E+03
  -0.030  0.5584E+02  0.6397E+02  0.3578E+03
  -0.020  0.4399E+02  0.4761E+02  0.3588E+03
  -0.010  0.4542E+02  0.4367E+02  0.3597E+03
   0.000  0.7157E+02  0.5566E+02  0.3607E+03
   0.010  0.9345E+02  0.8666E+02  0.3622E+03
   0.020  0.3099E+02  0.7566E+02  0.3640E+03
   0.030  0.6571E+02  0.2126E+02  0.3647E+03
   0.040  0.5998E+02  0.7506E+02  0.3659E+03
   0.050  0.6383E+02  0.6270E+02  0.3671E+03
   0.060  0.6202E+02  0.6960E+02  0.3685E+03
   0.070  0.6663E+02  0.7876E+02  0.3698E+03
   0.080  0.6065E+02  0.4872E+02  0.3709E+03
   0.090  0.6283E+02  0.6504E+02  0.3722E+03
   0.100  0.6249E+02  0.5792E+02  0.3734E+03
   0.110  0.5137E+02  0.5496E+02  0.3746E+03
   0.120  0.5632E+02  0.5484E+02  0.3756E+03
   0.130  0.8251E+02  0.8537E+02  0.3771E+03
   0.140  0.6636E+02  0.7274E+02  0.3787E+03
   0.150  0.5136E+02  0.6034E+02  0.3799E+03
   0.160  0.3125E+02  0.3668E+02  0.3808E+03
   0.170  0.1809E+02  0.2099E+02  0.3813E+03
   0.180  0.1492E+02  0.1367E+02  0.3817E+03
   0.190  0.5573E+01  0.6337E+01  0.3819E+03
   0.200  0.2259E+01  0.2710E+01  0.3820E+03
   0.210  0.4265E+00  0.6087E+00  0.3820E+03
   0.220  0.1118E-02  0.6192E-02  0.3820E+03
   0.230  0.0000E+00  0.0000E+00  0.3820E+03
   0.240  0.0000E+00  0.0000E+00  0.3820E+03
   0.250  0.0000E+00  0.0000E+00  0.3820E+03
   0.260  0.0000E+00  0.0000E+00  0.3820E+03
   0.270  0.0000E+00  0.0000E+00  0.3820E+03
   0.280  0.0000E+00  0.0000E+00  0.3820E+03
   0.290  0.0000E+00  0.0000E+00  0.3820E+03
   0.300  0.0000E+00  0.0000E+00  0.3820E+03
   0.310  0.0000E+00  0.0000E+00  0.3820E+03
   0.320  0.0000E+00  0.0000E+00  0.3820E+03
   0.330  0.0000E+00  0.0000E+00  0.3820E+03
   0.340  0.0000E+00  0.0000E+00  0.3820E+03
   0.350  0.0000E+00  0.0000E+00  0.3820E+03
   0.360  0.0000E+00  0.0000E+00  0.3820E+03
   0.370  0.5740E-03  0.0000E+00  0.3820E+03
   0.380  0.6932E-02  0.2294E-03  0.3820E+03
   0.390  0.2537E-01  0.4375E-02  0.3820E+03
   0.400  0.5652E-01  0.1888E-01  0.3820E+03
   0.410  0.1011E+00  0.4535E-01  0.3820E+03
   0.420  0.1597E+00  0.8383E-01  0.3820E+03
   0.430  0.2321E+00  0.1348E+00  0.3820E+03
   0.440  0.3184E+00  0.1991E+00  0.3820E+03
   0.450  0.4187E+00  0.2765E+00  0.3820E+03
   0.460  0.5329E+00  0.3671E+00  0.3820E+03
   0.470  0.6610E+00  0.4710E+00  0.3820E+03
   0.480  0.8030E+00  0.5881E+00  0.3820E+03
   0.490  0.9668E+00  0.7184E+00  0.3821E+03
   0.500  0.1317E+01  0.8628E+00  0.3821E+03
   0.510  0.1911E+01  0.1095E+01  0.3821E+03
   0.520  0.2747E+01  0.1593E+01  0.3821E+03
   0.530  0.3680E+01  0.2177E+01  0.3822E+03
   0.540  0.4267E+01  0.3062E+01  0.3823E+03
   0.550  0.4514E+01  0.3860E+01  0.3823E+03
   0.560  0.4424E+01  0.4318E+01  0.3824E+03
   0.570  0.4010E+01  0.4443E+01  0.3825E+03
   0.580  0.3664E+01  0.4237E+01  0.3826E+03
   0.590  0.3832E+01  0.3755E+01  0.3827E+03
   0.600  0.4096E+01  0.3591E+01  0.3827E+03
   0.610  0.4358E+01  0.3807E+01  0.3828E+03
   0.620  0.4641E+01  0.4058E+01  0.3829E+03
   0.630  0.4940E+01  0.4304E+01  0.3830E+03
   0.640  0.5254E+01  0.4571E+01  0.3831E+03
   0.650  0.5585E+01  0.4853E+01  0.3832E+03
   0.660  0.5934E+01  0.5151E+01  0.3833E+03
   0.670  0.6299E+01  0.5465E+01  0.3834E+03
   0.680  0.6655E+01  0.5796E+01  0.3835E+03
   0.690  0.7012E+01  0.6139E+01  0.3837E+03
   0.700  0.7608E+01  0.6465E+01  0.3838E+03
   0.710  0.8604E+01  0.6814E+01  0.3840E+03
   0.720  0.1003E+02  0.7476E+01  0.3841E+03
   0.730  0.1172E+02  0.8597E+01  0.3843E+03
   0.740  0.1281E+02  0.1011E+02  0.3845E+03
   0.750  0.1314E+02  0.1145E+02  0.3848E+03
   0.760  0.1338E+02  0.1217E+02  0.3850E+03
   0.770  0.1380E+02  0.1241E+02  0.3853E+03
   0.780  0.1393E+02  0.1252E+02  0.3855E+03
   0.790  0.1348E+02  0.1289E+02  0.3858E+03
   0.800  0.1351E+02  0.1321E+02  0.3861E+03
   0.810  0.1360E+02  0.1291E+02  0.3863E+03
   0.820  0.1370E+02  0.1248E+02  0.3866E+03
   0.830  0.1378E+02  0.1266E+02  0.3869E+03
   0.840  0.1384E+02  0.1282E+02  0.3871E+03
   0.850  0.1388E+02  0.1295E+02  0.3874E+03
   0.860  0.1390E+02  0.1307E+02  0.3877E+03
   0.870  0.1389E+02  0.1318E+02  0.3879E+03
   0.880  0.1385E+02  0.1328E+02  0.3882E+03
   0.890  0.1374E+02  0.1336E+02  0.3885E+03
   0.900  0.1358E+02  0.1344E+02  0.3887E+03
   0.910  0.1343E+02  0.1350E+02  0.3890E+03
   0.920  0.1329E+02  0.1355E+02  0.3893E+03
   0.930  0.1600E+02  0.1412E+02  0.3896E+03
   0.940  0.1828E+02  0.1510E+02  0.3899E+03
   0.950  0.2012E+02  0.1673E+02  0.3902E+03
   0.960  0.1848E+02  0.1917E+02  0.3906E+03
   0.970  0.2079E+02  0.2020E+02  0.3910E+03
   0.980  0.3005E+02  0.2028E+02  0.3915E+03
   0.990  0.3103E+02  0.1964E+02  0.3920E+03
   1.000  0.3189E+02  0.2406E+02  0.3925E+03
   1.010  0.3675E+02  0.2941E+02  0.3931E+03
   1.020  0.3934E+02  0.3360E+02  0.3938E+03
   1.030  0.3673E+02  0.3771E+02  0.3946E+03
   1.040  0.4414E+02  0.3724E+02  0.3954E+03
   1.050  0.3583E+02  0.3553E+02  0.3962E+03
   1.060  0.3274E+02  0.3533E+02  0.3969E+03
   1.070  0.6641E+02  0.4278E+02  0.3977E+03
   1.080  0.6330E+02  0.4949E+02  0.3989E+03
   1.090  0.7088E+02  0.6942E+02  0.4001E+03
   1.100  0.7003E+02  0.5935E+02  0.4015E+03
   1.110  0.5021E+02  0.6814E+02  0.4027E+03
   1.120  0.3703E+02  0.5108E+02  0.4037E+03
   1.130  0.2688E+02  0.5344E+02  0.4046E+03
   1.140  0.8365E+01  0.3400E+02  0.4052E+03
   1.150  0.1229E+02  0.3075E+02  0.4056E+03
   1.160  0.1764E+02  0.2736E+02  0.4060E+03
   1.170  0.1693E+02  0.8439E+01  0.4064E+03
   1.180  0.2194E+02  0.8349E+01  0.4066E+03
   1.190  0.3912E+02  0.1517E+02  0.4071E+03
   1.200  0.4853E+02  0.2309E+02  0.4077E+03
   1.210  0.4857E+02  0.2870E+02  0.4085E+03
   1.220  0.4715E+02  0.3032E+02  0.4092E+03
   1.230  0.3676E+02  0.2997E+02  0.4100E+03
   1.240  0.3147E+02  0.2836E+02  0.4106E+03
   1.250  0.3024E+02  0.2914E+02  0.4112E+03
   1.260  0.2924E+02  0.3059E+02  0.4118E+03
   1.270  0.2778E+02  0.3124E+02  0.4124E+03
   1.280  0.2583E+02  0.3057E+02  0.4130E+03
   1.290  0.2349E+02  0.2877E+02  0.4135E+03
   1.300  0.2236E+02  0.2631E+02  0.4140E+03
   1.310  0.1997E+02  0.2408E+02  0.4145E+03
   1.320  0.1806E+02  0.2379E+02  0.4149E+03
   1.330  0.1627E+02  0.2451E+02  0.4153E+03
   1.340  0.1415E+02  0.2600E+02  0.4157E+03
   1.350  0.1278E+02  0.2773E+02  0.4161E+03
   1.360  0.1185E+02  0.2551E+02  0.4165E+03
   1.370  0.1162E+02  0.2175E+02  0.4169E+03
   1.380  0.1176E+02  0.1866E+02  0.4172E+03
   1.390  0.1215E+02  0.1625E+02  0.4175E+03
   1.400  0.1281E+02  0.1451E+02  0.4177E+03
   1.410  0.1378E+02  0.1332E+02  0.4180E+03
   1.420  0.1560E+02  0.1248E+02  0.4183E+03
   1.430  0.1829E+02  0.1179E+02  0.4186E+03
   1.440  0.2028E+02  0.1144E+02  0.4189E+03
   1.450  0.2435E+02  0.1153E+02  0.4192E+03
   1.460  0.1767E+02  0.1168E+02  0.4196E+03
   1.470  0.1396E+02  0.1211E+02  0.4198E+03
   1.480  0.1508E+02  0.1298E+02  0.4201E+03
   1.490  0.1573E+02  0.1386E+02  0.4204E+03
   1.500  0.1565E+02  0.1456E+02  0.4207E+03
   1.510  0.1483E+02  0.1509E+02  0.4210E+03
   1.520  0.1329E+02  0.1550E+02  0.4213E+03
   1.530  0.1143E+02  0.1573E+02  0.4216E+03
   1.540  0.1048E+02  0.1576E+02  0.4218E+03
   1.550  0.1010E+02  0.1557E+02  0.4221E+03
   1.560  0.1046E+02  0.1515E+02  0.4224E+03
   1.570  0.1095E+02  0.1447E+02  0.4226E+03
   1.580  0.1155E+02  0.1358E+02  0.4229E+03
   1.590  0.1228E+02  0.1248E+02  0.4231E+03
   1.600  0.1284E+02  0.1162E+02  0.4234E+03
   1.610  0.1512E+02  0.1120E+02  0.4236E+03
   1.620  0.1282E+02  0.1104E+02  0.4239E+03
   1.630  0.1056E+02  0.1097E+02  0.4241E+03
   1.640  0.9012E+01  0.1087E+02  0.4243E+03
   1.650  0.8018E+01  0.1080E+02  0.4245E+03
   1.660  0.7742E+01  0.1101E+02  0.4247E+03
   1.670  0.8384E+01  0.1052E+02  0.4249E+03
   1.680  0.7955E+01  0.1146E+02  0.4251E+03
   1.690  0.9209E+01  0.1137E+02  0.4253E+03
   1.700  0.8932E+01  0.1103E+02  0.4255E+03
   1.710  0.8389E+01  0.1047E+02  0.4257E+03
   1.720  0.7745E+01  0.9641E+01  0.4259E+03
   1.730  0.7705E+01  0.9033E+01  0.4260E+03
   1.740  0.9262E+01  0.9283E+01  0.4262E+03
   1.750  0.1353E+02  0.9258E+01  0.4264E+03
   1.760  0.1296E+02  0.8277E+01  0.4266E+03
   1.770  0.1477E+02  0.6744E+01  0.4268E+03
   1.780  0.1705E+02  0.5226E+01  0.4271E+03
   1.790  0.1905E+02  0.4823E+01  0.4273E+03
   1.800  0.2416E+02  0.5127E+01  0.4276E+03
   1.810  0.2756E+02  0.5433E+01  0.4279E+03
   1.820  0.1617E+02  0.5798E+01  0.4281E+03
   1.830  0.1279E+02  0.6264E+01  0.4284E+03
   1.840  0.1074E+02  0.6834E+01  0.4285E+03
   1.850  0.1019E+02  0.7400E+01  0.4287E+03
   1.860  0.9805E+01  0.7964E+01  0.4289E+03
   1.870  0.9779E+01  0.8514E+01  0.4291E+03
   1.880  0.1014E+02  0.9012E+01  0.4293E+03
   1.890  0.1063E+02  0.9538E+01  0.4294E+03
   1.900  0.1139E+02  0.1010E+02  0.4297E+03
   1.910  0.1171E+02  0.1052E+02  0.4299E+03
   1.920  0.1026E+02  0.1079E+02  0.4301E+03
   1.930  0.8572E+01  0.1091E+02  0.4303E+03
   1.940  0.9718E+01  0.1087E+02  0.4305E+03
   1.950  0.8522E+01  0.1069E+02  0.4307E+03
   1.960  0.8052E+01  0.1038E+02  0.4309E+03
   1.970  0.7843E+01  0.9996E+01  0.4311E+03
   1.980  0.7744E+01  0.9589E+01  0.4312E+03
   1.990  0.7513E+01  0.9181E+01  0.4314E+03
   2.000  0.7343E+01  0.8847E+01  0.4316E+03
   2.010  0.7139E+01  0.8535E+01  0.4317E+03
   2.020  0.6951E+01  0.8251E+01  0.4319E+03
   2.030  0.6781E+01  0.8044E+01  0.4320E+03
   2.040  0.6626E+01  0.7872E+01  0.4322E+03
   2.050  0.6485E+01  0.7727E+01  0.4323E+03
   2.060  0.6359E+01  0.7630E+01  0.4325E+03
   2.070  0.6248E+01  0.7571E+01  0.4326E+03
   2.080  0.6227E+01  0.7548E+01  0.4327E+03
   2.090  0.6244E+01  0.7581E+01  0.4329E+03
   2.100  0.6396E+01  0.7606E+01  0.4330E+03
   2.110  0.6702E+01  0.7640E+01  0.4332E+03
   2.120  0.7813E+01  0.7683E+01  0.4333E+03
   2.130  0.9415E+01  0.7784E+01  0.4335E+03
   2.140  0.7895E+01  0.7830E+01  0.4336E+03
   2.150  0.8248E+01  0.7814E+01  0.4338E+03
   2.160  0.9030E+01  0.7736E+01  0.4340E+03
   2.170  0.9466E+01  0.7597E+01  0.4341E+03
   2.180  0.9489E+01  0.7396E+01  0.4343E+03
   2.190  0.9392E+01  0.7130E+01  0.4345E+03
   2.200  0.9270E+01  0.6771E+01  0.4346E+03
   2.210  0.9126E+01  0.6346E+01  0.4348E+03
   2.220  0.8990E+01  0.5182E+01  0.4349E+03
   2.230  0.8892E+01  0.5658E+01  0.4351E+03
   2.240  0.8583E+01  0.7992E+01  0.4352E+03
   2.250  0.8290E+01  0.6141E+01  0.4354E+03
   2.260  0.8196E+01  0.6252E+01  0.4355E+03
   2.270  0.8227E+01  0.6339E+01  0.4357E+03
   2.280  0.8621E+01  0.6418E+01  0.4358E+03
   2.290  0.9076E+01  0.6501E+01  0.4360E+03
   2.300  0.9638E+01  0.6573E+01  0.4361E+03
   2.310  0.1079E+02  0.6628E+01  0.4363E+03
   2.320  0.1193E+02  0.6645E+01  0.4365E+03
   2.330  0.1319E+02  0.6621E+01  0.4367E+03
   2.340  0.1382E+02  0.6599E+01  0.4369E+03
   2.350  0.1376E+02  0.6647E+01  0.4371E+03
   2.360  0.1300E+02  0.6693E+01  0.4373E+03
   2.370  0.1150E+02  0.6717E+01  0.4375E+03
   2.380  0.1024E+02  0.6719E+01  0.4376E+03
   2.390  0.1028E+02  0.6700E+01  0.4378E+03
   2.400  0.1267E+02  0.6658E+01  0.4380E+03
   2.410  0.1620E+02  0.6595E+01  0.4382E+03
   2.420  0.1917E+02  0.6510E+01  0.4385E+03
   2.430  0.2020E+02  0.6416E+01  0.4387E+03
   2.440  0.1928E+02  0.6314E+01  0.4390E+03
   2.450  0.1644E+02  0.6185E+01  0.4392E+03
   2.460  0.1268E+02  0.6761E+01  0.4394E+03
   2.470  0.1052E+02  0.7300E+01  0.4396E+03
   2.480  0.9399E+01  0.7778E+01  0.4398E+03
   2.490  0.9099E+01  0.8123E+01  0.4400E+03
   2.500  0.9752E+01  0.8315E+01  0.4401E+03
   2.510  0.1045E+02  0.8513E+01  0.4403E+03
   2.520  0.1108E+02  0.8837E+01  0.4405E+03
   2.530  0.1170E+02  0.9199E+01  0.4407E+03
   2.540  0.1239E+02  0.9646E+01  0.4409E+03
   2.550  0.1262E+02  0.1014E+02  0.4412E+03
   2.560  0.1183E+02  0.1074E+02  0.4414E+03
   2.570  0.1944E+02  0.1133E+02  0.4416E+03
   2.580  0.1249E+02  0.1191E+02  0.4419E+03
   2.590  0.1418E+02  0.1249E+02  0.4421E+03
   2.600  0.1499E+02  0.1301E+02  0.4424E+03
   2.610  0.1513E+02  0.1352E+02  0.4427E+03
   2.620  0.1485E+02  0.1403E+02  0.4430E+03
   2.630  0.1484E+02  0.1516E+02  0.4433E+03
   2.640  0.1474E+02  0.1927E+02  0.4436E+03
   2.650  0.1473E+02  0.1602E+02  0.4439E+03
   2.660  0.1491E+02  0.1645E+02  0.4442E+03
   2.670  0.1514E+02  0.1751E+02  0.4445E+03
   2.680  0.1549E+02  0.1945E+02  0.4449E+03
   2.690  0.1674E+02  0.2171E+02  0.4452E+03
   2.700  0.1803E+02  0.2325E+02  0.4456E+03
   2.710  0.1933E+02  0.2418E+02  0.4461E+03
   2.720  0.2082E+02  0.2647E+02  0.4465E+03
   2.730  0.2147E+02  0.2869E+02  0.4470E+03
   2.740  0.2202E+02  0.3103E+02  0.4475E+03
   2.750  0.2255E+02  0.3373E+02  0.4481E+03
   2.760  0.2303E+02  0.3863E+02  0.4486E+03
   2.770  0.2317E+02  0.4261E+02  0.4493E+03
   2.780  0.2543E+02  0.2672E+02  0.4499E+03
   2.790  0.3297E+02  0.2027E+02  0.4504E+03
   2.800  0.2276E+02  0.1844E+02  0.4509E+03
   2.810  0.2039E+02  0.1665E+02  0.4513E+03
   2.820  0.1887E+02  0.1515E+02  0.4516E+03
   2.830  0.2481E+02  0.1396E+02  0.4520E+03
   2.840  0.2010E+02  0.2804E+02  0.4524E+03
   2.850  0.2302E+02  0.2665E+02  0.4529E+03
   2.860  0.2544E+02  0.2953E+02  0.4534E+03
   2.870  0.3248E+02  0.3149E+02  0.4541E+03
   2.880  0.2748E+02  0.2665E+02  0.4547E+03
   2.890  0.2295E+02  0.1796E+02  0.4552E+03
   2.900  0.2241E+02  0.1775E+02  0.4556E+03
   2.910  0.2006E+02  0.2243E+02  0.4560E+03
   2.920  0.2127E+02  0.2225E+02  0.4564E+03
   2.930  0.2211E+02  0.2276E+02  0.4568E+03
   2.940  0.1482E+02  0.2008E+02  0.4572E+03
   2.950  0.1178E+02  0.1771E+02  0.4576E+03
   2.960  0.1128E+02  0.1575E+02  0.4578E+03
   2.970  0.1291E+02  0.1916E+02  0.4581E+03
   2.980  0.1408E+02  0.2163E+02  0.4585E+03
   2.990  0.1509E+02  0.2385E+02  0.4588E+03
   3.000  0.1528E+02  0.2542E+02  0.4592E+03
   3.010  0.1522E+02  0.2608E+02  0.4597E+03
   3.020  0.1500E+02  0.2603E+02  0.4601E+03
   3.030  0.1540E+02  0.2542E+02  0.4605E+03
   3.040  0.1694E+02  0.2455E+02  0.4609E+03
   3.050  0.1905E+02  0.2331E+02  0.4613E+03
   3.060  0.2096E+02  0.2191E+02  0.4617E+03
   3.070  0.2216E+02  0.2088E+02  0.4622E+03
   3.080  0.2340E+02  0.2127E+02  0.4626E+03
   3.090  0.2458E+02  0.2023E+02  0.4631E+03
   3.100  0.2607E+02  0.2113E+02  0.4635E+03
   3.110  0.2723E+02  0.2242E+02  0.4640E+03
   3.120  0.2556E+02  0.2177E+02  0.4645E+03
   3.130  0.2739E+02  0.2219E+02  0.4650E+03
   3.140  0.3006E+02  0.2066E+02  0.4655E+03
   3.150  0.3179E+02  0.1935E+02  0.4660E+03
   3.160  0.3447E+02  0.1360E+02  0.4665E+03
   3.170  0.3318E+02  0.1276E+02  0.4669E+03
   3.180  0.3141E+02  0.1445E+02  0.4674E+03
   3.190  0.2949E+02  0.1505E+02  0.4679E+03
   3.200  0.2772E+02  0.1521E+02  0.4683E+03
   3.210  0.2469E+02  0.1553E+02  0.4687E+03
   3.220  0.2335E+02  0.1601E+02  0.4691E+03
   3.230  0.2262E+02  0.1666E+02  0.4695E+03
   3.240  0.2199E+02  0.1742E+02  0.4699E+03
   3.250  0.2172E+02  0.1829E+02  0.4703E+03
   3.260  0.2186E+02  0.2110E+02  0.4707E+03
   3.270  0.3004E+02  0.3116E+02  0.4713E+03
   3.280  0.3300E+02  0.3578E+02  0.4719E+03
   3.290  0.3076E+02  0.4728E+02  0.4727E+03
   3.300  0.2763E+02  0.4561E+02  0.4735E+03
   3.310  0.2543E+02  0.3620E+02  0.4741E+03
   3.320  0.2334E+02  0.3611E+02  0.4747E+03
   3.330  0.2047E+02  0.3123E+02  0.4753E+03
   3.340  0.2019E+02  0.2880E+02  0.4758E+03
   3.350  0.2137E+02  0.3088E+02  0.4763E+03
   3.360  0.2346E+02  0.2997E+02  0.4768E+03
   3.370  0.2494E+02  0.3111E+02  0.4774E+03
   3.380  0.2518E+02  0.3182E+02  0.4779E+03
   3.390  0.2626E+02  0.3087E+02  0.4785E+03
   3.400  0.2656E+02  0.3036E+02  0.4791E+03
   3.410  0.2699E+02  0.3039E+02  0.4796E+03
   3.420  0.2671E+02  0.3148E+02  0.4802E+03
   3.430  0.2706E+02  0.3136E+02  0.4808E+03
   3.440  0.2747E+02  0.3149E+02  0.4814E+03
   3.450  0.2780E+02  0.3222E+02  0.4820E+03
   3.460  0.2848E+02  0.3421E+02  0.4826E+03
   3.470  0.2916E+02  0.3101E+02  0.4832E+03
   3.480  0.2845E+02  0.2936E+02  0.4838E+03
   3.490  0.2825E+02  0.2966E+02  0.4844E+03
   3.500  0.2905E+02  0.2978E+02  0.4850E+03
   3.510  0.3048E+02  0.2918E+02  0.4856E+03
   3.520  0.3188E+02  0.2879E+02  0.4862E+03
   3.530  0.3282E+02  0.2876E+02  0.4868E+03
   3.540  0.3343E+02  0.2881E+02  0.4874E+03
   3.550  0.3371E+02  0.2887E+02  0.4880E+03
   3.560  0.3420E+02  0.2793E+02  0.4886E+03
   3.570  0.3443E+02  0.2836E+02  0.4893E+03
   3.580  0.3473E+02  0.2954E+02  0.4899E+03
   3.590  0.3430E+02  0.2860E+02  0.4905E+03
   3.600  0.3367E+02  0.2896E+02  0.4912E+03
   3.610  0.3287E+02  0.3040E+02  0.4918E+03
   3.620  0.3242E+02  0.3145E+02  0.4924E+03
   3.630  0.3247E+02  0.3135E+02  0.4931E+03
   3.640  0.3296E+02  0.3071E+02  0.4937E+03
   3.650  0.3347E+02  0.3002E+02  0.4943E+03
   3.660  0.3163E+02  0.2920E+02  0.4950E+03
   3.670  0.2986E+02  0.2891E+02  0.4956E+03
   3.680  0.2835E+02  0.2956E+02  0.4961E+03
   3.690  0.2935E+02  0.3656E+02  0.4968E+03
   3.700  0.2890E+02  0.3450E+02  0.4974E+03
   3.710  0.2795E+02  0.2740E+02  0.4980E+03
   3.720  0.2642E+02  0.2301E+02  0.4985E+03
   3.730  0.2714E+02  0.2196E+02  0.4990E+03
   3.740  0.2725E+02  0.2303E+02  0.4995E+03
   3.750  0.2778E+02  0.2527E+02  0.5000E+03
   3.760  0.2645E+02  0.2895E+02  0.5006E+03
   3.770  0.2535E+02  0.2904E+02  0.5011E+03
   3.780  0.2415E+02  0.3000E+02  0.5017E+03
   3.790  0.2573E+02  0.3082E+02  0.5022E+03
   3.800  0.2878E+02  0.3116E+02  0.5028E+03
   3.810  0.3170E+02  0.3246E+02  0.5034E+03
   3.820  0.3393E+02  0.3286E+02  0.5041E+03
   3.830  0.3313E+02  0.3118E+02  0.5047E+03
   3.840  0.2950E+02  0.2789E+02  0.5053E+03
   3.850  0.2993E+02  0.2694E+02  0.5059E+03
   3.860  0.4419E+02  0.2808E+02  0.5065E+03
   3.870  0.4320E+02  0.4233E+02  0.5073E+03
   3.880  0.4032E+02  0.4345E+02  0.5082E+03
   3.890  0.5330E+02  0.4334E+02  0.5090E+03
   3.900  0.4319E+02  0.4134E+02  0.5099E+03
   3.910  0.4491E+02  0.3751E+02  0.5107E+03
   3.920  0.3738E+02  0.3252E+02  0.5115E+03
   3.930  0.3384E+02  0.3589E+02  0.5122E+03
   3.940  0.2971E+02  0.3858E+02  0.5129E+03
   3.950  0.2637E+02  0.3266E+02  0.5135E+03
   3.960  0.2487E+02  0.2669E+02  0.5141E+03
   3.970  0.2264E+02  0.2452E+02  0.5146E+03
   3.980  0.2345E+02  0.2368E+02  0.5150E+03
   3.990  0.2605E+02  0.2238E+02  0.5155E+03
   4.000  0.2632E+02  0.2209E+02  0.5160E+03
   4.010  0.2479E+02  0.2242E+02  0.5165E+03
   4.020  0.2368E+02  0.2276E+02  0.5170E+03
   4.030  0.2151E+02  0.2312E+02  0.5174E+03
   4.040  0.2163E+02  0.2319E+02  0.5179E+03
   4.050  0.2225E+02  0.2336E+02  0.5183E+03
   4.060  0.2317E+02  0.2444E+02  0.5188E+03
   4.070  0.2377E+02  0.2557E+02  0.5193E+03
   4.080  0.2506E+02  0.3079E+02  0.5198E+03
   4.090  0.2609E+02  0.2898E+02  0.5204E+03
   4.100  0.2516E+02  0.2634E+02  0.5209E+03
   4.110  0.2615E+02  0.2747E+02  0.5214E+03
   4.120  0.3060E+02  0.2816E+02  0.5220E+03
   4.130  0.2978E+02  0.2857E+02  0.5226E+03
   4.140  0.2937E+02  0.2979E+02  0.5231E+03
   4.150  0.2941E+02  0.3129E+02  0.5237E+03
   4.160  0.2955E+02  0.3278E+02  0.5244E+03
   4.170  0.3038E+02  0.3392E+02  0.5250E+03
   4.180  0.3011E+02  0.3414E+02  0.5256E+03
   4.190  0.3017E+02  0.3356E+02  0.5263E+03
   4.200  0.3018E+02  0.3228E+02  0.5269E+03
   4.210  0.3181E+02  0.3138E+02  0.5275E+03
   4.220  0.3209E+02  0.3142E+02  0.5282E+03
   4.230  0.3149E+02  0.3057E+02  0.5288E+03
   4.240  0.3106E+02  0.3060E+02  0.5294E+03
   4.250  0.3139E+02  0.3087E+02  0.5300E+03
   4.260  0.3037E+02  0.3192E+02  0.5307E+03
   4.270  0.2968E+02  0.3203E+02  0.5313E+03
   4.280  0.3001E+02  0.3409E+02  0.5319E+03
   4.290  0.3019E+02  0.3337E+02  0.5325E+03
   4.300  0.3060E+02  0.3285E+02  0.5332E+03
   4.310  0.3063E+02  0.3288E+02  0.5338E+03
   4.320  0.3222E+02  0.3385E+02  0.5345E+03
   4.330  0.3154E+02  0.3383E+02  0.5351E+03
   4.340  0.3060E+02  0.3621E+02  0.5358E+03
   4.350  0.3154E+02  0.3368E+02  0.5365E+03
   4.360  0.3395E+02  0.3199E+02  0.5371E+03
   4.370  0.3582E+02  0.3098E+02  0.5378E+03
   4.380  0.3639E+02  0.3216E+02  0.5384E+03
   4.390  0.3647E+02  0.3045E+02  0.5391E+03
   4.400  0.3611E+02  0.3197E+02  0.5398E+03
   4.410  0.3534E+02  0.2979E+02  0.5405E+03
   4.420  0.3480E+02  0.2815E+02  0.5411E+03
   4.430  0.3425E+02  0.2693E+02  0.5417E+03
   4.440  0.3356E+02  0.2516E+02  0.5423E+03
   4.450  0.3256E+02  0.2338E+02  0.5429E+03
   4.460  0.3106E+02  0.2320E+02  0.5435E+03
   4.470  0.2919E+02  0.2322E+02  0.5440E+03
   4.480  0.2877E+02  0.2275E+02  0.5445E+03
   4.490  0.2635E+02  0.2194E+02  0.5450E+03
   4.500  0.2349E+02  0.2265E+02  0.5455E+03
   4.510  0.2018E+02  0.2581E+02  0.5460E+03
   4.520  0.1790E+02  0.2744E+02  0.5464E+03
   4.530  0.1941E+02  0.2580E+02  0.5469E+03
   4.540  0.1655E+02  0.2890E+02  0.5473E+03
   4.550  0.1723E+02  0.2561E+02  0.5478E+03
   4.560  0.2100E+02  0.2538E+02  0.5482E+03
   4.570  0.2567E+02  0.2793E+02  0.5487E+03
   4.580  0.2168E+02  0.2672E+02  0.5492E+03
   4.590  0.2258E+02  0.2684E+02  0.5497E+03
   4.600  0.2236E+02  0.2569E+02  0.5502E+03
   4.610  0.2480E+02  0.2568E+02  0.5507E+03
   4.620  0.2608E+02  0.2646E+02  0.5512E+03
   4.630  0.2669E+02  0.2653E+02  0.5517E+03
   4.640  0.2765E+02  0.2641E+02  0.5523E+03
   4.650  0.2791E+02  0.2757E+02  0.5528E+03
   4.660  0.2802E+02  0.2759E+02  0.5534E+03
   4.670  0.2824E+02  0.2833E+02  0.5539E+03
   4.680  0.2818E+02  0.2947E+02  0.5545E+03
   4.690  0.2812E+02  0.3046E+02  0.5551E+03
   4.700  0.2970E+02  0.2934E+02  0.5557E+03
   4.710  0.2986E+02  0.2773E+02  0.5562E+03
   4.720  0.2853E+02  0.2882E+02  0.5568E+03
   4.730  0.2937E+02  0.3121E+02  0.5574E+03
   4.740  0.2927E+02  0.3558E+02  0.5580E+03
   4.750  0.4298E+02  0.3132E+02  0.5587E+03
   4.760  0.2711E+02  0.3397E+02  0.5594E+03
   4.770  0.2603E+02  0.3758E+02  0.5600E+03
   4.780  0.3429E+02  0.2449E+02  0.5606E+03
   4.790  0.2474E+02  0.2182E+02  0.5611E+03
   4.800  0.2534E+02  0.2011E+02  0.5616E+03
   4.810  0.2548E+02  0.1883E+02  0.5620E+03
   4.820  0.2554E+02  0.1775E+02  0.5625E+03
   4.830  0.2436E+02  0.1686E+02  0.5629E+03
   4.840  0.2313E+02  0.1614E+02  0.5633E+03
   4.850  0.2271E+02  0.1560E+02  0.5637E+03
   4.860  0.3097E+02  0.1522E+02  0.5641E+03
   4.870  0.2774E+02  0.1494E+02  0.5646E+03
   4.880  0.2258E+02  0.1472E+02  0.5650E+03
   4.890  0.1966E+02  0.1448E+02  0.5653E+03
   4.900  0.1734E+02  0.1460E+02  0.5657E+03
   4.910  0.1574E+02  0.1462E+02  0.5660E+03
   4.920  0.1478E+02  0.1418E+02  0.5663E+03
   4.930  0.1424E+02  0.1328E+02  0.5665E+03
   4.940  0.1377E+02  0.1320E+02  0.5668E+03
   4.950  0.1377E+02  0.1341E+02  0.5671E+03
   4.960  0.1749E+02  0.1385E+02  0.5674E+03
   4.970  0.2019E+02  0.1843E+02  0.5677E+03
   4.980  0.2126E+02  0.1498E+02  0.5681E+03
   4.990  0.1846E+02  0.1521E+02  0.5685E+03
   5.000  0.1734E+02  0.1476E+02  0.5688E+03
   5.010  0.1606E+02  0.1447E+02  0.5691E+03
   5.020  0.1557E+02  0.1575E+02  0.5694E+03
   5.030  0.1535E+02  0.1797E+02  0.5697E+03
   5.040  0.1521E+02  0.2077E+02  0.5701E+03
   5.050  0.1539E+02  0.1743E+02  0.5704E+03
   5.060  0.1540E+02  0.1458E+02  0.5707E+03
   5.070  0.1497E+02  0.1318E+02  0.5710E+03
   5.080  0.1403E+02  0.1198E+02  0.5713E+03
   5.090  0.1295E+02  0.1122E+02  0.5716E+03
   5.100  0.1181E+02  0.1058E+02  0.5718E+03
   5.110  0.1096E+02  0.9967E+01  0.5720E+03
   5.120  0.1015E+02  0.9474E+01  0.5722E+03
   5.130  0.9364E+01  0.8805E+01  0.5724E+03
   5.140  0.8703E+01  0.8088E+01  0.5726E+03
   5.150  0.9779E+01  0.8204E+01  0.5727E+03
   5.160  0.1315E+02  0.1395E+02  0.5730E+03
   5.170  0.2198E+02  0.1720E+02  0.5733E+03
   5.180  0.2389E+02  0.1312E+02  0.5737E+03
   5.190  0.1735E+02  0.9064E+01  0.5740E+03
   5.200  0.1339E+02  0.7773E+01  0.5742E+03
   5.210  0.1214E+02  0.7243E+01  0.5744E+03
   5.220  0.1075E+02  0.6856E+01  0.5746E+03
   5.230  0.9786E+01  0.7261E+01  0.5748E+03
   5.240  0.8707E+01  0.7910E+01  0.5750E+03
   5.250  0.7893E+01  0.8574E+01  0.5751E+03
   5.260  0.7465E+01  0.9211E+01  0.5753E+03
   5.270  0.7033E+01  0.9759E+01  0.5755E+03
   5.280  0.6565E+01  0.1027E+02  0.5756E+03
   5.290  0.6059E+01  0.1083E+02  0.5758E+03
   5.300  0.5515E+01  0.1062E+02  0.5760E+03
   5.310  0.4931E+01  0.9830E+01  0.5761E+03
   5.320  0.4399E+01  0.9001E+01  0.5763E+03
   5.330  0.4528E+01  0.8161E+01  0.5764E+03
   5.340  0.5543E+01  0.7325E+01  0.5765E+03
   5.350  0.5695E+01  0.6496E+01  0.5766E+03
   5.360  0.5762E+01  0.5677E+01  0.5768E+03
   5.370  0.7441E+01  0.6070E+01  0.5769E+03
   5.380  0.1227E+02  0.5828E+01  0.5770E+03
   5.390  0.1375E+02  0.3242E+01  0.5772E+03
   5.400  0.1438E+02  0.1372E+01  0.5774E+03
   5.410  0.1489E+02  0.9785E+00  0.5775E+03
   5.420  0.1522E+02  0.6520E+00  0.5777E+03
   5.430  0.1503E+02  0.3920E+00  0.5779E+03
   5.440  0.1348E+02  0.1984E+00  0.5780E+03
   5.450  0.1216E+02  0.4346E+00  0.5781E+03
   5.460  0.1098E+02  0.3239E+01  0.5783E+03
   5.470  0.9768E+01  0.9067E+01  0.5784E+03
   5.480  0.8524E+01  0.1784E+02  0.5787E+03
   5.490  0.7247E+01  0.2695E+02  0.5790E+03
   5.500  0.5892E+01  0.2309E+02  0.5793E+03
   5.510  0.5083E+01  0.1722E+02  0.5795E+03
   5.520  0.4435E+01  0.1897E+02  0.5798E+03
   5.530  0.3890E+01  0.4620E+02  0.5802E+03
   5.540  0.3547E+01  0.1000E+02  0.5805E+03
   5.550  0.3624E+01  0.8351E+01  0.5806E+03
   5.560  0.3741E+01  0.6440E+01  0.5807E+03
   5.570  0.3619E+01  0.4346E+01  0.5808E+03
   5.580  0.3307E+01  0.2106E+01  0.5809E+03
   5.590  0.2804E+01  0.1074E+01  0.5809E+03
   5.600  0.2106E+01  0.4252E+00  0.5810E+03
   5.610  0.1210E+01  0.7337E-01  0.5810E+03
   5.620  0.4575E+00  0.0000E+00  0.5810E+03
   5.630  0.2248E+00  0.0000E+00  0.5810E+03
   5.640  0.8559E-01  0.0000E+00  0.5810E+03
   5.650  0.1386E-01  0.0000E+00  0.5810E+03
   5.660  0.1398E-02  0.0000E+00  0.5810E+03
   5.670  0.5100E-03  0.0000E+00  0.5810E+03
   5.680  0.7372E-04  0.0000E+00  0.5810E+03
   5.690  0.0000E+00  0.0000E+00  0.5810E+03
   5.700  0.0000E+00  0.0000E+00  0.5810E+03
   5.710  0.0000E+00  0.0000E+00  0.5810E+03
   5.720  0.0000E+00  0.0000E+00  0.5810E+03
   5.730  0.0000E+00  0.0000E+00  0.5810E+03
   5.740  0.0000E+00  0.0000E+00  0.5810E+03
   5.750  0.0000E+00  0.0000E+00  0.5810E+03
   5.760  0.0000E+00  0.0000E+00  0.5810E+03
   5.770  0.0000E+00  0.0000E+00  0.5810E+03
   5.780  0.0000E+00  0.0000E+00  0.5810E+03
   5.790  0.0000E+00  0.0000E+00  0.5810E+03
   5.800  0.0000E+00  0.0000E+00  0.5810E+03
   5.810  0.0000E+00  0.0000E+00  0.5810E+03
   5.820  0.0000E+00  0.0000E+00  0.5810E+03
   5.830  0.0000E+00  0.0000E+00  0.5810E+03
   5.840  0.0000E+00  0.0000E+00  0.5810E+03
   5.850  0.0000E+00  0.0000E+00  0.5810E+03
   5.860  0.0000E+00  0.0000E+00  0.5810E+03
   5.870  0.0000E+00  0.0000E+00  0.5810E+03
   5.880  0.0000E+00  0.0000E+00  0.5810E+03
   5.890  0.0000E+00  0.0000E+00  0.5810E+03
   5.900  0.0000E+00  0.0000E+00  0.5810E+03
   5.910  0.0000E+00  0.0000E+00  0.5810E+03
   5.920  0.0000E+00  0.0000E+00  0.5810E+03
   5.930  0.0000E+00  0.0000E+00  0.5810E+03
   5.940  0.0000E+00  0.0000E+00  0.5810E+03
   5.950  0.0000E+00  0.0000E+00  0.5810E+03
   5.960  0.0000E+00  0.0000E+00  0.5810E+03
   5.970  0.0000E+00  0.0000E+00  0.5810E+03
   5.980  0.0000E+00  0.0000E+00  0.5810E+03
   5.990  0.0000E+00  0.0000E+00  0.5810E+03
   6.000  0.0000E+00  0.0000E+00  0.5810E+03
   6.010  0.0000E+00  0.0000E+00  0.5810E+03
   6.020  0.0000E+00  0.0000E+00  0.5810E+03
   6.030  0.0000E+00  0.0000E+00  0.5810E+03
   6.040  0.0000E+00  0.0000E+00  0.5810E+03
   6.050  0.0000E+00  0.0000E+00  0.5810E+03
   6.060  0.0000E+00  0.0000E+00  0.5810E+03
   6.070  0.0000E+00  0.0000E+00  0.5810E+03
   6.080  0.0000E+00  0.0000E+00  0.5810E+03
   6.090  0.0000E+00  0.0000E+00  0.5810E+03
   6.100  0.0000E+00  0.0000E+00  0.5810E+03
   6.110  0.0000E+00  0.0000E+00  0.5810E+03
   6.120  0.0000E+00  0.0000E+00  0.5810E+03
   6.130  0.0000E+00  0.0000E+00  0.5810E+03
   6.140  0.0000E+00  0.0000E+00  0.5810E+03
   6.150  0.0000E+00  0.0000E+00  0.5810E+03
   6.160  0.0000E+00  0.0000E+00  0.5810E+03
   6.170  0.0000E+00  0.0000E+00  0.5810E+03
   6.180  0.0000E+00  0.0000E+00  0.5810E+03
   6.190  0.0000E+00  0.0000E+00  0.5810E+03
   6.200  0.0000E+00  0.0000E+00  0.5810E+03
   6.210  0.0000E+00  0.0000E+00  0.5810E+03
   6.220  0.0000E+00  0.0000E+00  0.5810E+03
   6.230  0.0000E+00  0.0000E+00  0.5810E+03
   6.240  0.0000E+00  0.0000E+00  0.5810E+03
   6.250  0.0000E+00  0.0000E+00  0.5810E+03
   6.260  0.0000E+00  0.0000E+00  0.5810E+03
   6.270  0.0000E+00  0.0000E+00  0.5810E+03
   6.280  0.0000E+00  0.0000E+00  0.5810E+03
   6.290  0.0000E+00  0.0000E+00  0.5810E+03
   6.300  0.0000E+00  0.0000E+00  0.5810E+03
   6.310  0.0000E+00  0.0000E+00  0.5810E+03
   6.320  0.0000E+00  0.0000E+00  0.5810E+03
   6.330  0.0000E+00  0.0000E+00  0.5810E+03
   6.340  0.0000E+00  0.0000E+00  0.5810E+03
   6.350  0.0000E+00  0.0000E+00  0.5810E+03
   6.360  0.0000E+00  0.0000E+00  0.5810E+03
   6.370  0.0000E+00  0.0000E+00  0.5810E+03
   6.380  0.0000E+00  0.0000E+00  0.5810E+03
   6.390  0.0000E+00  0.0000E+00  0.5810E+03
   6.400  0.0000E+00  0.0000E+00  0.5810E+03
   6.410  0.0000E+00  0.0000E+00  0.5810E+03
   6.420  0.0000E+00  0.0000E+00  0.5810E+03
   6.430  0.0000E+00  0.0000E+00  0.5810E+03
   6.440  0.0000E+00  0.0000E+00  0.5810E+03
   6.450  0.0000E+00  0.0000E+00  0.5810E+03
   6.460  0.0000E+00  0.0000E+00  0.5810E+03
   6.470  0.0000E+00  0.0000E+00  0.5810E+03
   6.480  0.0000E+00  0.0000E+00  0.5810E+03
   6.490  0.0000E+00  0.0000E+00  0.5810E+03
   6.500  0.0000E+00  0.0000E+00  0.5810E+03
   6.510  0.0000E+00  0.0000E+00  0.5810E+03
   6.520  0.0000E+00  0.0000E+00  0.5810E+03
   6.530  0.0000E+00  0.0000E+00  0.5810E+03
   6.540  0.0000E+00  0.1372E-01  0.5810E+03
   6.550  0.0000E+00  0.7720E+00  0.5810E+03
   6.560  0.0000E+00  0.3272E+01  0.5810E+03
   6.570  0.0000E+00  0.1097E+02  0.5811E+03
   6.580  0.0000E+00  0.2340E+02  0.5813E+03
   6.590  0.0000E+00  0.3027E+02  0.5815E+03
   6.600  0.0000E+00  0.1406E+02  0.5818E+03
   6.610  0.0000E+00  0.1805E+02  0.5819E+03
   6.620  0.0000E+00  0.2643E+02  0.5821E+03
   6.630  0.0000E+00  0.2871E+02  0.5824E+03
   6.640  0.0000E+00  0.5100E+02  0.5828E+03
   6.650  0.0000E+00  0.5582E+02  0.5834E+03
   6.660  0.0000E+00  0.1572E+02  0.5839E+03
   6.670  0.0000E+00  0.1890E+01  0.5840E+03
   6.680  0.0000E+00  0.8563E-02  0.5840E+03
   6.690  0.0000E+00  0.0000E+00  0.5840E+03
   6.700  0.0000E+00  0.0000E+00  0.5840E+03
   6.710  0.0000E+00  0.0000E+00  0.5840E+03
   6.720  0.0000E+00  0.0000E+00  0.5840E+03
   6.730  0.0000E+00  0.0000E+00  0.5840E+03
   6.740  0.0000E+00  0.0000E+00  0.5840E+03
   6.750  0.0000E+00  0.0000E+00  0.5840E+03
   6.760  0.0000E+00  0.0000E+00  0.5840E+03
   6.770  0.0000E+00  0.0000E+00  0.5840E+03
   6.780  0.0000E+00  0.0000E+00  0.5840E+03
   6.790  0.0000E+00  0.0000E+00  0.5840E+03
   6.800  0.0000E+00  0.0000E+00  0.5840E+03
   6.810  0.0000E+00  0.0000E+00  0.5840E+03
   6.820  0.0000E+00  0.0000E+00  0.5840E+03
   6.830  0.0000E+00  0.0000E+00  0.5840E+03
   6.840  0.0000E+00  0.0000E+00  0.5840E+03
   6.850  0.0000E+00  0.0000E+00  0.5840E+03
   6.860  0.0000E+00  0.0000E+00  0.5840E+03
   6.870  0.0000E+00  0.0000E+00  0.5840E+03
   6.880  0.0000E+00  0.0000E+00  0.5840E+03
   6.890  0.0000E+00  0.0000E+00  0.5840E+03
   6.900  0.0000E+00  0.0000E+00  0.5840E+03
   6.910  0.0000E+00  0.0000E+00  0.5840E+03
   6.920  0.0000E+00  0.0000E+00  0.5840E+03
   6.930  0.0000E+00  0.0000E+00  0.5840E+03
   6.940  0.0000E+00  0.0000E+00  0.5840E+03
   6.950  0.0000E+00  0.0000E+00  0.5840E+03
   6.960  0.0000E+00  0.0000E+00  0.5840E+03
   6.970  0.0000E+00  0.0000E+00  0.5840E+03
   6.980  0.0000E+00  0.0000E+00  0.5840E+03
   6.990  0.0000E+00  0.0000E+00  0.5840E+03
   7.000  0.0000E+00  0.0000E+00  0.5840E+03
   7.010  0.0000E+00  0.0000E+00  0.5840E+03
   7.020  0.0000E+00  0.0000E+00  0.5840E+03
   7.030  0.0000E+00  0.0000E+00  0.5840E+03
   7.040  0.0000E+00  0.0000E+00  0.5840E+03
   7.050  0.0000E+00  0.0000E+00  0.5840E+03
   7.060  0.0000E+00  0.0000E+00  0.5840E+03
   7.070  0.0000E+00  0.0000E+00  0.5840E+03
   7.080  0.0000E+00  0.0000E+00  0.5840E+03
   7.090  0.0000E+00  0.0000E+00  0.5840E+03
   7.100  0.0000E+00  0.0000E+00  0.5840E+03
   7.110  0.0000E+00  0.0000E+00  0.5840E+03
   7.120  0.0000E+00  0.0000E+00  0.5840E+03
   7.130  0.0000E+00  0.0000E+00  0.5840E+03
   7.140  0.0000E+00  0.0000E+00  0.5840E+03
   7.150  0.0000E+00  0.0000E+00  0.5840E+03
   7.160  0.0000E+00  0.0000E+00  0.5840E+03
   7.170  0.0000E+00  0.0000E+00  0.5840E+03
   7.180  0.0000E+00  0.0000E+00  0.5840E+03
   7.190  0.0000E+00  0.0000E+00  0.5840E+03
   7.200  0.0000E+00  0.0000E+00  0.5840E+03
   7.210  0.0000E+00  0.0000E+00  0.5840E+03
   7.220  0.0000E+00  0.0000E+00  0.5840E+03
   7.230  0.0000E+00  0.0000E+00  0.5840E+03
   7.240  0.0000E+00  0.0000E+00  0.5840E+03
   7.250  0.0000E+00  0.0000E+00  0.5840E+03
   7.260  0.0000E+00  0.0000E+00  0.5840E+03
   7.270  0.0000E+00  0.0000E+00  0.5840E+03
   7.280  0.0000E+00  0.0000E+00  0.5840E+03
   7.290  0.0000E+00  0.0000E+00  0.5840E+03
   7.300  0.0000E+00  0.0000E+00  0.5840E+03
   7.310  0.0000E+00  0.0000E+00  0.5840E+03
   7.320  0.0000E+00  0.0000E+00  0.5840E+03
   7.330  0.0000E+00  0.0000E+00  0.5840E+03
   7.340  0.0000E+00  0.0000E+00  0.5840E+03
   7.350  0.0000E+00  0.0000E+00  0.5840E+03
   7.360  0.0000E+00  0.0000E+00  0.5840E+03
   7.370  0.0000E+00  0.0000E+00  0.5840E+03
   7.380  0.0000E+00  0.0000E+00  0.5840E+03
   7.390  0.0000E+00  0.0000E+00  0.5840E+03
   7.400  0.0000E+00  0.0000E+00  0.5840E+03
   7.410  0.0000E+00  0.0000E+00  0.5840E+03
   7.420  0.0000E+00  0.0000E+00  0.5840E+03
   7.430  0.0000E+00  0.0000E+00  0.5840E+03
   7.440  0.0000E+00  0.0000E+00  0.5840E+03
   7.450  0.0000E+00  0.0000E+00  0.5840E+03
   7.460  0.0000E+00  0.0000E+00  0.5840E+03
   7.470  0.1978E-05  0.0000E+00  0.5840E+03
   7.480  0.5097E-04  0.0000E+00  0.5840E+03
   7.490  0.1657E-03  0.1052E-04  0.5840E+03
   7.500  0.3503E-03  0.7864E-04  0.5840E+03
   7.510  0.7321E-03  0.2100E-03  0.5840E+03
   7.520  0.1371E-02  0.4365E-03  0.5840E+03
   7.530  0.2266E-02  0.8907E-03  0.5840E+03
   7.540  0.3418E-02  0.1587E-02  0.5840E+03
   7.550  0.4826E-02  0.2526E-02  0.5840E+03
   7.560  0.6491E-02  0.3708E-02  0.5840E+03
   7.570  0.8413E-02  0.5131E-02  0.5840E+03
   7.580  0.1059E-01  0.6797E-02  0.5840E+03
   7.590  0.1303E-01  0.8706E-02  0.5840E+03
   7.600  0.1572E-01  0.1086E-01  0.5840E+03
   7.610  0.1867E-01  0.1325E-01  0.5840E+03
   7.620  0.2187E-01  0.1589E-01  0.5840E+03
   7.630  0.2534E-01  0.1876E-01  0.5840E+03
   7.640  0.2906E-01  0.2188E-01  0.5840E+03
   7.650  0.3303E-01  0.2525E-01  0.5840E+03
   7.660  0.3726E-01  0.2885E-01  0.5840E+03
   7.670  0.4175E-01  0.3270E-01  0.5840E+03
   7.680  0.4650E-01  0.3679E-01  0.5840E+03
   7.690  0.5150E-01  0.4112E-01  0.5840E+03
   7.700  0.5676E-01  0.4569E-01  0.5840E+03
   7.710  0.6228E-01  0.5051E-01  0.5840E+03
   7.720  0.6805E-01  0.5557E-01  0.5840E+03
   7.730  0.7408E-01  0.6087E-01  0.5840E+03
   7.740  0.8036E-01  0.6641E-01  0.5840E+03
   7.750  0.8691E-01  0.7220E-01  0.5840E+03
   7.760  0.9371E-01  0.7823E-01  0.5840E+03
   7.770  0.1008E+00  0.8450E-01  0.5840E+03
   7.780  0.1081E+00  0.9101E-01  0.5840E+03
   7.790  0.1156E+00  0.9777E-01  0.5840E+03
   7.800  0.1235E+00  0.1048E+00  0.5840E+03
   7.810  0.1316E+00  0.1120E+00  0.5840E+03
   7.820  0.1399E+00  0.1195E+00  0.5840E+03
   7.830  0.1485E+00  0.1272E+00  0.5840E+03
   7.840  0.1573E+00  0.1352E+00  0.5840E+03
   7.850  0.1665E+00  0.1434E+00  0.5840E+03
   7.860  0.1758E+00  0.1518E+00  0.5840E+03
   7.870  0.1852E+00  0.1605E+00  0.5840E+03
   7.880  0.1938E+00  0.1695E+00  0.5840E+03
   7.890  0.2034E+00  0.1787E+00  0.5841E+03
   7.900  0.2142E+00  0.1873E+00  0.5841E+03
   7.910  0.2263E+00  0.1959E+00  0.5841E+03
   7.920  0.2409E+00  0.2058E+00  0.5841E+03
   7.930  0.2549E+00  0.2171E+00  0.5841E+03
   7.940  0.2681E+00  0.2304E+00  0.5841E+03
   7.950  0.2806E+00  0.2453E+00  0.5841E+03
   7.960  0.2924E+00  0.2591E+00  0.5841E+03
   7.970  0.3038E+00  0.2723E+00  0.5841E+03
   7.980  0.3149E+00  0.2848E+00  0.5841E+03
   7.990  0.3255E+00  0.2966E+00  0.5841E+03
   8.000  0.3359E+00  0.3081E+00  0.5841E+03
   8.010  0.3460E+00  0.3192E+00  0.5841E+03
   8.020  0.3560E+00  0.3299E+00  0.5841E+03
   8.030  0.3657E+00  0.3404E+00  0.5841E+03
   8.040  0.3753E+00  0.3506E+00  0.5841E+03
   8.050  0.3846E+00  0.3607E+00  0.5841E+03
   8.060  0.3938E+00  0.3705E+00  0.5841E+03
   8.070  0.4027E+00  0.3802E+00  0.5842E+03
   8.080  0.4115E+00  0.3897E+00  0.5842E+03
   8.090  0.4200E+00  0.3989E+00  0.5842E+03
   8.100  0.4284E+00  0.4080E+00  0.5842E+03
   8.110  0.4366E+00  0.4168E+00  0.5842E+03
   8.120  0.4446E+00  0.4255E+00  0.5842E+03
   8.130  0.4523E+00  0.4340E+00  0.5842E+03
   8.140  0.4599E+00  0.4422E+00  0.5842E+03
   8.150  0.4673E+00  0.4503E+00  0.5842E+03
   8.160  0.4731E+00  0.4582E+00  0.5842E+03
   8.170  0.4765E+00  0.4658E+00  0.5842E+03
   8.180  0.4777E+00  0.4729E+00  0.5843E+03
   8.190  0.4768E+00  0.4775E+00  0.5843E+03
   8.200  0.4779E+00  0.4797E+00  0.5843E+03
   8.210  0.4798E+00  0.4795E+00  0.5843E+03
   8.220  0.4830E+00  0.4793E+00  0.5843E+03
   8.230  0.4865E+00  0.4808E+00  0.5843E+03
   8.240  0.4897E+00  0.4832E+00  0.5843E+03
   8.250  0.4927E+00  0.4867E+00  0.5843E+03
   8.260  0.4958E+00  0.4900E+00  0.5843E+03
   8.270  0.4994E+00  0.4931E+00  0.5843E+03
   8.280  0.5034E+00  0.4962E+00  0.5844E+03
   8.290  0.5081E+00  0.4996E+00  0.5844E+03
   8.300  0.5137E+00  0.5035E+00  0.5844E+03
   8.310  0.5202E+00  0.5079E+00  0.5844E+03
   8.320  0.5276E+00  0.5132E+00  0.5844E+03
   8.330  0.5359E+00  0.5195E+00  0.5844E+03
   8.340  0.5455E+00  0.5267E+00  0.5844E+03
   8.350  0.5568E+00  0.5348E+00  0.5844E+03
   8.360  0.5696E+00  0.5440E+00  0.5844E+03
   8.370  0.5831E+00  0.5550E+00  0.5844E+03
   8.380  0.5969E+00  0.5676E+00  0.5845E+03
   8.390  0.6108E+00  0.5811E+00  0.5845E+03
   8.400  0.6249E+00  0.5950E+00  0.5845E+03
   8.410  0.6392E+00  0.6091E+00  0.5845E+03
   8.420  0.6534E+00  0.6233E+00  0.5845E+03
   8.430  0.6677E+00  0.6378E+00  0.5845E+03
   8.440  0.6822E+00  0.6523E+00  0.5845E+03
   8.450  0.6969E+00  0.6667E+00  0.5845E+03
   8.460  0.7119E+00  0.6814E+00  0.5846E+03
   8.470  0.7272E+00  0.6962E+00  0.5846E+03
   8.480  0.7429E+00  0.7114E+00  0.5846E+03
   8.490  0.7590E+00  0.7269E+00  0.5846E+03
   8.500  0.7754E+00  0.7428E+00  0.5846E+03
   8.510  0.7923E+00  0.7590E+00  0.5846E+03
   8.520  0.8098E+00  0.7756E+00  0.5846E+03
   8.530  0.8278E+00  0.7927E+00  0.5847E+03
   8.540  0.8463E+00  0.8103E+00  0.5847E+03
   8.550  0.8654E+00  0.8285E+00  0.5847E+03
   8.560  0.8850E+00  0.8472E+00  0.5847E+03
   8.570  0.9052E+00  0.8665E+00  0.5847E+03
   8.580  0.9259E+00  0.8863E+00  0.5847E+03
   8.590  0.9471E+00  0.9067E+00  0.5848E+03
   8.600  0.9689E+00  0.9276E+00  0.5848E+03
   8.610  0.9912E+00  0.9491E+00  0.5848E+03
   8.620  0.1014E+01  0.9712E+00  0.5848E+03
   8.630  0.1038E+01  0.9938E+00  0.5848E+03
   8.640  0.1061E+01  0.1017E+01  0.5849E+03
   8.650  0.1086E+01  0.1041E+01  0.5849E+03
   8.660  0.1111E+01  0.1065E+01  0.5849E+03
   8.670  0.1137E+01  0.1090E+01  0.5849E+03
   8.680  0.1163E+01  0.1115E+01  0.5850E+03
   8.690  0.1189E+01  0.1141E+01  0.5850E+03
   8.700  0.1217E+01  0.1168E+01  0.5850E+03
   8.710  0.1244E+01  0.1195E+01  0.5850E+03
   8.720  0.1273E+01  0.1222E+01  0.5850E+03
   8.730  0.1301E+01  0.1250E+01  0.5851E+03
   8.740  0.1329E+01  0.1279E+01  0.5851E+03
   8.750  0.1351E+01  0.1308E+01  0.5851E+03
   8.760  0.1371E+01  0.1338E+01  0.5852E+03
   8.770  0.1406E+01  0.1366E+01  0.5852E+03
   8.780  0.1459E+01  0.1391E+01  0.5852E+03
   8.790  0.1531E+01  0.1430E+01  0.5852E+03
   8.800  0.1617E+01  0.1487E+01  0.5853E+03
   8.810  0.1720E+01  0.1565E+01  0.5853E+03
   8.820  0.1841E+01  0.1661E+01  0.5853E+03
   8.830  0.1978E+01  0.1772E+01  0.5854E+03
   8.840  0.2138E+01  0.1898E+01  0.5854E+03
   8.850  0.2333E+01  0.2037E+01  0.5855E+03
   8.860  0.2662E+01  0.2194E+01  0.5855E+03
   8.870  0.3314E+01  0.2390E+01  0.5855E+03
   8.880  0.5764E+01  0.2705E+01  0.5856E+03
   8.890  0.6014E+01  0.3369E+01  0.5857E+03
   8.900  0.5898E+01  0.6164E+01  0.5858E+03
   8.910  0.5963E+01  0.6165E+01  0.5859E+03
   8.920  0.6401E+01  0.5985E+01  0.5861E+03
   8.930  0.6732E+01  0.6151E+01  0.5862E+03
   8.940  0.6990E+01  0.6672E+01  0.5863E+03
   8.950  0.7174E+01  0.6991E+01  0.5865E+03
   8.960  0.7237E+01  0.7254E+01  0.5866E+03
   8.970  0.7276E+01  0.7380E+01  0.5867E+03
   8.980  0.7296E+01  0.7436E+01  0.5869E+03
   8.990  0.7288E+01  0.7471E+01  0.5870E+03
   9.000  0.7245E+01  0.7475E+01  0.5872E+03
   9.010  0.7274E+01  0.7443E+01  0.5873E+03
   9.020  0.7328E+01  0.7390E+01  0.5875E+03
   9.030  0.7207E+01  0.7420E+01  0.5876E+03
   9.040  0.6991E+01  0.7371E+01  0.5878E+03
   9.050  0.6731E+01  0.7136E+01  0.5879E+03
   9.060  0.6443E+01  0.6824E+01  0.5880E+03
   9.070  0.7268E+01  0.6482E+01  0.5882E+03
   9.080  0.6889E+01  0.6211E+01  0.5883E+03
   9.090  0.5305E+01  0.7147E+01  0.5884E+03
   9.100  0.5386E+01  0.6223E+01  0.5886E+03
   9.110  0.5671E+01  0.5103E+01  0.5887E+03
   9.120  0.5965E+01  0.5389E+01  0.5888E+03
   9.130  0.6238E+01  0.5676E+01  0.5889E+03
   9.140  0.6464E+01  0.5936E+01  0.5890E+03
   9.150  0.6643E+01  0.6140E+01  0.5892E+03
   9.160  0.6922E+01  0.6310E+01  0.5893E+03
   9.170  0.7191E+01  0.6491E+01  0.5894E+03
   9.180  0.7457E+01  0.6763E+01  0.5896E+03
   9.190  0.7743E+01  0.7022E+01  0.5897E+03
   9.200  0.8048E+01  0.7287E+01  0.5899E+03
   9.210  0.8368E+01  0.7572E+01  0.5900E+03
   9.220  0.8671E+01  0.7874E+01  0.5902E+03
   9.230  0.8965E+01  0.8191E+01  0.5903E+03
   9.240  0.9261E+01  0.8513E+01  0.5905E+03
   9.250  0.9552E+01  0.8833E+01  0.5907E+03
   9.260  0.9936E+01  0.9134E+01  0.5909E+03
   9.270  0.1032E+02  0.9436E+01  0.5911E+03
   9.280  0.1069E+02  0.9741E+01  0.5913E+03
   9.290  0.1107E+02  0.1013E+02  0.5915E+03
   9.300  0.1146E+02  0.1055E+02  0.5917E+03
   9.310  0.1188E+02  0.1096E+02  0.5919E+03
   9.320  0.1231E+02  0.1136E+02  0.5922E+03
   9.330  0.1277E+02  0.1178E+02  0.5924E+03
   9.340  0.1324E+02  0.1222E+02  0.5926E+03
   9.350  0.1369E+02  0.1269E+02  0.5929E+03
   9.360  0.1428E+02  0.1318E+02  0.5932E+03
   9.370  0.1495E+02  0.1368E+02  0.5935E+03
   9.380  0.1558E+02  0.1413E+02  0.5937E+03
   9.390  0.1632E+02  0.1470E+02  0.5941E+03
   9.400  0.1691E+02  0.1556E+02  0.5944E+03
   9.410  0.1728E+02  0.1639E+02  0.5947E+03
   9.420  0.1750E+02  0.1728E+02  0.5950E+03
   9.430  0.1742E+02  0.1804E+02  0.5954E+03
   9.440  0.1724E+02  0.1857E+02  0.5958E+03
   9.450  0.1740E+02  0.1876E+02  0.5961E+03
   9.460  0.1787E+02  0.1845E+02  0.5965E+03
   9.470  0.1707E+02  0.1848E+02  0.5968E+03
   9.480  0.1618E+02  0.1864E+02  0.5972E+03
   9.490  0.1527E+02  0.1685E+02  0.5975E+03
   9.500  0.1834E+02  0.1611E+02  0.5979E+03
   9.510  0.1715E+02  0.1849E+02  0.5982E+03
   9.520  0.1888E+02  0.1541E+02  0.5985E+03
   9.530  0.1893E+02  0.1678E+02  0.5989E+03
   9.540  0.1707E+02  0.1841E+02  0.5993E+03
   9.550  0.1640E+02  0.1786E+02  0.5996E+03
   9.560  0.1584E+02  0.1633E+02  0.5999E+03
   9.570  0.1531E+02  0.1611E+02  0.6002E+03
   9.580  0.1473E+02  0.1592E+02  0.6006E+03
   9.590  0.1474E+02  0.1587E+02  0.6009E+03
   9.600  0.1466E+02  0.1568E+02  0.6012E+03
   9.610  0.1417E+02  0.1509E+02  0.6015E+03
   9.620  0.1443E+02  0.1468E+02  0.6018E+03
   9.630  0.1506E+02  0.1488E+02  0.6021E+03
   9.640  0.1554E+02  0.1515E+02  0.6024E+03
   9.650  0.1572E+02  0.1514E+02  0.6027E+03
   9.660  0.1546E+02  0.1533E+02  0.6030E+03
   9.670  0.1475E+02  0.1558E+02  0.6033E+03
   9.680  0.1395E+02  0.1555E+02  0.6036E+03
   9.690  0.1280E+02  0.1508E+02  0.6039E+03
   9.700  0.1273E+02  0.1384E+02  0.6041E+03
   9.710  0.1454E+02  0.1213E+02  0.6044E+03
   9.720  0.1582E+02  0.1240E+02  0.6047E+03
   9.730  0.1680E+02  0.1359E+02  0.6050E+03
   9.740  0.1772E+02  0.1500E+02  0.6053E+03
   9.750  0.1857E+02  0.1602E+02  0.6056E+03
   9.760  0.1943E+02  0.1697E+02  0.6060E+03
   9.770  0.2013E+02  0.1781E+02  0.6064E+03
   9.780  0.2083E+02  0.1842E+02  0.6067E+03
   9.790  0.2024E+02  0.1889E+02  0.6071E+03
   9.800  0.1948E+02  0.1903E+02  0.6075E+03
   9.810  0.1935E+02  0.1916E+02  0.6079E+03
   9.820  0.1931E+02  0.1910E+02  0.6083E+03
   9.830  0.1938E+02  0.1921E+02  0.6087E+03
   9.840  0.1955E+02  0.1946E+02  0.6091E+03
   9.850  0.2023E+02  0.1988E+02  0.6095E+03
   9.860  0.2364E+02  0.2063E+02  0.6099E+03
   9.870  0.3065E+02  0.2345E+02  0.6104E+03
   9.880  0.4007E+02  0.2997E+02  0.6110E+03
   9.890  0.4993E+02  0.3571E+02  0.6118E+03
   9.900  0.5358E+02  0.4328E+02  0.6127E+03
   9.910  0.4904E+02  0.4367E+02  0.6136E+03
   9.920  0.3793E+02  0.5011E+02  0.6145E+03
   9.930  0.3297E+02  0.4989E+02  0.6154E+03
   9.940  0.3171E+02  0.4146E+02  0.6162E+03
   9.950  0.3140E+02  0.3706E+02  0.6169E+03
   9.960  0.3044E+02  0.3468E+02  0.6176E+03
   9.970  0.3682E+02  0.3131E+02  0.6182E+03
   9.980  0.3132E+02  0.3450E+02  0.6189E+03
   9.990  0.3024E+02  0.3374E+02  0.6195E+03
  10.000  0.3071E+02  0.2939E+02  0.6202E+03
  10.010  0.3122E+02  0.2908E+02  0.6208E+03
  10.020  0.3155E+02  0.2930E+02  0.6214E+03
  10.030  0.3166E+02  0.2965E+02  0.6220E+03
  10.040  0.3154E+02  0.3004E+02  0.6226E+03
  10.050  0.3138E+02  0.3045E+02  0.6232E+03
  10.060  0.3115E+02  0.3095E+02  0.6238E+03
  10.070  0.3085E+02  0.3122E+02  0.6245E+03
  10.080  0.3181E+02  0.3134E+02  0.6251E+03
  10.090  0.3279E+02  0.3166E+02  0.6257E+03
  10.100  0.3364E+02  0.3278E+02  0.6264E+03
  10.110  0.3502E+02  0.3340E+02  0.6270E+03
  10.120  0.3537E+02  0.3317E+02  0.6277E+03
  10.130  0.3412E+02  0.3351E+02  0.6284E+03
  10.140  0.3032E+02  0.3394E+02  0.6291E+03
  10.150  0.2874E+02  0.3194E+02  0.6297E+03
  10.160  0.2836E+02  0.2971E+02  0.6303E+03
  10.170  0.2904E+02  0.2837E+02  0.6309E+03
  10.180  0.2880E+02  0.2845E+02  0.6314E+03
  10.190  0.2788E+02  0.2862E+02  0.6320E+03
  10.200  0.2630E+02  0.2833E+02  0.6326E+03
  10.210  0.2395E+02  0.2738E+02  0.6331E+03
  10.220  0.2131E+02  0.2562E+02  0.6336E+03
  10.230  0.2061E+02  0.2197E+02  0.6340E+03
  10.240  0.2011E+02  0.2141E+02  0.6345E+03
  10.250  0.1955E+02  0.2108E+02  0.6349E+03
  10.260  0.1940E+02  0.2070E+02  0.6353E+03
  10.270  0.1944E+02  0.2047E+02  0.6357E+03
  10.280  0.1940E+02  0.2028E+02  0.6361E+03
  10.290  0.1931E+02  0.2001E+02  0.6365E+03
  10.300  0.1914E+02  0.1969E+02  0.6369E+03
  10.310  0.1744E+02  0.1947E+02  0.6372E+03
  10.320  0.1741E+02  0.1930E+02  0.6376E+03
  10.330  0.1996E+02  0.1802E+02  0.6380E+03
  10.340  0.2526E+02  0.2015E+02  0.6384E+03
  10.350  0.2803E+02  0.2452E+02  0.6389E+03
  10.360  0.2768E+02  0.2731E+02  0.6394E+03
  10.370  0.2803E+02  0.2777E+02  0.6400E+03
  10.380  0.3246E+02  0.2864E+02  0.6406E+03
  10.390  0.3107E+02  0.2814E+02  0.6412E+03
  10.400  0.2621E+02  0.2808E+02  0.6417E+03
  10.410  0.2391E+02  0.2767E+02  0.6423E+03
  10.420  0.2119E+02  0.2543E+02  0.6428E+03
  10.430  0.1867E+02  0.2404E+02  0.6432E+03
  10.440  0.1673E+02  0.2009E+02  0.6436E+03
  10.450  0.1620E+02  0.1732E+02  0.6440E+03
  10.460  0.1634E+02  0.1634E+02  0.6443E+03
  10.470  0.1684E+02  0.1635E+02  0.6446E+03
  10.480  0.1731E+02  0.1666E+02  0.6449E+03
  10.490  0.1746E+02  0.1722E+02  0.6453E+03
  10.500  0.1734E+02  0.1772E+02  0.6456E+03
  10.510  0.1701E+02  0.1788E+02  0.6460E+03
  10.520  0.1667E+02  0.1770E+02  0.6463E+03
  10.530  0.1644E+02  0.1755E+02  0.6467E+03
  10.540  0.1611E+02  0.1716E+02  0.6470E+03
  10.550  0.1557E+02  0.1661E+02  0.6473E+03
  10.560  0.1510E+02  0.1583E+02  0.6477E+03
  10.570  0.1482E+02  0.1513E+02  0.6480E+03
  10.580  0.1466E+02  0.1452E+02  0.6483E+03
  10.590  0.1477E+02  0.1409E+02  0.6485E+03
  10.600  0.1503E+02  0.1407E+02  0.6488E+03
  10.610  0.1531E+02  0.1411E+02  0.6491E+03
  10.620  0.1552E+02  0.1429E+02  0.6494E+03
  10.630  0.1568E+02  0.1455E+02  0.6497E+03
  10.640  0.1602E+02  0.1476E+02  0.6500E+03
  10.650  0.1663E+02  0.1490E+02  0.6503E+03
  10.660  0.1715E+02  0.1504E+02  0.6507E+03
  10.670  0.1759E+02  0.1544E+02  0.6510E+03
  10.680  0.1799E+02  0.1641E+02  0.6513E+03
  10.690  0.1781E+02  0.1731E+02  0.6517E+03
  10.700  0.1797E+02  0.1883E+02  0.6520E+03
  10.710  0.1788E+02  0.1842E+02  0.6524E+03
  10.720  0.1780E+02  0.1819E+02  0.6528E+03
  10.730  0.1799E+02  0.1750E+02  0.6531E+03
  10.740  0.1909E+02  0.1645E+02  0.6535E+03
  10.750  0.1907E+02  0.1508E+02  0.6538E+03
  10.760  0.1870E+02  0.1509E+02  0.6542E+03
  10.770  0.1830E+02  0.1679E+02  0.6545E+03
  10.780  0.1751E+02  0.1833E+02  0.6549E+03
  10.790  0.1645E+02  0.1851E+02  0.6552E+03
  10.800  0.1525E+02  0.1809E+02  0.6556E+03
  10.810  0.1367E+02  0.1737E+02  0.6559E+03
  10.820  0.1203E+02  0.1647E+02  0.6562E+03
  10.830  0.1126E+02  0.1464E+02  0.6565E+03
  10.840  0.9853E+01  0.1330E+02  0.6567E+03
  10.850  0.7970E+01  0.1205E+02  0.6569E+03
  10.860  0.6623E+01  0.1102E+02  0.6571E+03
  10.870  0.6443E+01  0.9973E+01  0.6573E+03
  10.880  0.8318E+01  0.8576E+01  0.6574E+03
  10.890  0.1319E+02  0.7416E+01  0.6576E+03
  10.900  0.1246E+02  0.9359E+01  0.6578E+03
  10.910  0.1294E+02  0.1052E+02  0.6581E+03
  10.920  0.1332E+02  0.1087E+02  0.6583E+03
  10.930  0.1350E+02  0.1142E+02  0.6585E+03
  10.940  0.1331E+02  0.1217E+02  0.6588E+03
  10.950  0.1244E+02  0.1311E+02  0.6591E+03
  10.960  0.1245E+02  0.1407E+02  0.6593E+03
  10.970  0.1205E+02  0.1422E+02  0.6596E+03
  10.980  0.9088E+01  0.1362E+02  0.6598E+03
  10.990  0.9200E+01  0.1379E+02  0.6600E+03
  11.000  0.1023E+02  0.1286E+02  0.6603E+03
  11.010  0.1136E+02  0.1022E+02  0.6605E+03
  11.020  0.1257E+02  0.1063E+02  0.6607E+03
  11.030  0.1458E+02  0.1156E+02  0.6610E+03
  11.040  0.1731E+02  0.1275E+02  0.6612E+03
  11.050  0.2080E+02  0.1492E+02  0.6616E+03
  11.060  0.2339E+02  0.1787E+02  0.6620E+03
  11.070  0.2477E+02  0.1967E+02  0.6624E+03
  11.080  0.2403E+02  0.2031E+02  0.6628E+03
  11.090  0.1869E+02  0.2082E+02  0.6633E+03
  11.100  0.1870E+02  0.2094E+02  0.6637E+03
  11.110  0.1687E+02  0.1831E+02  0.6640E+03
  11.120  0.1468E+02  0.1843E+02  0.6644E+03
  11.130  0.1256E+02  0.1676E+02  0.6647E+03
  11.140  0.1060E+02  0.1466E+02  0.6650E+03
  11.150  0.8809E+01  0.1291E+02  0.6652E+03
  11.160  0.7853E+01  0.1128E+02  0.6654E+03
  11.170  0.7529E+01  0.9802E+01  0.6656E+03
  11.180  0.7452E+01  0.8473E+01  0.6658E+03
  11.190  0.7396E+01  0.7508E+01  0.6659E+03
  11.200  0.7364E+01  0.7107E+01  0.6661E+03
  11.210  0.7238E+01  0.7024E+01  0.6662E+03
  11.220  0.6892E+01  0.6977E+01  0.6663E+03
  11.230  0.7457E+01  0.6951E+01  0.6665E+03
  11.240  0.7349E+01  0.6941E+01  0.6666E+03
  11.250  0.7331E+01  0.6949E+01  0.6668E+03
  11.260  0.7287E+01  0.6941E+01  0.6669E+03
  11.270  0.7658E+01  0.6574E+01  0.6670E+03
  11.280  0.8395E+01  0.7143E+01  0.6672E+03
  11.290  0.9159E+01  0.7581E+01  0.6674E+03
  11.300  0.9941E+01  0.7671E+01  0.6675E+03
  11.310  0.1074E+02  0.7697E+01  0.6677E+03
  11.320  0.1177E+02  0.7763E+01  0.6679E+03
  11.330  0.1223E+02  0.7847E+01  0.6681E+03
  11.340  0.1224E+02  0.1130E+02  0.6683E+03
  11.350  0.1215E+02  0.1293E+02  0.6686E+03
  11.360  0.1231E+02  0.1373E+02  0.6688E+03
  11.370  0.1293E+02  0.1441E+02  0.6691E+03
  11.380  0.1409E+02  0.1498E+02  0.6694E+03
  11.390  0.1539E+02  0.1564E+02  0.6697E+03
  11.400  0.1677E+02  0.1665E+02  0.6700E+03
  11.410  0.1843E+02  0.1760E+02  0.6703E+03
  11.420  0.2032E+02  0.1881E+02  0.6707E+03
  11.430  0.2230E+02  0.2070E+02  0.6711E+03
  11.440  0.2429E+02  0.2251E+02  0.6716E+03
  11.450  0.2534E+02  0.2427E+02  0.6720E+03
  11.460  0.2648E+02  0.2558E+02  0.6726E+03
  11.470  0.2788E+02  0.2663E+02  0.6731E+03
  11.480  0.2849E+02  0.2760E+02  0.6736E+03
  11.490  0.2882E+02  0.2834E+02  0.6742E+03
  11.500  0.2905E+02  0.2883E+02  0.6748E+03
  11.510  0.2898E+02  0.2917E+02  0.6754E+03
  11.520  0.2797E+02  0.2875E+02  0.6759E+03
  11.530  0.2662E+02  0.2762E+02  0.6765E+03
  11.540  0.2520E+02  0.2631E+02  0.6770E+03
  11.550  0.2261E+02  0.2451E+02  0.6775E+03
  11.560  0.2332E+02  0.2298E+02  0.6780E+03
  11.570  0.1993E+02  0.2232E+02  0.6784E+03
  11.580  0.2078E+02  0.2231E+02  0.6788E+03
  11.590  0.2163E+02  0.2097E+02  0.6793E+03
  11.600  0.2208E+02  0.1974E+02  0.6797E+03
  11.610  0.2266E+02  0.2004E+02  0.6801E+03
  11.620  0.2499E+02  0.2063E+02  0.6806E+03
  11.630  0.2345E+02  0.2092E+02  0.6810E+03
  11.640  0.2457E+02  0.2389E+02  0.6815E+03
  11.650  0.2635E+02  0.2238E+02  0.6820E+03
  11.660  0.2524E+02  0.2406E+02  0.6825E+03
  11.670  0.2628E+02  0.2656E+02  0.6830E+03
  11.680  0.2722E+02  0.2640E+02  0.6835E+03
  11.690  0.2821E+02  0.2684E+02  0.6841E+03
  11.700  0.2900E+02  0.2831E+02  0.6846E+03
  11.710  0.2738E+02  0.2941E+02  0.6852E+03
  11.720  0.2586E+02  0.2688E+02  0.6857E+03
  11.730  0.2634E+02  0.2288E+02  0.6862E+03
  11.740  0.2553E+02  0.2258E+02  0.6867E+03
  11.750  0.2380E+02  0.2574E+02  0.6872E+03
  11.760  0.2184E+02  0.2652E+02  0.6877E+03
  11.770  0.2147E+02  0.2306E+02  0.6882E+03
  11.780  0.2136E+02  0.2298E+02  0.6886E+03
  11.790  0.2075E+02  0.2286E+02  0.6891E+03
  11.800  0.2095E+02  0.2188E+02  0.6895E+03
  11.810  0.2049E+02  0.2187E+02  0.6899E+03
  11.820  0.1987E+02  0.2140E+02  0.6903E+03
  11.830  0.1910E+02  0.2085E+02  0.6907E+03
  11.840  0.1819E+02  0.2013E+02  0.6911E+03
  11.850  0.1722E+02  0.1934E+02  0.6915E+03
  11.860  0.1616E+02  0.1849E+02  0.6919E+03
  11.870  0.1542E+02  0.1756E+02  0.6922E+03
  11.880  0.1472E+02  0.1658E+02  0.6925E+03
  11.890  0.1369E+02  0.1571E+02  0.6928E+03
  11.900  0.1229E+02  0.1482E+02  0.6931E+03
  11.910  0.1109E+02  0.1392E+02  0.6934E+03
  11.920  0.1042E+02  0.1300E+02  0.6936E+03
  11.930  0.9417E+01  0.1204E+02  0.6938E+03
  11.940  0.8533E+01  0.1097E+02  0.6940E+03
  11.950  0.7744E+01  0.9888E+01  0.6942E+03
  11.960  0.7152E+01  0.8857E+01  0.6944E+03
  11.970  0.6958E+01  0.8122E+01  0.6946E+03
  11.980  0.6792E+01  0.7421E+01  0.6947E+03
  11.990  0.6528E+01  0.7519E+01  0.6948E+03
  12.000  0.6098E+01  0.7043E+01  0.6950E+03
  12.010  0.5660E+01  0.6759E+01  0.6951E+03
  12.020  0.5215E+01  0.6278E+01  0.6952E+03
  12.030  0.4760E+01  0.5790E+01  0.6953E+03
  12.040  0.4289E+01  0.5296E+01  0.6954E+03
  12.050  0.3788E+01  0.4790E+01  0.6955E+03
  12.060  0.3261E+01  0.4249E+01  0.6956E+03
  12.070  0.2776E+01  0.3681E+01  0.6957E+03
  12.080  0.2328E+01  0.3143E+01  0.6957E+03
  12.090  0.1907E+01  0.2621E+01  0.6958E+03
  12.100  0.1606E+01  0.2194E+01  0.6958E+03
  12.110  0.1361E+01  0.1836E+01  0.6959E+03
  12.120  0.1140E+01  0.1565E+01  0.6959E+03
  12.130  0.9409E+00  0.1321E+01  0.6959E+03
  12.140  0.7608E+00  0.1097E+01  0.6959E+03
  12.150  0.6000E+00  0.8951E+00  0.6960E+03
  12.160  0.4586E+00  0.7139E+00  0.6960E+03
  12.170  0.3366E+00  0.5537E+00  0.6960E+03
  12.180  0.2339E+00  0.4146E+00  0.6960E+03
  12.190  0.1506E+00  0.2964E+00  0.6960E+03
  12.200  0.8659E-01  0.1993E+00  0.6960E+03
  12.210  0.4196E-01  0.1232E+00  0.6960E+03
  12.220  0.1612E-01  0.6805E-01  0.6960E+03
  12.230  0.4812E-02  0.3394E-01  0.6960E+03
  12.240  0.8051E-03  0.1690E-01  0.6960E+03
  12.250  0.8843E-04  0.9333E-02  0.6960E+03
  12.260  0.0000E+00  0.5971E-02  0.6960E+03
  12.270  0.0000E+00  0.3743E-02  0.6960E+03
  12.280  0.0000E+00  0.2078E-02  0.6960E+03
  12.290  0.0000E+00  0.9145E-03  0.6960E+03
  12.300  0.0000E+00  0.2533E-03  0.6960E+03
  12.310  0.0000E+00  0.2447E-04  0.6960E+03
  12.320  0.0000E+00  0.0000E+00  0.6960E+03
  12.330  0.0000E+00  0.0000E+00  0.6960E+03
  12.340  0.0000E+00  0.0000E+00  0.6960E+03
  12.350  0.0000E+00  0.0000E+00  0.6960E+03
  12.360  0.0000E+00  0.0000E+00  0.6960E+03
  12.370  0.0000E+00  0.0000E+00  0.6960E+03
  12.380  0.0000E+00  0.0000E+00  0.6960E+03
  12.390  0.0000E+00  0.0000E+00  0.6960E+03
  12.400  0.0000E+00  0.0000E+00  0.6960E+03
  12.410  0.0000E+00  0.0000E+00  0.6960E+03
  12.420  0.0000E+00  0.0000E+00  0.6960E+03
  12.430  0.0000E+00  0.0000E+00  0.6960E+03
  12.440  0.0000E+00  0.0000E+00  0.6960E+03
  12.450  0.0000E+00  0.0000E+00  0.6960E+03
  12.460  0.0000E+00  0.0000E+00  0.6960E+03
  12.470  0.0000E+00  0.0000E+00  0.6960E+03
  12.480  0.0000E+00  0.0000E+00  0.6960E+03
  12.490  0.0000E+00  0.0000E+00  0.6960E+03
  12.500  0.0000E+00  0.0000E+00  0.6960E+03
  12.510  0.0000E+00  0.0000E+00  0.6960E+03
  12.520  0.0000E+00  0.0000E+00  0.6960E+03
  12.530  0.0000E+00  0.0000E+00  0.6960E+03
  12.540  0.0000E+00  0.0000E+00  0.6960E+03
  12.550  0.0000E+00  0.0000E+00  0.6960E+03
  12.560  0.0000E+00  0.0000E+00  0.6960E+03
  12.570  0.0000E+00  0.0000E+00  0.6960E+03
  12.580  0.0000E+00  0.0000E+00  0.6960E+03
  12.590  0.0000E+00  0.0000E+00  0.6960E+03
  12.600  0.0000E+00  0.0000E+00  0.6960E+03
  12.610  0.0000E+00  0.0000E+00  0.6960E+03
  12.620  0.0000E+00  0.0000E+00  0.6960E+03
  12.630  0.0000E+00  0.0000E+00  0.6960E+03
  12.640  0.0000E+00  0.0000E+00  0.6960E+03
  12.650  0.0000E+00  0.0000E+00  0.6960E+03
  12.660  0.0000E+00  0.0000E+00  0.6960E+03
  12.670  0.0000E+00  0.0000E+00  0.6960E+03
  12.680  0.0000E+00  0.0000E+00  0.6960E+03
  12.690  0.0000E+00  0.0000E+00  0.6960E+03
  12.700  0.0000E+00  0.0000E+00  0.6960E+03
  12.710  0.0000E+00  0.0000E+00  0.6960E+03
  12.720  0.0000E+00  0.0000E+00  0.6960E+03
  12.730  0.0000E+00  0.0000E+00  0.6960E+03
  12.740  0.0000E+00  0.0000E+00  0.6960E+03
  12.750  0.0000E+00  0.0000E+00  0.6960E+03
  12.760  0.0000E+00  0.0000E+00  0.6960E+03
  12.770  0.0000E+00  0.0000E+00  0.6960E+03
  12.780  0.0000E+00  0.0000E+00  0.6960E+03
  12.790  0.0000E+00  0.0000E+00  0.6960E+03
  12.800  0.0000E+00  0.0000E+00  0.6960E+03
  12.810  0.0000E+00  0.0000E+00  0.6960E+03
  12.820  0.0000E+00  0.0000E+00  0.6960E+03
  12.830  0.0000E+00  0.0000E+00  0.6960E+03
  12.840  0.0000E+00  0.0000E+00  0.6960E+03
  12.850  0.0000E+00  0.0000E+00  0.6960E+03
  12.860  0.0000E+00  0.0000E+00  0.6960E+03
  12.870  0.0000E+00  0.0000E+00  0.6960E+03
  12.880  0.0000E+00  0.0000E+00  0.6960E+03
  12.890  0.0000E+00  0.0000E+00  0.6960E+03
  12.900  0.0000E+00  0.0000E+00  0.6960E+03
  12.910  0.0000E+00  0.0000E+00  0.6960E+03
  12.920  0.0000E+00  0.0000E+00  0.6960E+03
  12.930  0.0000E+00  0.0000E+00  0.6960E+03
  12.940  0.0000E+00  0.0000E+00  0.6960E+03
  12.950  0.0000E+00  0.0000E+00  0.6960E+03
  12.960  0.0000E+00  0.0000E+00  0.6960E+03
  12.970  0.0000E+00  0.0000E+00  0.6960E+03
  12.980  0.0000E+00  0.0000E+00  0.6960E+03
  12.990  0.0000E+00  0.0000E+00  0.6960E+03
  13.000  0.0000E+00  0.0000E+00  0.6960E+03
  13.010  0.0000E+00  0.0000E+00  0.6960E+03
  13.020  0.0000E+00  0.0000E+00  0.6960E+03
  13.030  0.0000E+00  0.0000E+00  0.6960E+03
  13.040  0.0000E+00  0.0000E+00  0.6960E+03
  13.050  0.0000E+00  0.0000E+00  0.6960E+03
  13.060  0.0000E+00  0.0000E+00  0.6960E+03
  13.070  0.0000E+00  0.0000E+00  0.6960E+03
  13.080  0.0000E+00  0.0000E+00  0.6960E+03
  13.090  0.0000E+00  0.0000E+00  0.6960E+03
  13.100  0.0000E+00  0.0000E+00  0.6960E+03
  13.110  0.0000E+00  0.0000E+00  0.6960E+03
  13.120  0.0000E+00  0.0000E+00  0.6960E+03
  13.130  0.0000E+00  0.0000E+00  0.6960E+03
  13.140  0.0000E+00  0.0000E+00  0.6960E+03
  13.150  0.0000E+00  0.0000E+00  0.6960E+03
  13.160  0.0000E+00  0.0000E+00  0.6960E+03
  13.170  0.0000E+00  0.0000E+00  0.6960E+03
  13.180  0.0000E+00  0.0000E+00  0.6960E+03
  13.190  0.0000E+00  0.0000E+00  0.6960E+03
  13.200  0.0000E+00  0.0000E+00  0.6960E+03
  13.210  0.0000E+00  0.0000E+00  0.6960E+03
  13.220  0.0000E+00  0.0000E+00  0.6960E+03
  13.230  0.0000E+00  0.0000E+00  0.6960E+03
  13.240  0.0000E+00  0.0000E+00  0.6960E+03
  13.250  0.0000E+00  0.0000E+00  0.6960E+03
  13.260  0.0000E+00  0.0000E+00  0.6960E+03
  13.270  0.0000E+00  0.0000E+00  0.6960E+03
  13.280  0.0000E+00  0.0000E+00  0.6960E+03
  13.290  0.0000E+00  0.0000E+00  0.6960E+03
  13.300  0.0000E+00  0.0000E+00  0.6960E+03
  13.310  0.0000E+00  0.0000E+00  0.6960E+03
  13.320  0.0000E+00  0.0000E+00  0.6960E+03
  13.330  0.0000E+00  0.0000E+00  0.6960E+03
  13.340  0.0000E+00  0.0000E+00  0.6960E+03
  13.350  0.0000E+00  0.0000E+00  0.6960E+03
  13.360  0.0000E+00  0.0000E+00  0.6960E+03
  13.370  0.0000E+00  0.0000E+00  0.6960E+03
  13.380  0.0000E+00  0.0000E+00  0.6960E+03
  13.390  0.0000E+00  0.0000E+00  0.6960E+03
  13.400  0.0000E+00  0.0000E+00  0.6960E+03
  13.410  0.0000E+00  0.0000E+00  0.6960E+03
  13.420  0.0000E+00  0.0000E+00  0.6960E+03
  13.430  0.0000E+00  0.0000E+00  0.6960E+03
  13.440  0.0000E+00  0.0000E+00  0.6960E+03
  13.450  0.0000E+00  0.0000E+00  0.6960E+03
  13.460  0.0000E+00  0.0000E+00  0.6960E+03
  13.470  0.0000E+00  0.0000E+00  0.6960E+03
  13.480  0.0000E+00  0.0000E+00  0.6960E+03
  13.490  0.0000E+00  0.0000E+00  0.6960E+03
  13.500  0.0000E+00  0.0000E+00  0.6960E+03
  13.510  0.0000E+00  0.0000E+00  0.6960E+03
  13.520  0.0000E+00  0.0000E+00  0.6960E+03
  13.530  0.0000E+00  0.0000E+00  0.6960E+03
  13.540  0.0000E+00  0.0000E+00  0.6960E+03
  13.550  0.0000E+00  0.0000E+00  0.6960E+03
  13.560  0.0000E+00  0.0000E+00  0.6960E+03
  13.570  0.0000E+00  0.0000E+00  0.6960E+03
  13.580  0.0000E+00  0.0000E+00  0.6960E+03
  13.590  0.0000E+00  0.0000E+00  0.6960E+03
  13.600  0.0000E+00  0.0000E+00  0.6960E+03
  13.610  0.0000E+00  0.0000E+00  0.6960E+03
  13.620  0.0000E+00  0.0000E+00  0.6960E+03
  13.630  0.0000E+00  0.0000E+00  0.6960E+03
  13.640  0.0000E+00  0.0000E+00  0.6960E+03
  13.650  0.0000E+00  0.0000E+00  0.6960E+03
  13.660  0.0000E+00  0.0000E+00  0.6960E+03
  13.670  0.0000E+00  0.0000E+00  0.6960E+03
  13.680  0.0000E+00  0.0000E+00  0.6960E+03
  13.690  0.0000E+00  0.0000E+00  0.6960E+03
  13.700  0.0000E+00  0.0000E+00  0.6960E+03
  13.710  0.0000E+00  0.0000E+00  0.6960E+03
  13.720  0.0000E+00  0.0000E+00  0.6960E+03
  13.730  0.0000E+00  0.0000E+00  0.6960E+03
  13.740  0.0000E+00  0.0000E+00  0.6960E+03
  13.750  0.0000E+00  0.0000E+00  0.6960E+03
  13.760  0.0000E+00  0.0000E+00  0.6960E+03
  13.770  0.0000E+00  0.0000E+00  0.6960E+03
  13.780  0.0000E+00  0.0000E+00  0.6960E+03
  13.790  0.0000E+00  0.0000E+00  0.6960E+03
  13.800  0.0000E+00  0.0000E+00  0.6960E+03
  13.810  0.0000E+00  0.0000E+00  0.6960E+03
  13.820  0.0000E+00  0.0000E+00  0.6960E+03
  13.830  0.0000E+00  0.0000E+00  0.6960E+03
  13.840  0.0000E+00  0.0000E+00  0.6960E+03
  13.850  0.0000E+00  0.0000E+00  0.6960E+03
  13.860  0.0000E+00  0.0000E+00  0.6960E+03
  13.870  0.0000E+00  0.0000E+00  0.6960E+03
  13.880  0.0000E+00  0.0000E+00  0.6960E+03
  13.890  0.0000E+00  0.0000E+00  0.6960E+03
  13.900  0.0000E+00  0.0000E+00  0.6960E+03
  13.910  0.0000E+00  0.0000E+00  0.6960E+03
  13.920  0.0000E+00  0.0000E+00  0.6960E+03
  13.930  0.0000E+00  0.0000E+00  0.6960E+03
  13.940  0.0000E+00  0.0000E+00  0.6960E+03
  13.950  0.0000E+00  0.0000E+00  0.6960E+03
  13.960  0.0000E+00  0.0000E+00  0.6960E+03
  13.970  0.0000E+00  0.0000E+00  0.6960E+03
  13.980  0.0000E+00  0.0000E+00  0.6960E+03
  13.990  0.0000E+00  0.0000E+00  0.6960E+03
  14.000  0.0000E+00  0.0000E+00  0.6960E+03
  14.010  0.0000E+00  0.0000E+00  0.6960E+03
  14.020  0.0000E+00  0.0000E+00  0.6960E+03
  14.030  0.0000E+00  0.0000E+00  0.6960E+03
  14.040  0.0000E+00  0.0000E+00  0.6960E+03
  14.050  0.0000E+00  0.0000E+00  0.6960E+03
  14.060  0.0000E+00  0.0000E+00  0.6960E+03
  14.070  0.0000E+00  0.0000E+00  0.6960E+03
  14.080  0.0000E+00  0.0000E+00  0.6960E+03
  14.090  0.0000E+00  0.0000E+00  0.6960E+03
  14.100  0.0000E+00  0.0000E+00  0.6960E+03
  14.110  0.0000E+00  0.0000E+00  0.6960E+03
  14.120  0.0000E+00  0.0000E+00  0.6960E+03
  14.130  0.0000E+00  0.0000E+00  0.6960E+03
  14.140  0.0000E+00  0.0000E+00  0.6960E+03
  14.150  0.0000E+00  0.0000E+00  0.6960E+03
  14.160  0.0000E+00  0.0000E+00  0.6960E+03
  14.170  0.0000E+00  0.0000E+00  0.6960E+03
  14.180  0.0000E+00  0.0000E+00  0.6960E+03
  14.190  0.0000E+00  0.0000E+00  0.6960E+03
  14.200  0.0000E+00  0.0000E+00  0.6960E+03
  14.210  0.0000E+00  0.0000E+00  0.6960E+03
  14.220  0.0000E+00  0.0000E+00  0.6960E+03
  14.230  0.0000E+00  0.0000E+00  0.6960E+03
  14.240  0.0000E+00  0.0000E+00  0.6960E+03
  14.250  0.0000E+00  0.0000E+00  0.6960E+03
  14.260  0.0000E+00  0.0000E+00  0.6960E+03
  14.270  0.0000E+00  0.0000E+00  0.6960E+03
  14.280  0.0000E+00  0.0000E+00  0.6960E+03
  14.290  0.0000E+00  0.0000E+00  0.6960E+03
  14.300  0.0000E+00  0.0000E+00  0.6960E+03
  14.310  0.0000E+00  0.0000E+00  0.6960E+03
  14.320  0.0000E+00  0.0000E+00  0.6960E+03
  14.330  0.0000E+00  0.0000E+00  0.6960E+03
  14.340  0.0000E+00  0.0000E+00  0.6960E+03
  14.350  0.0000E+00  0.0000E+00  0.6960E+03
  14.360  0.0000E+00  0.0000E+00  0.6960E+03
  14.370  0.0000E+00  0.0000E+00  0.6960E+03
  14.380  0.0000E+00  0.0000E+00  0.6960E+03
  14.390  0.0000E+00  0.0000E+00  0.6960E+03
  14.400  0.0000E+00  0.0000E+00  0.6960E+03
  14.410  0.0000E+00  0.0000E+00  0.6960E+03
  14.420  0.0000E+00  0.0000E+00  0.6960E+03
  14.430  0.0000E+00  0.0000E+00  0.6960E+03
  14.440  0.0000E+00  0.0000E+00  0.6960E+03
  14.450  0.0000E+00  0.0000E+00  0.6960E+03
  14.460  0.0000E+00  0.0000E+00  0.6960E+03
  14.470  0.0000E+00  0.0000E+00  0.6960E+03
  14.480  0.0000E+00  0.0000E+00  0.6960E+03
  14.490  0.0000E+00  0.0000E+00  0.6960E+03
  14.500  0.0000E+00  0.0000E+00  0.6960E+03
  14.510  0.0000E+00  0.0000E+00  0.6960E+03
  14.520  0.0000E+00  0.0000E+00  0.6960E+03
  14.530  0.0000E+00  0.0000E+00  0.6960E+03
  14.540  0.0000E+00  0.0000E+00  0.6960E+03
  14.550  0.0000E+00  0.0000E+00  0.6960E+03
  14.560  0.0000E+00  0.0000E+00  0.6960E+03
  14.570  0.0000E+00  0.0000E+00  0.6960E+03
  14.580  0.0000E+00  0.0000E+00  0.6960E+03
  14.590  0.0000E+00  0.0000E+00  0.6960E+03
  14.600  0.0000E+00  0.0000E+00  0.6960E+03
  14.610  0.0000E+00  0.0000E+00  0.6960E+03
  14.620  0.0000E+00  0.0000E+00  0.6960E+03
  14.630  0.0000E+00  0.0000E+00  0.6960E+03
  14.640  0.0000E+00  0.0000E+00  0.6960E+03
  14.650  0.0000E+00  0.0000E+00  0.6960E+03
  14.660  0.0000E+00  0.0000E+00  0.6960E+03
  14.670  0.0000E+00  0.0000E+00  0.6960E+03
  14.680  0.0000E+00  0.0000E+00  0.6960E+03
  14.690  0.0000E+00  0.0000E+00  0.6960E+03
  14.700  0.0000E+00  0.0000E+00  0.6960E+03
  14.710  0.0000E+00  0.0000E+00  0.6960E+03
  14.720  0.0000E+00  0.0000E+00  0.6960E+03
  14.730  0.0000E+00  0.0000E+00  0.6960E+03
  14.740  0.0000E+00  0.0000E+00  0.6960E+03
  14.750  0.0000E+00  0.0000E+00  0.6960E+03
  14.760  0.0000E+00  0.0000E+00  0.6960E+03
  14.770  0.0000E+00  0.0000E+00  0.6960E+03
  14.780  0.0000E+00  0.0000E+00  0.6960E+03
  14.790  0.0000E+00  0.0000E+00  0.6960E+03
  14.800  0.0000E+00  0.0000E+00  0.6960E+03
  14.810  0.0000E+00  0.0000E+00  0.6960E+03
  14.820  0.0000E+00  0.0000E+00  0.6960E+03
  14.830  0.0000E+00  0.0000E+00  0.6960E+03
  14.840  0.0000E+00  0.0000E+00  0.6960E+03
  14.850  0.0000E+00  0.0000E+00  0.6960E+03
  14.860  0.0000E+00  0.0000E+00  0.6960E+03
  14.870  0.0000E+00  0.0000E+00  0.6960E+03
  14.880  0.0000E+00  0.0000E+00  0.6960E+03
  14.890  0.0000E+00  0.0000E+00  0.6960E+03
  14.900  0.0000E+00  0.0000E+00  0.6960E+03
  14.910  0.0000E+00  0.0000E+00  0.6960E+03
  14.920  0.0000E+00  0.0000E+00  0.6960E+03
  14.930  0.0000E+00  0.0000E+00  0.6960E+03
  14.940  0.0000E+00  0.0000E+00  0.6960E+03
  14.950  0.0000E+00  0.0000E+00  0.6960E+03
  14.960  0.0000E+00  0.0000E+00  0.6960E+03
  14.970  0.0000E+00  0.0000E+00  0.6960E+03
  14.980  0.0000E+00  0.0000E+00  0.6960E+03
  14.990  0.0000E+00  0.0000E+00  0.6960E+03
  15.000  0.0000E+00  0.0000E+00  0.6960E+03
