#  E (eV)   dosup(E)     dosdw(E)   Int dos(E) EFermi =    6.277 eV
 -15.000  0.0000E+00  0.0000E+00  0.8000E+01
 -14.990  0.0000E+00  0.0000E+00  0.8000E+01
 -14.980  0.0000E+00  0.0000E+00  0.8000E+01
 -14.970  0.0000E+00  0.0000E+00  0.8000E+01
 -14.960  0.0000E+00  0.0000E+00  0.8000E+01
 -14.950  0.0000E+00  0.0000E+00  0.8000E+01
 -14.940  0.0000E+00  0.0000E+00  0.8000E+01
 -14.930  0.0000E+00  0.0000E+00  0.8000E+01
 -14.920  0.0000E+00  0.0000E+00  0.8000E+01
 -14.910  0.0000E+00  0.0000E+00  0.8000E+01
 -14.900  0.0000E+00  0.0000E+00  0.8000E+01
 -14.890  0.0000E+00  0.0000E+00  0.8000E+01
 -14.880  0.0000E+00  0.0000E+00  0.8000E+01
 -14.870  0.0000E+00  0.0000E+00  0.8000E+01
 -14.860  0.0000E+00  0.0000E+00  0.8000E+01
 -14.850  0.0000E+00  0.0000E+00  0.8000E+01
 -14.840  0.0000E+00  0.0000E+00  0.8000E+01
 -14.830  0.0000E+00  0.0000E+00  0.8000E+01
 -14.820  0.0000E+00  0.0000E+00  0.8000E+01
 -14.810  0.0000E+00  0.0000E+00  0.8000E+01
 -14.800  0.0000E+00  0.0000E+00  0.8000E+01
 -14.790  0.0000E+00  0.0000E+00  0.8000E+01
 -14.780  0.0000E+00  0.0000E+00  0.8000E+01
 -14.770  0.0000E+00  0.0000E+00  0.8000E+01
 -14.760  0.0000E+00  0.0000E+00  0.8000E+01
 -14.750  0.0000E+00  0.0000E+00  0.8000E+01
 -14.740  0.0000E+00  0.0000E+00  0.8000E+01
 -14.730  0.0000E+00  0.0000E+00  0.8000E+01
 -14.720  0.0000E+00  0.0000E+00  0.8000E+01
 -14.710  0.0000E+00  0.0000E+00  0.8000E+01
 -14.700  0.0000E+00  0.0000E+00  0.8000E+01
 -14.690  0.0000E+00  0.0000E+00  0.8000E+01
 -14.680  0.0000E+00  0.0000E+00  0.8000E+01
 -14.670  0.0000E+00  0.0000E+00  0.8000E+01
 -14.660  0.0000E+00  0.0000E+00  0.8000E+01
 -14.650  0.0000E+00  0.0000E+00  0.8000E+01
 -14.640  0.0000E+00  0.0000E+00  0.8000E+01
 -14.630  0.0000E+00  0.0000E+00  0.8000E+01
 -14.620  0.0000E+00  0.0000E+00  0.8000E+01
 -14.610  0.0000E+00  0.0000E+00  0.8000E+01
 -14.600  0.0000E+00  0.0000E+00  0.8000E+01
 -14.590  0.0000E+00  0.0000E+00  0.8000E+01
 -14.580  0.0000E+00  0.0000E+00  0.8000E+01
 -14.570  0.0000E+00  0.0000E+00  0.8000E+01
 -14.560  0.0000E+00  0.0000E+00  0.8000E+01
 -14.550  0.0000E+00  0.0000E+00  0.8000E+01
 -14.540  0.0000E+00  0.0000E+00  0.8000E+01
 -14.530  0.0000E+00  0.0000E+00  0.8000E+01
 -14.520  0.0000E+00  0.0000E+00  0.8000E+01
 -14.510  0.0000E+00  0.0000E+00  0.8000E+01
 -14.500  0.0000E+00  0.0000E+00  0.8000E+01
 -14.490  0.0000E+00  0.0000E+00  0.8000E+01
 -14.480  0.0000E+00  0.0000E+00  0.8000E+01
 -14.470  0.0000E+00  0.0000E+00  0.8000E+01
 -14.460  0.0000E+00  0.0000E+00  0.8000E+01
 -14.450  0.0000E+00  0.0000E+00  0.8000E+01
 -14.440  0.0000E+00  0.0000E+00  0.8000E+01
 -14.430  0.0000E+00  0.0000E+00  0.8000E+01
 -14.420  0.0000E+00  0.0000E+00  0.8000E+01
 -14.410  0.0000E+00  0.0000E+00  0.8000E+01
 -14.400  0.0000E+00  0.0000E+00  0.8000E+01
 -14.390  0.0000E+00  0.0000E+00  0.8000E+01
 -14.380  0.0000E+00  0.0000E+00  0.8000E+01
 -14.370  0.0000E+00  0.0000E+00  0.8000E+01
 -14.360  0.0000E+00  0.0000E+00  0.8000E+01
 -14.350  0.0000E+00  0.0000E+00  0.8000E+01
 -14.340  0.0000E+00  0.0000E+00  0.8000E+01
 -14.330  0.0000E+00  0.0000E+00  0.8000E+01
 -14.320  0.0000E+00  0.0000E+00  0.8000E+01
 -14.310  0.0000E+00  0.0000E+00  0.8000E+01
 -14.300  0.0000E+00  0.0000E+00  0.8000E+01
 -14.290  0.0000E+00  0.0000E+00  0.8000E+01
 -14.280  0.0000E+00  0.0000E+00  0.8000E+01
 -14.270  0.0000E+00  0.0000E+00  0.8000E+01
 -14.260  0.0000E+00  0.0000E+00  0.8000E+01
 -14.250  0.0000E+00  0.0000E+00  0.8000E+01
 -14.240  0.0000E+00  0.0000E+00  0.8000E+01
 -14.230  0.0000E+00  0.0000E+00  0.8000E+01
 -14.220  0.0000E+00  0.0000E+00  0.8000E+01
 -14.210  0.0000E+00  0.0000E+00  0.8000E+01
 -14.200  0.0000E+00  0.0000E+00  0.8000E+01
 -14.190  0.0000E+00  0.0000E+00  0.8000E+01
 -14.180  0.0000E+00  0.0000E+00  0.8000E+01
 -14.170  0.0000E+00  0.0000E+00  0.8000E+01
 -14.160  0.0000E+00  0.0000E+00  0.8000E+01
 -14.150  0.0000E+00  0.0000E+00  0.8000E+01
 -14.140  0.0000E+00  0.0000E+00  0.8000E+01
 -14.130  0.0000E+00  0.0000E+00  0.8000E+01
 -14.120  0.0000E+00  0.0000E+00  0.8000E+01
 -14.110  0.0000E+00  0.0000E+00  0.8000E+01
 -14.100  0.0000E+00  0.0000E+00  0.8000E+01
 -14.090  0.0000E+00  0.0000E+00  0.8000E+01
 -14.080  0.0000E+00  0.0000E+00  0.8000E+01
 -14.070  0.0000E+00  0.0000E+00  0.8000E+01
 -14.060  0.0000E+00  0.0000E+00  0.8000E+01
 -14.050  0.0000E+00  0.0000E+00  0.8000E+01
 -14.040  0.0000E+00  0.0000E+00  0.8000E+01
 -14.030  0.0000E+00  0.0000E+00  0.8000E+01
 -14.020  0.0000E+00  0.0000E+00  0.8000E+01
 -14.010  0.0000E+00  0.0000E+00  0.8000E+01
 -14.000  0.0000E+00  0.0000E+00  0.8000E+01
 -13.990  0.0000E+00  0.0000E+00  0.8000E+01
 -13.980  0.0000E+00  0.0000E+00  0.8000E+01
 -13.970  0.0000E+00  0.0000E+00  0.8000E+01
 -13.960  0.0000E+00  0.0000E+00  0.8000E+01
 -13.950  0.0000E+00  0.0000E+00  0.8000E+01
 -13.940  0.0000E+00  0.0000E+00  0.8000E+01
 -13.930  0.0000E+00  0.0000E+00  0.8000E+01
 -13.920  0.0000E+00  0.0000E+00  0.8000E+01
 -13.910  0.0000E+00  0.0000E+00  0.8000E+01
 -13.900  0.0000E+00  0.0000E+00  0.8000E+01
 -13.890  0.0000E+00  0.0000E+00  0.8000E+01
 -13.880  0.0000E+00  0.0000E+00  0.8000E+01
 -13.870  0.0000E+00  0.0000E+00  0.8000E+01
 -13.860  0.0000E+00  0.0000E+00  0.8000E+01
 -13.850  0.0000E+00  0.0000E+00  0.8000E+01
 -13.840  0.0000E+00  0.0000E+00  0.8000E+01
 -13.830  0.0000E+00  0.0000E+00  0.8000E+01
 -13.820  0.0000E+00  0.0000E+00  0.8000E+01
 -13.810  0.0000E+00  0.0000E+00  0.8000E+01
 -13.800  0.0000E+00  0.0000E+00  0.8000E+01
 -13.790  0.0000E+00  0.0000E+00  0.8000E+01
 -13.780  0.0000E+00  0.0000E+00  0.8000E+01
 -13.770  0.0000E+00  0.0000E+00  0.8000E+01
 -13.760  0.0000E+00  0.0000E+00  0.8000E+01
 -13.750  0.0000E+00  0.0000E+00  0.8000E+01
 -13.740  0.0000E+00  0.0000E+00  0.8000E+01
 -13.730  0.0000E+00  0.0000E+00  0.8000E+01
 -13.720  0.0000E+00  0.0000E+00  0.8000E+01
 -13.710  0.0000E+00  0.0000E+00  0.8000E+01
 -13.700  0.0000E+00  0.0000E+00  0.8000E+01
 -13.690  0.0000E+00  0.0000E+00  0.8000E+01
 -13.680  0.0000E+00  0.0000E+00  0.8000E+01
 -13.670  0.0000E+00  0.0000E+00  0.8000E+01
 -13.660  0.0000E+00  0.0000E+00  0.8000E+01
 -13.650  0.0000E+00  0.0000E+00  0.8000E+01
 -13.640  0.0000E+00  0.0000E+00  0.8000E+01
 -13.630  0.0000E+00  0.0000E+00  0.8000E+01
 -13.620  0.0000E+00  0.0000E+00  0.8000E+01
 -13.610  0.0000E+00  0.0000E+00  0.8000E+01
 -13.600  0.0000E+00  0.0000E+00  0.8000E+01
 -13.590  0.0000E+00  0.0000E+00  0.8000E+01
 -13.580  0.0000E+00  0.0000E+00  0.8000E+01
 -13.570  0.0000E+00  0.0000E+00  0.8000E+01
 -13.560  0.0000E+00  0.0000E+00  0.8000E+01
 -13.550  0.0000E+00  0.0000E+00  0.8000E+01
 -13.540  0.0000E+00  0.0000E+00  0.8000E+01
 -13.530  0.0000E+00  0.0000E+00  0.8000E+01
 -13.520  0.0000E+00  0.0000E+00  0.8000E+01
 -13.510  0.0000E+00  0.0000E+00  0.8000E+01
 -13.500  0.0000E+00  0.0000E+00  0.8000E+01
 -13.490  0.0000E+00  0.0000E+00  0.8000E+01
 -13.480  0.0000E+00  0.0000E+00  0.8000E+01
 -13.470  0.0000E+00  0.0000E+00  0.8000E+01
 -13.460  0.0000E+00  0.0000E+00  0.8000E+01
 -13.450  0.0000E+00  0.0000E+00  0.8000E+01
 -13.440  0.0000E+00  0.0000E+00  0.8000E+01
 -13.430  0.0000E+00  0.0000E+00  0.8000E+01
 -13.420  0.0000E+00  0.0000E+00  0.8000E+01
 -13.410  0.0000E+00  0.0000E+00  0.8000E+01
 -13.400  0.0000E+00  0.0000E+00  0.8000E+01
 -13.390  0.0000E+00  0.0000E+00  0.8000E+01
 -13.380  0.0000E+00  0.0000E+00  0.8000E+01
 -13.370  0.0000E+00  0.0000E+00  0.8000E+01
 -13.360  0.0000E+00  0.0000E+00  0.8000E+01
 -13.350  0.0000E+00  0.0000E+00  0.8000E+01
 -13.340  0.0000E+00  0.0000E+00  0.8000E+01
 -13.330  0.0000E+00  0.0000E+00  0.8000E+01
 -13.320  0.0000E+00  0.0000E+00  0.8000E+01
 -13.310  0.0000E+00  0.0000E+00  0.8000E+01
 -13.300  0.0000E+00  0.0000E+00  0.8000E+01
 -13.290  0.0000E+00  0.0000E+00  0.8000E+01
 -13.280  0.0000E+00  0.0000E+00  0.8000E+01
 -13.270  0.0000E+00  0.0000E+00  0.8000E+01
 -13.260  0.0000E+00  0.0000E+00  0.8000E+01
 -13.250  0.0000E+00  0.0000E+00  0.8000E+01
 -13.240  0.0000E+00  0.0000E+00  0.8000E+01
 -13.230  0.0000E+00  0.0000E+00  0.8000E+01
 -13.220  0.0000E+00  0.0000E+00  0.8000E+01
 -13.210  0.0000E+00  0.0000E+00  0.8000E+01
 -13.200  0.0000E+00  0.0000E+00  0.8000E+01
 -13.190  0.0000E+00  0.0000E+00  0.8000E+01
 -13.180  0.0000E+00  0.0000E+00  0.8000E+01
 -13.170  0.0000E+00  0.0000E+00  0.8000E+01
 -13.160  0.0000E+00  0.0000E+00  0.8000E+01
 -13.150  0.0000E+00  0.0000E+00  0.8000E+01
 -13.140  0.0000E+00  0.0000E+00  0.8000E+01
 -13.130  0.0000E+00  0.0000E+00  0.8000E+01
 -13.120  0.0000E+00  0.0000E+00  0.8000E+01
 -13.110  0.0000E+00  0.0000E+00  0.8000E+01
 -13.100  0.0000E+00  0.0000E+00  0.8000E+01
 -13.090  0.0000E+00  0.0000E+00  0.8000E+01
 -13.080  0.0000E+00  0.0000E+00  0.8000E+01
 -13.070  0.0000E+00  0.0000E+00  0.8000E+01
 -13.060  0.0000E+00  0.0000E+00  0.8000E+01
 -13.050  0.0000E+00  0.0000E+00  0.8000E+01
 -13.040  0.0000E+00  0.0000E+00  0.8000E+01
 -13.030  0.0000E+00  0.0000E+00  0.8000E+01
 -13.020  0.0000E+00  0.0000E+00  0.8000E+01
 -13.010  0.0000E+00  0.0000E+00  0.8000E+01
 -13.000  0.0000E+00  0.0000E+00  0.8000E+01
 -12.990  0.0000E+00  0.0000E+00  0.8000E+01
 -12.980  0.0000E+00  0.0000E+00  0.8000E+01
 -12.970  0.0000E+00  0.0000E+00  0.8000E+01
 -12.960  0.0000E+00  0.0000E+00  0.8000E+01
 -12.950  0.0000E+00  0.0000E+00  0.8000E+01
 -12.940  0.0000E+00  0.0000E+00  0.8000E+01
 -12.930  0.0000E+00  0.0000E+00  0.8000E+01
 -12.920  0.0000E+00  0.0000E+00  0.8000E+01
 -12.910  0.0000E+00  0.0000E+00  0.8000E+01
 -12.900  0.0000E+00  0.0000E+00  0.8000E+01
 -12.890  0.0000E+00  0.0000E+00  0.8000E+01
 -12.880  0.0000E+00  0.0000E+00  0.8000E+01
 -12.870  0.0000E+00  0.0000E+00  0.8000E+01
 -12.860  0.0000E+00  0.0000E+00  0.8000E+01
 -12.850  0.0000E+00  0.0000E+00  0.8000E+01
 -12.840  0.0000E+00  0.0000E+00  0.8000E+01
 -12.830  0.0000E+00  0.0000E+00  0.8000E+01
 -12.820  0.0000E+00  0.0000E+00  0.8000E+01
 -12.810  0.0000E+00  0.0000E+00  0.8000E+01
 -12.800  0.0000E+00  0.0000E+00  0.8000E+01
 -12.790  0.0000E+00  0.0000E+00  0.8000E+01
 -12.780  0.0000E+00  0.0000E+00  0.8000E+01
 -12.770  0.0000E+00  0.0000E+00  0.8000E+01
 -12.760  0.0000E+00  0.0000E+00  0.8000E+01
 -12.750  0.0000E+00  0.0000E+00  0.8000E+01
 -12.740  0.0000E+00  0.0000E+00  0.8000E+01
 -12.730  0.0000E+00  0.0000E+00  0.8000E+01
 -12.720  0.0000E+00  0.0000E+00  0.8000E+01
 -12.710  0.0000E+00  0.0000E+00  0.8000E+01
 -12.700  0.0000E+00  0.0000E+00  0.8000E+01
 -12.690  0.0000E+00  0.0000E+00  0.8000E+01
 -12.680  0.0000E+00  0.0000E+00  0.8000E+01
 -12.670  0.0000E+00  0.0000E+00  0.8000E+01
 -12.660  0.0000E+00  0.0000E+00  0.8000E+01
 -12.650  0.0000E+00  0.0000E+00  0.8000E+01
 -12.640  0.0000E+00  0.0000E+00  0.8000E+01
 -12.630  0.0000E+00  0.0000E+00  0.8000E+01
 -12.620  0.0000E+00  0.0000E+00  0.8000E+01
 -12.610  0.0000E+00  0.0000E+00  0.8000E+01
 -12.600  0.0000E+00  0.0000E+00  0.8000E+01
 -12.590  0.0000E+00  0.0000E+00  0.8000E+01
 -12.580  0.0000E+00  0.0000E+00  0.8000E+01
 -12.570  0.0000E+00  0.0000E+00  0.8000E+01
 -12.560  0.0000E+00  0.0000E+00  0.8000E+01
 -12.550  0.0000E+00  0.0000E+00  0.8000E+01
 -12.540  0.0000E+00  0.0000E+00  0.8000E+01
 -12.530  0.0000E+00  0.0000E+00  0.8000E+01
 -12.520  0.0000E+00  0.0000E+00  0.8000E+01
 -12.510  0.0000E+00  0.0000E+00  0.8000E+01
 -12.500  0.0000E+00  0.0000E+00  0.8000E+01
 -12.490  0.0000E+00  0.0000E+00  0.8000E+01
 -12.480  0.0000E+00  0.0000E+00  0.8000E+01
 -12.470  0.0000E+00  0.0000E+00  0.8000E+01
 -12.460  0.0000E+00  0.0000E+00  0.8000E+01
 -12.450  0.0000E+00  0.0000E+00  0.8000E+01
 -12.440  0.0000E+00  0.0000E+00  0.8000E+01
 -12.430  0.0000E+00  0.0000E+00  0.8000E+01
 -12.420  0.0000E+00  0.0000E+00  0.8000E+01
 -12.410  0.0000E+00  0.0000E+00  0.8000E+01
 -12.400  0.0000E+00  0.0000E+00  0.8000E+01
 -12.390  0.0000E+00  0.0000E+00  0.8000E+01
 -12.380  0.0000E+00  0.0000E+00  0.8000E+01
 -12.370  0.0000E+00  0.0000E+00  0.8000E+01
 -12.360  0.0000E+00  0.0000E+00  0.8000E+01
 -12.350  0.0000E+00  0.0000E+00  0.8000E+01
 -12.340  0.0000E+00  0.0000E+00  0.8000E+01
 -12.330  0.0000E+00  0.0000E+00  0.8000E+01
 -12.320  0.0000E+00  0.0000E+00  0.8000E+01
 -12.310  0.0000E+00  0.0000E+00  0.8000E+01
 -12.300  0.0000E+00  0.0000E+00  0.8000E+01
 -12.290  0.0000E+00  0.0000E+00  0.8000E+01
 -12.280  0.0000E+00  0.0000E+00  0.8000E+01
 -12.270  0.0000E+00  0.0000E+00  0.8000E+01
 -12.260  0.0000E+00  0.0000E+00  0.8000E+01
 -12.250  0.0000E+00  0.0000E+00  0.8000E+01
 -12.240  0.0000E+00  0.0000E+00  0.8000E+01
 -12.230  0.0000E+00  0.0000E+00  0.8000E+01
 -12.220  0.0000E+00  0.0000E+00  0.8000E+01
 -12.210  0.0000E+00  0.0000E+00  0.8000E+01
 -12.200  0.0000E+00  0.0000E+00  0.8000E+01
 -12.190  0.0000E+00  0.0000E+00  0.8000E+01
 -12.180  0.0000E+00  0.0000E+00  0.8000E+01
 -12.170  0.0000E+00  0.0000E+00  0.8000E+01
 -12.160  0.0000E+00  0.0000E+00  0.8000E+01
 -12.150  0.0000E+00  0.0000E+00  0.8000E+01
 -12.140  0.0000E+00  0.0000E+00  0.8000E+01
 -12.130  0.0000E+00  0.0000E+00  0.8000E+01
 -12.120  0.0000E+00  0.0000E+00  0.8000E+01
 -12.110  0.0000E+00  0.0000E+00  0.8000E+01
 -12.100  0.0000E+00  0.0000E+00  0.8000E+01
 -12.090  0.0000E+00  0.0000E+00  0.8000E+01
 -12.080  0.0000E+00  0.0000E+00  0.8000E+01
 -12.070  0.0000E+00  0.0000E+00  0.8000E+01
 -12.060  0.0000E+00  0.0000E+00  0.8000E+01
 -12.050  0.0000E+00  0.0000E+00  0.8000E+01
 -12.040  0.0000E+00  0.0000E+00  0.8000E+01
 -12.030  0.0000E+00  0.0000E+00  0.8000E+01
 -12.020  0.0000E+00  0.0000E+00  0.8000E+01
 -12.010  0.0000E+00  0.0000E+00  0.8000E+01
 -12.000  0.0000E+00  0.0000E+00  0.8000E+01
 -11.990  0.0000E+00  0.0000E+00  0.8000E+01
 -11.980  0.0000E+00  0.0000E+00  0.8000E+01
 -11.970  0.0000E+00  0.0000E+00  0.8000E+01
 -11.960  0.0000E+00  0.0000E+00  0.8000E+01
 -11.950  0.0000E+00  0.0000E+00  0.8000E+01
 -11.940  0.0000E+00  0.0000E+00  0.8000E+01
 -11.930  0.0000E+00  0.0000E+00  0.8000E+01
 -11.920  0.0000E+00  0.0000E+00  0.8000E+01
 -11.910  0.0000E+00  0.0000E+00  0.8000E+01
 -11.900  0.0000E+00  0.0000E+00  0.8000E+01
 -11.890  0.0000E+00  0.0000E+00  0.8000E+01
 -11.880  0.0000E+00  0.0000E+00  0.8000E+01
 -11.870  0.0000E+00  0.0000E+00  0.8000E+01
 -11.860  0.0000E+00  0.0000E+00  0.8000E+01
 -11.850  0.0000E+00  0.0000E+00  0.8000E+01
 -11.840  0.0000E+00  0.0000E+00  0.8000E+01
 -11.830  0.0000E+00  0.0000E+00  0.8000E+01
 -11.820  0.0000E+00  0.0000E+00  0.8000E+01
 -11.810  0.0000E+00  0.0000E+00  0.8000E+01
 -11.800  0.0000E+00  0.0000E+00  0.8000E+01
 -11.790  0.0000E+00  0.0000E+00  0.8000E+01
 -11.780  0.0000E+00  0.0000E+00  0.8000E+01
 -11.770  0.0000E+00  0.0000E+00  0.8000E+01
 -11.760  0.0000E+00  0.0000E+00  0.8000E+01
 -11.750  0.0000E+00  0.0000E+00  0.8000E+01
 -11.740  0.0000E+00  0.0000E+00  0.8000E+01
 -11.730  0.0000E+00  0.0000E+00  0.8000E+01
 -11.720  0.0000E+00  0.0000E+00  0.8000E+01
 -11.710  0.0000E+00  0.0000E+00  0.8000E+01
 -11.700  0.0000E+00  0.0000E+00  0.8000E+01
 -11.690  0.0000E+00  0.0000E+00  0.8000E+01
 -11.680  0.0000E+00  0.0000E+00  0.8000E+01
 -11.670  0.0000E+00  0.0000E+00  0.8000E+01
 -11.660  0.0000E+00  0.0000E+00  0.8000E+01
 -11.650  0.0000E+00  0.0000E+00  0.8000E+01
 -11.640  0.0000E+00  0.0000E+00  0.8000E+01
 -11.630  0.0000E+00  0.0000E+00  0.8000E+01
 -11.620  0.0000E+00  0.0000E+00  0.8000E+01
 -11.610  0.0000E+00  0.0000E+00  0.8000E+01
 -11.600  0.0000E+00  0.0000E+00  0.8000E+01
 -11.590  0.0000E+00  0.0000E+00  0.8000E+01
 -11.580  0.0000E+00  0.0000E+00  0.8000E+01
 -11.570  0.0000E+00  0.0000E+00  0.8000E+01
 -11.560  0.0000E+00  0.0000E+00  0.8000E+01
 -11.550  0.0000E+00  0.0000E+00  0.8000E+01
 -11.540  0.0000E+00  0.0000E+00  0.8000E+01
 -11.530  0.0000E+00  0.0000E+00  0.8000E+01
 -11.520  0.0000E+00  0.0000E+00  0.8000E+01
 -11.510  0.0000E+00  0.0000E+00  0.8000E+01
 -11.500  0.0000E+00  0.0000E+00  0.8000E+01
 -11.490  0.0000E+00  0.0000E+00  0.8000E+01
 -11.480  0.0000E+00  0.0000E+00  0.8000E+01
 -11.470  0.0000E+00  0.0000E+00  0.8000E+01
 -11.460  0.0000E+00  0.0000E+00  0.8000E+01
 -11.450  0.0000E+00  0.0000E+00  0.8000E+01
 -11.440  0.0000E+00  0.0000E+00  0.8000E+01
 -11.430  0.0000E+00  0.0000E+00  0.8000E+01
 -11.420  0.0000E+00  0.0000E+00  0.8000E+01
 -11.410  0.0000E+00  0.0000E+00  0.8000E+01
 -11.400  0.0000E+00  0.0000E+00  0.8000E+01
 -11.390  0.0000E+00  0.0000E+00  0.8000E+01
 -11.380  0.0000E+00  0.0000E+00  0.8000E+01
 -11.370  0.0000E+00  0.0000E+00  0.8000E+01
 -11.360  0.0000E+00  0.0000E+00  0.8000E+01
 -11.350  0.0000E+00  0.0000E+00  0.8000E+01
 -11.340  0.0000E+00  0.0000E+00  0.8000E+01
 -11.330  0.0000E+00  0.0000E+00  0.8000E+01
 -11.320  0.0000E+00  0.0000E+00  0.8000E+01
 -11.310  0.0000E+00  0.0000E+00  0.8000E+01
 -11.300  0.0000E+00  0.0000E+00  0.8000E+01
 -11.290  0.0000E+00  0.0000E+00  0.8000E+01
 -11.280  0.0000E+00  0.0000E+00  0.8000E+01
 -11.270  0.0000E+00  0.0000E+00  0.8000E+01
 -11.260  0.0000E+00  0.0000E+00  0.8000E+01
 -11.250  0.0000E+00  0.0000E+00  0.8000E+01
 -11.240  0.0000E+00  0.0000E+00  0.8000E+01
 -11.230  0.0000E+00  0.0000E+00  0.8000E+01
 -11.220  0.0000E+00  0.0000E+00  0.8000E+01
 -11.210  0.0000E+00  0.0000E+00  0.8000E+01
 -11.200  0.0000E+00  0.0000E+00  0.8000E+01
 -11.190  0.0000E+00  0.0000E+00  0.8000E+01
 -11.180  0.0000E+00  0.0000E+00  0.8000E+01
 -11.170  0.0000E+00  0.0000E+00  0.8000E+01
 -11.160  0.0000E+00  0.0000E+00  0.8000E+01
 -11.150  0.0000E+00  0.0000E+00  0.8000E+01
 -11.140  0.0000E+00  0.0000E+00  0.8000E+01
 -11.130  0.0000E+00  0.0000E+00  0.8000E+01
 -11.120  0.0000E+00  0.0000E+00  0.8000E+01
 -11.110  0.0000E+00  0.0000E+00  0.8000E+01
 -11.100  0.0000E+00  0.0000E+00  0.8000E+01
 -11.090  0.0000E+00  0.0000E+00  0.8000E+01
 -11.080  0.0000E+00  0.0000E+00  0.8000E+01
 -11.070  0.0000E+00  0.0000E+00  0.8000E+01
 -11.060  0.0000E+00  0.0000E+00  0.8000E+01
 -11.050  0.0000E+00  0.0000E+00  0.8000E+01
 -11.040  0.0000E+00  0.0000E+00  0.8000E+01
 -11.030  0.0000E+00  0.0000E+00  0.8000E+01
 -11.020  0.0000E+00  0.0000E+00  0.8000E+01
 -11.010  0.0000E+00  0.0000E+00  0.8000E+01
 -11.000  0.0000E+00  0.0000E+00  0.8000E+01
 -10.990  0.0000E+00  0.0000E+00  0.8000E+01
 -10.980  0.0000E+00  0.0000E+00  0.8000E+01
 -10.970  0.0000E+00  0.0000E+00  0.8000E+01
 -10.960  0.0000E+00  0.0000E+00  0.8000E+01
 -10.950  0.0000E+00  0.0000E+00  0.8000E+01
 -10.940  0.0000E+00  0.0000E+00  0.8000E+01
 -10.930  0.0000E+00  0.0000E+00  0.8000E+01
 -10.920  0.0000E+00  0.0000E+00  0.8000E+01
 -10.910  0.0000E+00  0.0000E+00  0.8000E+01
 -10.900  0.0000E+00  0.0000E+00  0.8000E+01
 -10.890  0.0000E+00  0.0000E+00  0.8000E+01
 -10.880  0.0000E+00  0.0000E+00  0.8000E+01
 -10.870  0.0000E+00  0.0000E+00  0.8000E+01
 -10.860  0.0000E+00  0.0000E+00  0.8000E+01
 -10.850  0.0000E+00  0.0000E+00  0.8000E+01
 -10.840  0.0000E+00  0.0000E+00  0.8000E+01
 -10.830  0.0000E+00  0.0000E+00  0.8000E+01
 -10.820  0.0000E+00  0.0000E+00  0.8000E+01
 -10.810  0.0000E+00  0.0000E+00  0.8000E+01
 -10.800  0.0000E+00  0.0000E+00  0.8000E+01
 -10.790  0.0000E+00  0.0000E+00  0.8000E+01
 -10.780  0.0000E+00  0.0000E+00  0.8000E+01
 -10.770  0.0000E+00  0.0000E+00  0.8000E+01
 -10.760  0.0000E+00  0.0000E+00  0.8000E+01
 -10.750  0.0000E+00  0.0000E+00  0.8000E+01
 -10.740  0.0000E+00  0.0000E+00  0.8000E+01
 -10.730  0.0000E+00  0.0000E+00  0.8000E+01
 -10.720  0.0000E+00  0.0000E+00  0.8000E+01
 -10.710  0.0000E+00  0.0000E+00  0.8000E+01
 -10.700  0.0000E+00  0.0000E+00  0.8000E+01
 -10.690  0.0000E+00  0.0000E+00  0.8000E+01
 -10.680  0.0000E+00  0.0000E+00  0.8000E+01
 -10.670  0.0000E+00  0.0000E+00  0.8000E+01
 -10.660  0.0000E+00  0.0000E+00  0.8000E+01
 -10.650  0.0000E+00  0.0000E+00  0.8000E+01
 -10.640  0.0000E+00  0.0000E+00  0.8000E+01
 -10.630  0.0000E+00  0.0000E+00  0.8000E+01
 -10.620  0.0000E+00  0.0000E+00  0.8000E+01
 -10.610  0.0000E+00  0.0000E+00  0.8000E+01
 -10.600  0.0000E+00  0.0000E+00  0.8000E+01
 -10.590  0.0000E+00  0.0000E+00  0.8000E+01
 -10.580  0.0000E+00  0.0000E+00  0.8000E+01
 -10.570  0.0000E+00  0.0000E+00  0.8000E+01
 -10.560  0.0000E+00  0.0000E+00  0.8000E+01
 -10.550  0.0000E+00  0.0000E+00  0.8000E+01
 -10.540  0.0000E+00  0.0000E+00  0.8000E+01
 -10.530  0.0000E+00  0.0000E+00  0.8000E+01
 -10.520  0.0000E+00  0.0000E+00  0.8000E+01
 -10.510  0.0000E+00  0.0000E+00  0.8000E+01
 -10.500  0.0000E+00  0.0000E+00  0.8000E+01
 -10.490  0.0000E+00  0.0000E+00  0.8000E+01
 -10.480  0.0000E+00  0.0000E+00  0.8000E+01
 -10.470  0.0000E+00  0.0000E+00  0.8000E+01
 -10.460  0.0000E+00  0.0000E+00  0.8000E+01
 -10.450  0.0000E+00  0.0000E+00  0.8000E+01
 -10.440  0.0000E+00  0.0000E+00  0.8000E+01
 -10.430  0.0000E+00  0.0000E+00  0.8000E+01
 -10.420  0.0000E+00  0.0000E+00  0.8000E+01
 -10.410  0.0000E+00  0.0000E+00  0.8000E+01
 -10.400  0.0000E+00  0.0000E+00  0.8000E+01
 -10.390  0.0000E+00  0.0000E+00  0.8000E+01
 -10.380  0.0000E+00  0.0000E+00  0.8000E+01
 -10.370  0.0000E+00  0.0000E+00  0.8000E+01
 -10.360  0.0000E+00  0.0000E+00  0.8000E+01
 -10.350  0.0000E+00  0.0000E+00  0.8000E+01
 -10.340  0.0000E+00  0.0000E+00  0.8000E+01
 -10.330  0.0000E+00  0.0000E+00  0.8000E+01
 -10.320  0.0000E+00  0.0000E+00  0.8000E+01
 -10.310  0.0000E+00  0.0000E+00  0.8000E+01
 -10.300  0.0000E+00  0.0000E+00  0.8000E+01
 -10.290  0.0000E+00  0.0000E+00  0.8000E+01
 -10.280  0.0000E+00  0.0000E+00  0.8000E+01
 -10.270  0.0000E+00  0.0000E+00  0.8000E+01
 -10.260  0.0000E+00  0.0000E+00  0.8000E+01
 -10.250  0.0000E+00  0.0000E+00  0.8000E+01
 -10.240  0.0000E+00  0.0000E+00  0.8000E+01
 -10.230  0.0000E+00  0.0000E+00  0.8000E+01
 -10.220  0.0000E+00  0.0000E+00  0.8000E+01
 -10.210  0.0000E+00  0.0000E+00  0.8000E+01
 -10.200  0.0000E+00  0.0000E+00  0.8000E+01
 -10.190  0.0000E+00  0.0000E+00  0.8000E+01
 -10.180  0.0000E+00  0.0000E+00  0.8000E+01
 -10.170  0.0000E+00  0.0000E+00  0.8000E+01
 -10.160  0.0000E+00  0.0000E+00  0.8000E+01
 -10.150  0.0000E+00  0.0000E+00  0.8000E+01
 -10.140  0.0000E+00  0.0000E+00  0.8000E+01
 -10.130  0.0000E+00  0.0000E+00  0.8000E+01
 -10.120  0.0000E+00  0.0000E+00  0.8000E+01
 -10.110  0.0000E+00  0.0000E+00  0.8000E+01
 -10.100  0.0000E+00  0.0000E+00  0.8000E+01
 -10.090  0.0000E+00  0.0000E+00  0.8000E+01
 -10.080  0.0000E+00  0.0000E+00  0.8000E+01
 -10.070  0.0000E+00  0.0000E+00  0.8000E+01
 -10.060  0.0000E+00  0.0000E+00  0.8000E+01
 -10.050  0.0000E+00  0.0000E+00  0.8000E+01
 -10.040  0.0000E+00  0.0000E+00  0.8000E+01
 -10.030  0.0000E+00  0.0000E+00  0.8000E+01
 -10.020  0.0000E+00  0.0000E+00  0.8000E+01
 -10.010  0.0000E+00  0.0000E+00  0.8000E+01
 -10.000  0.0000E+00  0.0000E+00  0.8000E+01
  -9.990  0.0000E+00  0.0000E+00  0.8000E+01
  -9.980  0.0000E+00  0.0000E+00  0.8000E+01
  -9.970  0.0000E+00  0.0000E+00  0.8000E+01
  -9.960  0.0000E+00  0.0000E+00  0.8000E+01
  -9.950  0.0000E+00  0.0000E+00  0.8000E+01
  -9.940  0.0000E+00  0.0000E+00  0.8000E+01
  -9.930  0.0000E+00  0.0000E+00  0.8000E+01
  -9.920  0.0000E+00  0.0000E+00  0.8000E+01
  -9.910  0.0000E+00  0.0000E+00  0.8000E+01
  -9.900  0.0000E+00  0.0000E+00  0.8000E+01
  -9.890  0.0000E+00  0.0000E+00  0.8000E+01
  -9.880  0.0000E+00  0.0000E+00  0.8000E+01
  -9.870  0.0000E+00  0.0000E+00  0.8000E+01
  -9.860  0.0000E+00  0.0000E+00  0.8000E+01
  -9.850  0.0000E+00  0.0000E+00  0.8000E+01
  -9.840  0.0000E+00  0.0000E+00  0.8000E+01
  -9.830  0.0000E+00  0.0000E+00  0.8000E+01
  -9.820  0.0000E+00  0.0000E+00  0.8000E+01
  -9.810  0.0000E+00  0.0000E+00  0.8000E+01
  -9.800  0.0000E+00  0.0000E+00  0.8000E+01
  -9.790  0.0000E+00  0.0000E+00  0.8000E+01
  -9.780  0.0000E+00  0.0000E+00  0.8000E+01
  -9.770  0.0000E+00  0.0000E+00  0.8000E+01
  -9.760  0.0000E+00  0.0000E+00  0.8000E+01
  -9.750  0.0000E+00  0.0000E+00  0.8000E+01
  -9.740  0.0000E+00  0.0000E+00  0.8000E+01
  -9.730  0.0000E+00  0.0000E+00  0.8000E+01
  -9.720  0.0000E+00  0.0000E+00  0.8000E+01
  -9.710  0.0000E+00  0.0000E+00  0.8000E+01
  -9.700  0.0000E+00  0.0000E+00  0.8000E+01
  -9.690  0.0000E+00  0.0000E+00  0.8000E+01
  -9.680  0.0000E+00  0.0000E+00  0.8000E+01
  -9.670  0.0000E+00  0.0000E+00  0.8000E+01
  -9.660  0.0000E+00  0.0000E+00  0.8000E+01
  -9.650  0.0000E+00  0.0000E+00  0.8000E+01
  -9.640  0.0000E+00  0.0000E+00  0.8000E+01
  -9.630  0.0000E+00  0.0000E+00  0.8000E+01
  -9.620  0.0000E+00  0.0000E+00  0.8000E+01
  -9.610  0.0000E+00  0.0000E+00  0.8000E+01
  -9.600  0.0000E+00  0.0000E+00  0.8000E+01
  -9.590  0.0000E+00  0.0000E+00  0.8000E+01
  -9.580  0.0000E+00  0.0000E+00  0.8000E+01
  -9.570  0.0000E+00  0.0000E+00  0.8000E+01
  -9.560  0.0000E+00  0.0000E+00  0.8000E+01
  -9.550  0.0000E+00  0.0000E+00  0.8000E+01
  -9.540  0.0000E+00  0.0000E+00  0.8000E+01
  -9.530  0.0000E+00  0.0000E+00  0.8000E+01
  -9.520  0.0000E+00  0.0000E+00  0.8000E+01
  -9.510  0.0000E+00  0.0000E+00  0.8000E+01
  -9.500  0.0000E+00  0.0000E+00  0.8000E+01
  -9.490  0.0000E+00  0.0000E+00  0.8000E+01
  -9.480  0.0000E+00  0.0000E+00  0.8000E+01
  -9.470  0.0000E+00  0.0000E+00  0.8000E+01
  -9.460  0.0000E+00  0.0000E+00  0.8000E+01
  -9.450  0.0000E+00  0.0000E+00  0.8000E+01
  -9.440  0.0000E+00  0.0000E+00  0.8000E+01
  -9.430  0.0000E+00  0.0000E+00  0.8000E+01
  -9.420  0.0000E+00  0.0000E+00  0.8000E+01
  -9.410  0.0000E+00  0.0000E+00  0.8000E+01
  -9.400  0.0000E+00  0.0000E+00  0.8000E+01
  -9.390  0.0000E+00  0.0000E+00  0.8000E+01
  -9.380  0.0000E+00  0.0000E+00  0.8000E+01
  -9.370  0.0000E+00  0.0000E+00  0.8000E+01
  -9.360  0.0000E+00  0.0000E+00  0.8000E+01
  -9.350  0.0000E+00  0.0000E+00  0.8000E+01
  -9.340  0.0000E+00  0.0000E+00  0.8000E+01
  -9.330  0.0000E+00  0.0000E+00  0.8000E+01
  -9.320  0.0000E+00  0.0000E+00  0.8000E+01
  -9.310  0.0000E+00  0.0000E+00  0.8000E+01
  -9.300  0.0000E+00  0.0000E+00  0.8000E+01
  -9.290  0.0000E+00  0.0000E+00  0.8000E+01
  -9.280  0.0000E+00  0.0000E+00  0.8000E+01
  -9.270  0.0000E+00  0.0000E+00  0.8000E+01
  -9.260  0.0000E+00  0.0000E+00  0.8000E+01
  -9.250  0.0000E+00  0.0000E+00  0.8000E+01
  -9.240  0.0000E+00  0.0000E+00  0.8000E+01
  -9.230  0.0000E+00  0.0000E+00  0.8000E+01
  -9.220  0.0000E+00  0.0000E+00  0.8000E+01
  -9.210  0.0000E+00  0.0000E+00  0.8000E+01
  -9.200  0.0000E+00  0.0000E+00  0.8000E+01
  -9.190  0.0000E+00  0.0000E+00  0.8000E+01
  -9.180  0.0000E+00  0.0000E+00  0.8000E+01
  -9.170  0.0000E+00  0.0000E+00  0.8000E+01
  -9.160  0.0000E+00  0.0000E+00  0.8000E+01
  -9.150  0.0000E+00  0.0000E+00  0.8000E+01
  -9.140  0.0000E+00  0.0000E+00  0.8000E+01
  -9.130  0.0000E+00  0.0000E+00  0.8000E+01
  -9.120  0.0000E+00  0.0000E+00  0.8000E+01
  -9.110  0.0000E+00  0.0000E+00  0.8000E+01
  -9.100  0.0000E+00  0.0000E+00  0.8000E+01
  -9.090  0.0000E+00  0.0000E+00  0.8000E+01
  -9.080  0.0000E+00  0.0000E+00  0.8000E+01
  -9.070  0.0000E+00  0.0000E+00  0.8000E+01
  -9.060  0.0000E+00  0.0000E+00  0.8000E+01
  -9.050  0.0000E+00  0.0000E+00  0.8000E+01
  -9.040  0.0000E+00  0.0000E+00  0.8000E+01
  -9.030  0.0000E+00  0.0000E+00  0.8000E+01
  -9.020  0.0000E+00  0.0000E+00  0.8000E+01
  -9.010  0.0000E+00  0.0000E+00  0.8000E+01
  -9.000  0.0000E+00  0.0000E+00  0.8000E+01
  -8.990  0.0000E+00  0.0000E+00  0.8000E+01
  -8.980  0.0000E+00  0.0000E+00  0.8000E+01
  -8.970  0.0000E+00  0.0000E+00  0.8000E+01
  -8.960  0.0000E+00  0.0000E+00  0.8000E+01
  -8.950  0.0000E+00  0.0000E+00  0.8000E+01
  -8.940  0.0000E+00  0.0000E+00  0.8000E+01
  -8.930  0.0000E+00  0.0000E+00  0.8000E+01
  -8.920  0.0000E+00  0.0000E+00  0.8000E+01
  -8.910  0.0000E+00  0.0000E+00  0.8000E+01
  -8.900  0.0000E+00  0.0000E+00  0.8000E+01
  -8.890  0.0000E+00  0.0000E+00  0.8000E+01
  -8.880  0.0000E+00  0.0000E+00  0.8000E+01
  -8.870  0.0000E+00  0.0000E+00  0.8000E+01
  -8.860  0.0000E+00  0.0000E+00  0.8000E+01
  -8.850  0.0000E+00  0.0000E+00  0.8000E+01
  -8.840  0.0000E+00  0.0000E+00  0.8000E+01
  -8.830  0.0000E+00  0.0000E+00  0.8000E+01
  -8.820  0.0000E+00  0.0000E+00  0.8000E+01
  -8.810  0.0000E+00  0.0000E+00  0.8000E+01
  -8.800  0.0000E+00  0.0000E+00  0.8000E+01
  -8.790  0.0000E+00  0.0000E+00  0.8000E+01
  -8.780  0.0000E+00  0.0000E+00  0.8000E+01
  -8.770  0.0000E+00  0.0000E+00  0.8000E+01
  -8.760  0.0000E+00  0.0000E+00  0.8000E+01
  -8.750  0.0000E+00  0.0000E+00  0.8000E+01
  -8.740  0.0000E+00  0.0000E+00  0.8000E+01
  -8.730  0.0000E+00  0.0000E+00  0.8000E+01
  -8.720  0.0000E+00  0.0000E+00  0.8000E+01
  -8.710  0.0000E+00  0.0000E+00  0.8000E+01
  -8.700  0.0000E+00  0.0000E+00  0.8000E+01
  -8.690  0.0000E+00  0.0000E+00  0.8000E+01
  -8.680  0.0000E+00  0.0000E+00  0.8000E+01
  -8.670  0.0000E+00  0.0000E+00  0.8000E+01
  -8.660  0.0000E+00  0.0000E+00  0.8000E+01
  -8.650  0.0000E+00  0.0000E+00  0.8000E+01
  -8.640  0.0000E+00  0.0000E+00  0.8000E+01
  -8.630  0.0000E+00  0.0000E+00  0.8000E+01
  -8.620  0.0000E+00  0.0000E+00  0.8000E+01
  -8.610  0.0000E+00  0.0000E+00  0.8000E+01
  -8.600  0.0000E+00  0.0000E+00  0.8000E+01
  -8.590  0.0000E+00  0.0000E+00  0.8000E+01
  -8.580  0.0000E+00  0.0000E+00  0.8000E+01
  -8.570  0.0000E+00  0.0000E+00  0.8000E+01
  -8.560  0.0000E+00  0.0000E+00  0.8000E+01
  -8.550  0.0000E+00  0.0000E+00  0.8000E+01
  -8.540  0.0000E+00  0.0000E+00  0.8000E+01
  -8.530  0.0000E+00  0.0000E+00  0.8000E+01
  -8.520  0.0000E+00  0.0000E+00  0.8000E+01
  -8.510  0.0000E+00  0.0000E+00  0.8000E+01
  -8.500  0.0000E+00  0.0000E+00  0.8000E+01
  -8.490  0.0000E+00  0.0000E+00  0.8000E+01
  -8.480  0.0000E+00  0.0000E+00  0.8000E+01
  -8.470  0.0000E+00  0.0000E+00  0.8000E+01
  -8.460  0.0000E+00  0.0000E+00  0.8000E+01
  -8.450  0.0000E+00  0.0000E+00  0.8000E+01
  -8.440  0.0000E+00  0.0000E+00  0.8000E+01
  -8.430  0.0000E+00  0.0000E+00  0.8000E+01
  -8.420  0.0000E+00  0.0000E+00  0.8000E+01
  -8.410  0.0000E+00  0.0000E+00  0.8000E+01
  -8.400  0.0000E+00  0.0000E+00  0.8000E+01
  -8.390  0.0000E+00  0.0000E+00  0.8000E+01
  -8.380  0.0000E+00  0.0000E+00  0.8000E+01
  -8.370  0.0000E+00  0.0000E+00  0.8000E+01
  -8.360  0.0000E+00  0.0000E+00  0.8000E+01
  -8.350  0.0000E+00  0.0000E+00  0.8000E+01
  -8.340  0.0000E+00  0.0000E+00  0.8000E+01
  -8.330  0.0000E+00  0.0000E+00  0.8000E+01
  -8.320  0.0000E+00  0.0000E+00  0.8000E+01
  -8.310  0.0000E+00  0.0000E+00  0.8000E+01
  -8.300  0.0000E+00  0.0000E+00  0.8000E+01
  -8.290  0.0000E+00  0.0000E+00  0.8000E+01
  -8.280  0.0000E+00  0.0000E+00  0.8000E+01
  -8.270  0.0000E+00  0.0000E+00  0.8000E+01
  -8.260  0.0000E+00  0.0000E+00  0.8000E+01
  -8.250  0.0000E+00  0.0000E+00  0.8000E+01
  -8.240  0.0000E+00  0.0000E+00  0.8000E+01
  -8.230  0.0000E+00  0.0000E+00  0.8000E+01
  -8.220  0.0000E+00  0.0000E+00  0.8000E+01
  -8.210  0.0000E+00  0.0000E+00  0.8000E+01
  -8.200  0.0000E+00  0.0000E+00  0.8000E+01
  -8.190  0.0000E+00  0.0000E+00  0.8000E+01
  -8.180  0.0000E+00  0.0000E+00  0.8000E+01
  -8.170  0.0000E+00  0.0000E+00  0.8000E+01
  -8.160  0.0000E+00  0.0000E+00  0.8000E+01
  -8.150  0.0000E+00  0.0000E+00  0.8000E+01
  -8.140  0.0000E+00  0.0000E+00  0.8000E+01
  -8.130  0.0000E+00  0.0000E+00  0.8000E+01
  -8.120  0.0000E+00  0.0000E+00  0.8000E+01
  -8.110  0.0000E+00  0.0000E+00  0.8000E+01
  -8.100  0.0000E+00  0.0000E+00  0.8000E+01
  -8.090  0.0000E+00  0.0000E+00  0.8000E+01
  -8.080  0.0000E+00  0.0000E+00  0.8000E+01
  -8.070  0.0000E+00  0.0000E+00  0.8000E+01
  -8.060  0.0000E+00  0.0000E+00  0.8000E+01
  -8.050  0.0000E+00  0.0000E+00  0.8000E+01
  -8.040  0.0000E+00  0.0000E+00  0.8000E+01
  -8.030  0.0000E+00  0.0000E+00  0.8000E+01
  -8.020  0.0000E+00  0.0000E+00  0.8000E+01
  -8.010  0.0000E+00  0.0000E+00  0.8000E+01
  -8.000  0.0000E+00  0.0000E+00  0.8000E+01
  -7.990  0.0000E+00  0.0000E+00  0.8000E+01
  -7.980  0.0000E+00  0.0000E+00  0.8000E+01
  -7.970  0.0000E+00  0.0000E+00  0.8000E+01
  -7.960  0.0000E+00  0.0000E+00  0.8000E+01
  -7.950  0.0000E+00  0.0000E+00  0.8000E+01
  -7.940  0.0000E+00  0.0000E+00  0.8000E+01
  -7.930  0.0000E+00  0.0000E+00  0.8000E+01
  -7.920  0.0000E+00  0.0000E+00  0.8000E+01
  -7.910  0.0000E+00  0.0000E+00  0.8000E+01
  -7.900  0.0000E+00  0.0000E+00  0.8000E+01
  -7.890  0.0000E+00  0.0000E+00  0.8000E+01
  -7.880  0.0000E+00  0.0000E+00  0.8000E+01
  -7.870  0.0000E+00  0.0000E+00  0.8000E+01
  -7.860  0.0000E+00  0.0000E+00  0.8000E+01
  -7.850  0.0000E+00  0.0000E+00  0.8000E+01
  -7.840  0.0000E+00  0.0000E+00  0.8000E+01
  -7.830  0.0000E+00  0.0000E+00  0.8000E+01
  -7.820  0.0000E+00  0.0000E+00  0.8000E+01
  -7.810  0.0000E+00  0.0000E+00  0.8000E+01
  -7.800  0.0000E+00  0.0000E+00  0.8000E+01
  -7.790  0.0000E+00  0.0000E+00  0.8000E+01
  -7.780  0.0000E+00  0.0000E+00  0.8000E+01
  -7.770  0.0000E+00  0.0000E+00  0.8000E+01
  -7.760  0.0000E+00  0.0000E+00  0.8000E+01
  -7.750  0.0000E+00  0.0000E+00  0.8000E+01
  -7.740  0.0000E+00  0.0000E+00  0.8000E+01
  -7.730  0.0000E+00  0.0000E+00  0.8000E+01
  -7.720  0.0000E+00  0.0000E+00  0.8000E+01
  -7.710  0.0000E+00  0.0000E+00  0.8000E+01
  -7.700  0.0000E+00  0.0000E+00  0.8000E+01
  -7.690  0.0000E+00  0.0000E+00  0.8000E+01
  -7.680  0.0000E+00  0.0000E+00  0.8000E+01
  -7.670  0.0000E+00  0.0000E+00  0.8000E+01
  -7.660  0.0000E+00  0.0000E+00  0.8000E+01
  -7.650  0.0000E+00  0.0000E+00  0.8000E+01
  -7.640  0.0000E+00  0.0000E+00  0.8000E+01
  -7.630  0.0000E+00  0.0000E+00  0.8000E+01
  -7.620  0.0000E+00  0.0000E+00  0.8000E+01
  -7.610  0.0000E+00  0.0000E+00  0.8000E+01
  -7.600  0.0000E+00  0.0000E+00  0.8000E+01
  -7.590  0.0000E+00  0.0000E+00  0.8000E+01
  -7.580  0.0000E+00  0.0000E+00  0.8000E+01
  -7.570  0.0000E+00  0.0000E+00  0.8000E+01
  -7.560  0.0000E+00  0.0000E+00  0.8000E+01
  -7.550  0.0000E+00  0.0000E+00  0.8000E+01
  -7.540  0.0000E+00  0.0000E+00  0.8000E+01
  -7.530  0.0000E+00  0.0000E+00  0.8000E+01
  -7.520  0.0000E+00  0.0000E+00  0.8000E+01
  -7.510  0.0000E+00  0.0000E+00  0.8000E+01
  -7.500  0.0000E+00  0.0000E+00  0.8000E+01
  -7.490  0.0000E+00  0.0000E+00  0.8000E+01
  -7.480  0.0000E+00  0.0000E+00  0.8000E+01
  -7.470  0.0000E+00  0.0000E+00  0.8000E+01
  -7.460  0.1892E-01  0.0000E+00  0.8000E+01
  -7.450  0.1898E+00  0.8150E-02  0.8001E+01
  -7.440  0.6707E+00  0.1005E+00  0.8005E+01
  -7.430  0.1451E+01  0.4791E+00  0.8018E+01
  -7.420  0.2161E+01  0.1166E+01  0.8045E+01
  -7.410  0.2572E+01  0.1960E+01  0.8084E+01
  -7.400  0.2758E+01  0.2482E+01  0.8134E+01
  -7.390  0.2791E+01  0.2751E+01  0.8188E+01
  -7.380  0.2863E+01  0.2841E+01  0.8244E+01
  -7.370  0.2961E+01  0.2929E+01  0.8302E+01
  -7.360  0.3110E+01  0.3066E+01  0.8362E+01
  -7.350  0.3405E+01  0.3207E+01  0.8426E+01
  -7.340  0.3859E+01  0.3495E+01  0.8496E+01
  -7.330  0.4281E+01  0.3987E+01  0.8574E+01
  -7.320  0.4880E+01  0.4462E+01  0.8662E+01
  -7.310  0.5438E+01  0.5122E+01  0.8761E+01
  -7.300  0.5657E+01  0.5674E+01  0.8871E+01
  -7.290  0.5526E+01  0.5789E+01  0.8985E+01
  -7.280  0.5271E+01  0.5471E+01  0.9095E+01
  -7.270  0.5271E+01  0.5016E+01  0.9200E+01
  -7.260  0.5907E+01  0.4863E+01  0.9304E+01
  -7.250  0.6876E+01  0.5197E+01  0.9418E+01
  -7.240  0.7865E+01  0.6155E+01  0.9548E+01
  -7.230  0.8372E+01  0.7112E+01  0.9696E+01
  -7.220  0.8514E+01  0.8202E+01  0.9857E+01
  -7.210  0.8511E+01  0.8654E+01  0.1003E+02
  -7.200  0.8428E+01  0.8718E+01  0.1020E+02
  -7.190  0.8259E+01  0.8654E+01  0.1037E+02
  -7.180  0.8028E+01  0.8490E+01  0.1054E+02
  -7.170  0.7797E+01  0.8250E+01  0.1070E+02
  -7.160  0.7622E+01  0.8030E+01  0.1086E+02
  -7.150  0.7619E+01  0.7876E+01  0.1101E+02
  -7.140  0.7836E+01  0.7879E+01  0.1117E+02
  -7.130  0.8043E+01  0.8004E+01  0.1133E+02
  -7.120  0.8293E+01  0.8004E+01  0.1149E+02
  -7.110  0.9437E+01  0.7920E+01  0.1166E+02
  -7.100  0.1150E+02  0.8283E+01  0.1184E+02
  -7.090  0.1221E+02  0.1050E+02  0.1206E+02
  -7.080  0.1197E+02  0.1160E+02  0.1229E+02
  -7.070  0.1105E+02  0.1157E+02  0.1252E+02
  -7.060  0.1092E+02  0.1109E+02  0.1274E+02
  -7.050  0.1103E+02  0.1133E+02  0.1296E+02
  -7.040  0.1128E+02  0.1146E+02  0.1319E+02
  -7.030  0.1168E+02  0.1173E+02  0.1342E+02
  -7.020  0.1191E+02  0.1214E+02  0.1366E+02
  -7.010  0.1179E+02  0.1219E+02  0.1390E+02
  -7.000  0.1142E+02  0.1208E+02  0.1413E+02
  -6.990  0.9542E+01  0.1127E+02  0.1436E+02
  -6.980  0.9941E+01  0.9394E+01  0.1456E+02
  -6.970  0.1107E+02  0.9804E+01  0.1476E+02
  -6.960  0.1210E+02  0.1036E+02  0.1497E+02
  -6.950  0.1272E+02  0.1084E+02  0.1520E+02
  -6.940  0.1294E+02  0.1243E+02  0.1545E+02
  -6.930  0.1277E+02  0.1305E+02  0.1571E+02
  -6.920  0.1281E+02  0.1286E+02  0.1596E+02
  -6.910  0.1402E+02  0.1255E+02  0.1622E+02
  -6.900  0.1638E+02  0.1345E+02  0.1650E+02
  -6.890  0.1950E+02  0.1534E+02  0.1683E+02
  -6.880  0.2186E+02  0.1835E+02  0.1720E+02
  -6.870  0.2436E+02  0.2081E+02  0.1763E+02
  -6.860  0.2635E+02  0.2317E+02  0.1810E+02
  -6.850  0.2481E+02  0.2661E+02  0.1861E+02
  -6.840  0.2196E+02  0.2675E+02  0.1910E+02
  -6.830  0.2056E+02  0.2342E+02  0.1957E+02
  -6.820  0.1913E+02  0.2082E+02  0.1999E+02
  -6.810  0.1811E+02  0.1862E+02  0.2037E+02
  -6.800  0.1698E+02  0.1740E+02  0.2072E+02
  -6.790  0.1731E+02  0.1544E+02  0.2106E+02
  -6.780  0.2056E+02  0.1615E+02  0.2141E+02
  -6.770  0.1970E+02  0.1768E+02  0.2178E+02
  -6.760  0.1739E+02  0.2092E+02  0.2216E+02
  -6.750  0.1563E+02  0.1973E+02  0.2253E+02
  -6.740  0.1447E+02  0.1719E+02  0.2287E+02
  -6.730  0.1387E+02  0.1552E+02  0.2317E+02
  -6.720  0.1413E+02  0.1451E+02  0.2346E+02
  -6.710  0.1880E+02  0.1420E+02  0.2378E+02
  -6.700  0.2691E+02  0.1957E+02  0.2416E+02
  -6.690  0.2685E+02  0.2333E+02  0.2467E+02
  -6.680  0.2358E+02  0.3046E+02  0.2518E+02
  -6.670  0.3391E+02  0.2563E+02  0.2574E+02
  -6.660  0.3529E+02  0.3296E+02  0.2639E+02
  -6.650  0.3675E+02  0.3134E+02  0.2709E+02
  -6.640  0.3243E+02  0.3411E+02  0.2776E+02
  -6.630  0.3009E+02  0.3542E+02  0.2843E+02
  -6.620  0.3377E+02  0.3288E+02  0.2908E+02
  -6.610  0.4267E+02  0.3173E+02  0.2978E+02
  -6.600  0.4676E+02  0.3602E+02  0.3058E+02
  -6.590  0.5037E+02  0.5357E+02  0.3149E+02
  -6.580  0.4125E+02  0.5887E+02  0.3257E+02
  -6.570  0.3926E+02  0.4070E+02  0.3344E+02
  -6.560  0.4300E+02  0.3379E+02  0.3421E+02
  -6.550  0.4242E+02  0.3615E+02  0.3499E+02
  -6.540  0.4251E+02  0.4002E+02  0.3582E+02
  -6.530  0.4600E+02  0.3851E+02  0.3664E+02
  -6.520  0.4932E+02  0.4187E+02  0.3752E+02
  -6.510  0.4911E+02  0.4551E+02  0.3846E+02
  -6.500  0.4732E+02  0.4843E+02  0.3941E+02
  -6.490  0.4872E+02  0.4941E+02  0.4037E+02
  -6.480  0.5536E+02  0.4808E+02  0.4137E+02
  -6.470  0.6649E+02  0.5195E+02  0.4246E+02
  -6.460  0.8030E+02  0.5608E+02  0.4382E+02
  -6.450  0.6631E+02  0.7417E+02  0.4520E+02
  -6.440  0.5902E+02  0.8145E+02  0.4666E+02
  -6.430  0.5882E+02  0.7634E+02  0.4802E+02
  -6.420  0.4065E+02  0.5751E+02  0.4912E+02
  -6.410  0.6680E+02  0.4700E+02  0.5015E+02
  -6.400  0.7964E+02  0.5701E+02  0.5141E+02
  -6.390  0.6776E+02  0.5616E+02  0.5268E+02
  -6.380  0.5641E+02  0.5086E+02  0.5378E+02
  -6.370  0.4659E+02  0.4520E+02  0.5478E+02
  -6.360  0.4237E+02  0.4637E+02  0.5567E+02
  -6.350  0.5413E+02  0.4110E+02  0.5661E+02
  -6.340  0.5585E+02  0.4920E+02  0.5759E+02
  -6.330  0.5614E+02  0.5807E+02  0.5867E+02
  -6.320  0.7889E+02  0.8081E+02  0.6005E+02
  -6.310  0.1015E+03  0.8186E+02  0.6181E+02
  -6.300  0.9443E+02  0.6774E+02  0.6358E+02
  -6.290  0.8060E+02  0.5885E+02  0.6504E+02
  -6.280  0.7867E+02  0.7303E+02  0.6645E+02
  -6.270  0.6719E+02  0.6053E+02  0.6780E+02
  -6.260  0.4105E+02  0.4378E+02  0.6890E+02
  -6.250  0.4251E+02  0.2823E+02  0.6960E+02
  -6.240  0.1488E+00  0.3575E+02  0.7009E+02
  -6.230  0.0000E+00  0.4723E+02  0.7048E+02
  -6.220  0.0000E+00  0.4083E+02  0.7092E+02
  -6.210  0.0000E+00  0.4147E+02  0.7137E+02
  -6.200  0.0000E+00  0.4541E+02  0.7174E+02
  -6.190  0.0000E+00  0.8986E+01  0.7199E+02
  -6.180  0.0000E+00  0.0000E+00  0.7200E+02
  -6.170  0.0000E+00  0.0000E+00  0.7200E+02
  -6.160  0.0000E+00  0.0000E+00  0.7200E+02
  -6.150  0.0000E+00  0.0000E+00  0.7200E+02
  -6.140  0.0000E+00  0.0000E+00  0.7200E+02
  -6.130  0.0000E+00  0.0000E+00  0.7200E+02
  -6.120  0.0000E+00  0.0000E+00  0.7200E+02
  -6.110  0.0000E+00  0.0000E+00  0.7200E+02
  -6.100  0.0000E+00  0.0000E+00  0.7200E+02
  -6.090  0.0000E+00  0.0000E+00  0.7200E+02
  -6.080  0.0000E+00  0.0000E+00  0.7200E+02
  -6.070  0.0000E+00  0.0000E+00  0.7200E+02
  -6.060  0.0000E+00  0.0000E+00  0.7200E+02
  -6.050  0.0000E+00  0.0000E+00  0.7200E+02
  -6.040  0.0000E+00  0.0000E+00  0.7200E+02
  -6.030  0.0000E+00  0.0000E+00  0.7200E+02
  -6.020  0.0000E+00  0.0000E+00  0.7200E+02
  -6.010  0.0000E+00  0.0000E+00  0.7200E+02
  -6.000  0.0000E+00  0.0000E+00  0.7200E+02
  -5.990  0.0000E+00  0.0000E+00  0.7200E+02
  -5.980  0.0000E+00  0.0000E+00  0.7200E+02
  -5.970  0.0000E+00  0.0000E+00  0.7200E+02
  -5.960  0.0000E+00  0.0000E+00  0.7200E+02
  -5.950  0.0000E+00  0.0000E+00  0.7200E+02
  -5.940  0.0000E+00  0.0000E+00  0.7200E+02
  -5.930  0.0000E+00  0.0000E+00  0.7200E+02
  -5.920  0.0000E+00  0.0000E+00  0.7200E+02
  -5.910  0.0000E+00  0.0000E+00  0.7200E+02
  -5.900  0.0000E+00  0.0000E+00  0.7200E+02
  -5.890  0.0000E+00  0.0000E+00  0.7200E+02
  -5.880  0.0000E+00  0.0000E+00  0.7200E+02
  -5.870  0.0000E+00  0.0000E+00  0.7200E+02
  -5.860  0.0000E+00  0.0000E+00  0.7200E+02
  -5.850  0.0000E+00  0.0000E+00  0.7200E+02
  -5.840  0.0000E+00  0.0000E+00  0.7200E+02
  -5.830  0.0000E+00  0.0000E+00  0.7200E+02
  -5.820  0.0000E+00  0.0000E+00  0.7200E+02
  -5.810  0.0000E+00  0.0000E+00  0.7200E+02
  -5.800  0.0000E+00  0.0000E+00  0.7200E+02
  -5.790  0.0000E+00  0.0000E+00  0.7200E+02
  -5.780  0.0000E+00  0.0000E+00  0.7200E+02
  -5.770  0.0000E+00  0.0000E+00  0.7200E+02
  -5.760  0.0000E+00  0.0000E+00  0.7200E+02
  -5.750  0.0000E+00  0.0000E+00  0.7200E+02
  -5.740  0.0000E+00  0.0000E+00  0.7200E+02
  -5.730  0.0000E+00  0.0000E+00  0.7200E+02
  -5.720  0.0000E+00  0.0000E+00  0.7200E+02
  -5.710  0.0000E+00  0.0000E+00  0.7200E+02
  -5.700  0.0000E+00  0.0000E+00  0.7200E+02
  -5.690  0.0000E+00  0.0000E+00  0.7200E+02
  -5.680  0.0000E+00  0.0000E+00  0.7200E+02
  -5.670  0.0000E+00  0.0000E+00  0.7200E+02
  -5.660  0.0000E+00  0.0000E+00  0.7200E+02
  -5.650  0.0000E+00  0.0000E+00  0.7200E+02
  -5.640  0.0000E+00  0.0000E+00  0.7200E+02
  -5.630  0.0000E+00  0.0000E+00  0.7200E+02
  -5.620  0.0000E+00  0.0000E+00  0.7200E+02
  -5.610  0.0000E+00  0.0000E+00  0.7200E+02
  -5.600  0.0000E+00  0.0000E+00  0.7200E+02
  -5.590  0.0000E+00  0.0000E+00  0.7200E+02
  -5.580  0.0000E+00  0.0000E+00  0.7200E+02
  -5.570  0.0000E+00  0.0000E+00  0.7200E+02
  -5.560  0.0000E+00  0.0000E+00  0.7200E+02
  -5.550  0.0000E+00  0.0000E+00  0.7200E+02
  -5.540  0.0000E+00  0.0000E+00  0.7200E+02
  -5.530  0.0000E+00  0.0000E+00  0.7200E+02
  -5.520  0.0000E+00  0.0000E+00  0.7200E+02
  -5.510  0.0000E+00  0.0000E+00  0.7200E+02
  -5.500  0.0000E+00  0.0000E+00  0.7200E+02
  -5.490  0.0000E+00  0.0000E+00  0.7200E+02
  -5.480  0.0000E+00  0.0000E+00  0.7200E+02
  -5.470  0.0000E+00  0.0000E+00  0.7200E+02
  -5.460  0.0000E+00  0.0000E+00  0.7200E+02
  -5.450  0.0000E+00  0.0000E+00  0.7200E+02
  -5.440  0.0000E+00  0.0000E+00  0.7200E+02
  -5.430  0.0000E+00  0.0000E+00  0.7200E+02
  -5.420  0.0000E+00  0.0000E+00  0.7200E+02
  -5.410  0.0000E+00  0.0000E+00  0.7200E+02
  -5.400  0.0000E+00  0.0000E+00  0.7200E+02
  -5.390  0.0000E+00  0.0000E+00  0.7200E+02
  -5.380  0.0000E+00  0.0000E+00  0.7200E+02
  -5.370  0.0000E+00  0.0000E+00  0.7200E+02
  -5.360  0.0000E+00  0.0000E+00  0.7200E+02
  -5.350  0.0000E+00  0.0000E+00  0.7200E+02
  -5.340  0.0000E+00  0.0000E+00  0.7200E+02
  -5.330  0.0000E+00  0.0000E+00  0.7200E+02
  -5.320  0.0000E+00  0.0000E+00  0.7200E+02
  -5.310  0.0000E+00  0.0000E+00  0.7200E+02
  -5.300  0.0000E+00  0.0000E+00  0.7200E+02
  -5.290  0.0000E+00  0.0000E+00  0.7200E+02
  -5.280  0.0000E+00  0.0000E+00  0.7200E+02
  -5.270  0.0000E+00  0.0000E+00  0.7200E+02
  -5.260  0.0000E+00  0.0000E+00  0.7200E+02
  -5.250  0.0000E+00  0.0000E+00  0.7200E+02
  -5.240  0.0000E+00  0.0000E+00  0.7200E+02
  -5.230  0.0000E+00  0.0000E+00  0.7200E+02
  -5.220  0.0000E+00  0.0000E+00  0.7200E+02
  -5.210  0.0000E+00  0.0000E+00  0.7200E+02
  -5.200  0.0000E+00  0.0000E+00  0.7200E+02
  -5.190  0.0000E+00  0.0000E+00  0.7200E+02
  -5.180  0.0000E+00  0.0000E+00  0.7200E+02
  -5.170  0.0000E+00  0.0000E+00  0.7200E+02
  -5.160  0.0000E+00  0.0000E+00  0.7200E+02
  -5.150  0.0000E+00  0.0000E+00  0.7200E+02
  -5.140  0.0000E+00  0.0000E+00  0.7200E+02
  -5.130  0.0000E+00  0.0000E+00  0.7200E+02
  -5.120  0.0000E+00  0.0000E+00  0.7200E+02
  -5.110  0.0000E+00  0.0000E+00  0.7200E+02
  -5.100  0.0000E+00  0.0000E+00  0.7200E+02
  -5.090  0.0000E+00  0.0000E+00  0.7200E+02
  -5.080  0.0000E+00  0.0000E+00  0.7200E+02
  -5.070  0.0000E+00  0.0000E+00  0.7200E+02
  -5.060  0.0000E+00  0.0000E+00  0.7200E+02
  -5.050  0.0000E+00  0.0000E+00  0.7200E+02
  -5.040  0.0000E+00  0.0000E+00  0.7200E+02
  -5.030  0.0000E+00  0.0000E+00  0.7200E+02
  -5.020  0.0000E+00  0.0000E+00  0.7200E+02
  -5.010  0.0000E+00  0.0000E+00  0.7200E+02
  -5.000  0.0000E+00  0.0000E+00  0.7200E+02
  -4.990  0.0000E+00  0.0000E+00  0.7200E+02
  -4.980  0.0000E+00  0.0000E+00  0.7200E+02
  -4.970  0.0000E+00  0.0000E+00  0.7200E+02
  -4.960  0.0000E+00  0.0000E+00  0.7200E+02
  -4.950  0.0000E+00  0.0000E+00  0.7200E+02
  -4.940  0.0000E+00  0.0000E+00  0.7200E+02
  -4.930  0.0000E+00  0.0000E+00  0.7200E+02
  -4.920  0.0000E+00  0.0000E+00  0.7200E+02
  -4.910  0.0000E+00  0.0000E+00  0.7200E+02
  -4.900  0.0000E+00  0.0000E+00  0.7200E+02
  -4.890  0.0000E+00  0.0000E+00  0.7200E+02
  -4.880  0.0000E+00  0.0000E+00  0.7200E+02
  -4.870  0.0000E+00  0.0000E+00  0.7200E+02
  -4.860  0.0000E+00  0.0000E+00  0.7200E+02
  -4.850  0.0000E+00  0.0000E+00  0.7200E+02
  -4.840  0.0000E+00  0.0000E+00  0.7200E+02
  -4.830  0.0000E+00  0.0000E+00  0.7200E+02
  -4.820  0.0000E+00  0.0000E+00  0.7200E+02
  -4.810  0.0000E+00  0.0000E+00  0.7200E+02
  -4.800  0.0000E+00  0.0000E+00  0.7200E+02
  -4.790  0.0000E+00  0.0000E+00  0.7200E+02
  -4.780  0.0000E+00  0.0000E+00  0.7200E+02
  -4.770  0.0000E+00  0.0000E+00  0.7200E+02
  -4.760  0.0000E+00  0.0000E+00  0.7200E+02
  -4.750  0.0000E+00  0.0000E+00  0.7200E+02
  -4.740  0.0000E+00  0.0000E+00  0.7200E+02
  -4.730  0.0000E+00  0.0000E+00  0.7200E+02
  -4.720  0.0000E+00  0.0000E+00  0.7200E+02
  -4.710  0.0000E+00  0.0000E+00  0.7200E+02
  -4.700  0.0000E+00  0.0000E+00  0.7200E+02
  -4.690  0.0000E+00  0.0000E+00  0.7200E+02
  -4.680  0.0000E+00  0.0000E+00  0.7200E+02
  -4.670  0.0000E+00  0.0000E+00  0.7200E+02
  -4.660  0.0000E+00  0.0000E+00  0.7200E+02
  -4.650  0.0000E+00  0.0000E+00  0.7200E+02
  -4.640  0.0000E+00  0.0000E+00  0.7200E+02
  -4.630  0.0000E+00  0.0000E+00  0.7200E+02
  -4.620  0.0000E+00  0.0000E+00  0.7200E+02
  -4.610  0.0000E+00  0.0000E+00  0.7200E+02
  -4.600  0.0000E+00  0.0000E+00  0.7200E+02
  -4.590  0.0000E+00  0.0000E+00  0.7200E+02
  -4.580  0.0000E+00  0.0000E+00  0.7200E+02
  -4.570  0.0000E+00  0.0000E+00  0.7200E+02
  -4.560  0.0000E+00  0.0000E+00  0.7200E+02
  -4.550  0.0000E+00  0.0000E+00  0.7200E+02
  -4.540  0.0000E+00  0.0000E+00  0.7200E+02
  -4.530  0.0000E+00  0.0000E+00  0.7200E+02
  -4.520  0.0000E+00  0.0000E+00  0.7200E+02
  -4.510  0.0000E+00  0.0000E+00  0.7200E+02
  -4.500  0.0000E+00  0.0000E+00  0.7200E+02
  -4.490  0.0000E+00  0.0000E+00  0.7200E+02
  -4.480  0.0000E+00  0.0000E+00  0.7200E+02
  -4.470  0.0000E+00  0.0000E+00  0.7200E+02
  -4.460  0.0000E+00  0.0000E+00  0.7200E+02
  -4.450  0.0000E+00  0.0000E+00  0.7200E+02
  -4.440  0.0000E+00  0.0000E+00  0.7200E+02
  -4.430  0.0000E+00  0.0000E+00  0.7200E+02
  -4.420  0.0000E+00  0.0000E+00  0.7200E+02
  -4.410  0.0000E+00  0.0000E+00  0.7200E+02
  -4.400  0.0000E+00  0.0000E+00  0.7200E+02
  -4.390  0.0000E+00  0.0000E+00  0.7200E+02
  -4.380  0.0000E+00  0.0000E+00  0.7200E+02
  -4.370  0.0000E+00  0.0000E+00  0.7200E+02
  -4.360  0.0000E+00  0.0000E+00  0.7200E+02
  -4.350  0.0000E+00  0.0000E+00  0.7200E+02
  -4.340  0.0000E+00  0.0000E+00  0.7200E+02
  -4.330  0.0000E+00  0.0000E+00  0.7200E+02
  -4.320  0.0000E+00  0.0000E+00  0.7200E+02
  -4.310  0.0000E+00  0.0000E+00  0.7200E+02
  -4.300  0.0000E+00  0.0000E+00  0.7200E+02
  -4.290  0.0000E+00  0.0000E+00  0.7200E+02
  -4.280  0.0000E+00  0.0000E+00  0.7200E+02
  -4.270  0.0000E+00  0.0000E+00  0.7200E+02
  -4.260  0.0000E+00  0.0000E+00  0.7200E+02
  -4.250  0.0000E+00  0.0000E+00  0.7200E+02
  -4.240  0.0000E+00  0.0000E+00  0.7200E+02
  -4.230  0.0000E+00  0.0000E+00  0.7200E+02
  -4.220  0.0000E+00  0.0000E+00  0.7200E+02
  -4.210  0.0000E+00  0.0000E+00  0.7200E+02
  -4.200  0.0000E+00  0.0000E+00  0.7200E+02
  -4.190  0.0000E+00  0.0000E+00  0.7200E+02
  -4.180  0.0000E+00  0.0000E+00  0.7200E+02
  -4.170  0.0000E+00  0.0000E+00  0.7200E+02
  -4.160  0.0000E+00  0.0000E+00  0.7200E+02
  -4.150  0.0000E+00  0.0000E+00  0.7200E+02
  -4.140  0.0000E+00  0.0000E+00  0.7200E+02
  -4.130  0.0000E+00  0.0000E+00  0.7200E+02
  -4.120  0.0000E+00  0.0000E+00  0.7200E+02
  -4.110  0.0000E+00  0.0000E+00  0.7200E+02
  -4.100  0.0000E+00  0.0000E+00  0.7200E+02
  -4.090  0.0000E+00  0.0000E+00  0.7200E+02
  -4.080  0.0000E+00  0.0000E+00  0.7200E+02
  -4.070  0.0000E+00  0.0000E+00  0.7200E+02
  -4.060  0.0000E+00  0.0000E+00  0.7200E+02
  -4.050  0.0000E+00  0.0000E+00  0.7200E+02
  -4.040  0.0000E+00  0.0000E+00  0.7200E+02
  -4.030  0.0000E+00  0.0000E+00  0.7200E+02
  -4.020  0.0000E+00  0.0000E+00  0.7200E+02
  -4.010  0.0000E+00  0.0000E+00  0.7200E+02
  -4.000  0.0000E+00  0.0000E+00  0.7200E+02
  -3.990  0.0000E+00  0.0000E+00  0.7200E+02
  -3.980  0.0000E+00  0.0000E+00  0.7200E+02
  -3.970  0.0000E+00  0.0000E+00  0.7200E+02
  -3.960  0.0000E+00  0.0000E+00  0.7200E+02
  -3.950  0.0000E+00  0.0000E+00  0.7200E+02
  -3.940  0.0000E+00  0.0000E+00  0.7200E+02
  -3.930  0.0000E+00  0.0000E+00  0.7200E+02
  -3.920  0.0000E+00  0.0000E+00  0.7200E+02
  -3.910  0.0000E+00  0.0000E+00  0.7200E+02
  -3.900  0.0000E+00  0.0000E+00  0.7200E+02
  -3.890  0.0000E+00  0.0000E+00  0.7200E+02
  -3.880  0.0000E+00  0.0000E+00  0.7200E+02
  -3.870  0.0000E+00  0.0000E+00  0.7200E+02
  -3.860  0.0000E+00  0.0000E+00  0.7200E+02
  -3.850  0.0000E+00  0.0000E+00  0.7200E+02
  -3.840  0.0000E+00  0.0000E+00  0.7200E+02
  -3.830  0.0000E+00  0.0000E+00  0.7200E+02
  -3.820  0.0000E+00  0.0000E+00  0.7200E+02
  -3.810  0.0000E+00  0.0000E+00  0.7200E+02
  -3.800  0.0000E+00  0.0000E+00  0.7200E+02
  -3.790  0.0000E+00  0.0000E+00  0.7200E+02
  -3.780  0.0000E+00  0.0000E+00  0.7200E+02
  -3.770  0.0000E+00  0.0000E+00  0.7200E+02
  -3.760  0.0000E+00  0.0000E+00  0.7200E+02
  -3.750  0.0000E+00  0.0000E+00  0.7200E+02
  -3.740  0.0000E+00  0.0000E+00  0.7200E+02
  -3.730  0.0000E+00  0.0000E+00  0.7200E+02
  -3.720  0.0000E+00  0.0000E+00  0.7200E+02
  -3.710  0.0000E+00  0.0000E+00  0.7200E+02
  -3.700  0.0000E+00  0.0000E+00  0.7200E+02
  -3.690  0.0000E+00  0.0000E+00  0.7200E+02
  -3.680  0.0000E+00  0.0000E+00  0.7200E+02
  -3.670  0.0000E+00  0.0000E+00  0.7200E+02
  -3.660  0.0000E+00  0.0000E+00  0.7200E+02
  -3.650  0.0000E+00  0.0000E+00  0.7200E+02
  -3.640  0.0000E+00  0.0000E+00  0.7200E+02
  -3.630  0.0000E+00  0.0000E+00  0.7200E+02
  -3.620  0.0000E+00  0.0000E+00  0.7200E+02
  -3.610  0.0000E+00  0.0000E+00  0.7200E+02
  -3.600  0.0000E+00  0.0000E+00  0.7200E+02
  -3.590  0.0000E+00  0.0000E+00  0.7200E+02
  -3.580  0.0000E+00  0.0000E+00  0.7200E+02
  -3.570  0.0000E+00  0.0000E+00  0.7200E+02
  -3.560  0.0000E+00  0.0000E+00  0.7200E+02
  -3.550  0.0000E+00  0.0000E+00  0.7200E+02
  -3.540  0.0000E+00  0.0000E+00  0.7200E+02
  -3.530  0.0000E+00  0.0000E+00  0.7200E+02
  -3.520  0.0000E+00  0.0000E+00  0.7200E+02
  -3.510  0.0000E+00  0.0000E+00  0.7200E+02
  -3.500  0.0000E+00  0.0000E+00  0.7200E+02
  -3.490  0.0000E+00  0.0000E+00  0.7200E+02
  -3.480  0.0000E+00  0.0000E+00  0.7200E+02
  -3.470  0.0000E+00  0.0000E+00  0.7200E+02
  -3.460  0.0000E+00  0.0000E+00  0.7200E+02
  -3.450  0.0000E+00  0.0000E+00  0.7200E+02
  -3.440  0.0000E+00  0.0000E+00  0.7200E+02
  -3.430  0.0000E+00  0.0000E+00  0.7200E+02
  -3.420  0.0000E+00  0.0000E+00  0.7200E+02
  -3.410  0.0000E+00  0.0000E+00  0.7200E+02
  -3.400  0.0000E+00  0.0000E+00  0.7200E+02
  -3.390  0.0000E+00  0.0000E+00  0.7200E+02
  -3.380  0.0000E+00  0.0000E+00  0.7200E+02
  -3.370  0.0000E+00  0.0000E+00  0.7200E+02
  -3.360  0.0000E+00  0.0000E+00  0.7200E+02
  -3.350  0.0000E+00  0.0000E+00  0.7200E+02
  -3.340  0.0000E+00  0.0000E+00  0.7200E+02
  -3.330  0.0000E+00  0.0000E+00  0.7200E+02
  -3.320  0.0000E+00  0.0000E+00  0.7200E+02
  -3.310  0.0000E+00  0.0000E+00  0.7200E+02
  -3.300  0.0000E+00  0.0000E+00  0.7200E+02
  -3.290  0.0000E+00  0.0000E+00  0.7200E+02
  -3.280  0.0000E+00  0.0000E+00  0.7200E+02
  -3.270  0.0000E+00  0.0000E+00  0.7200E+02
  -3.260  0.0000E+00  0.0000E+00  0.7200E+02
  -3.250  0.0000E+00  0.0000E+00  0.7200E+02
  -3.240  0.0000E+00  0.0000E+00  0.7200E+02
  -3.230  0.0000E+00  0.0000E+00  0.7200E+02
  -3.220  0.0000E+00  0.0000E+00  0.7200E+02
  -3.210  0.0000E+00  0.0000E+00  0.7200E+02
  -3.200  0.0000E+00  0.0000E+00  0.7200E+02
  -3.190  0.0000E+00  0.0000E+00  0.7200E+02
  -3.180  0.0000E+00  0.0000E+00  0.7200E+02
  -3.170  0.0000E+00  0.0000E+00  0.7200E+02
  -3.160  0.0000E+00  0.0000E+00  0.7200E+02
  -3.150  0.0000E+00  0.0000E+00  0.7200E+02
  -3.140  0.0000E+00  0.0000E+00  0.7200E+02
  -3.130  0.0000E+00  0.0000E+00  0.7200E+02
  -3.120  0.0000E+00  0.0000E+00  0.7200E+02
  -3.110  0.0000E+00  0.0000E+00  0.7200E+02
  -3.100  0.0000E+00  0.0000E+00  0.7200E+02
  -3.090  0.0000E+00  0.0000E+00  0.7200E+02
  -3.080  0.0000E+00  0.0000E+00  0.7200E+02
  -3.070  0.0000E+00  0.0000E+00  0.7200E+02
  -3.060  0.0000E+00  0.0000E+00  0.7200E+02
  -3.050  0.0000E+00  0.0000E+00  0.7200E+02
  -3.040  0.0000E+00  0.0000E+00  0.7200E+02
  -3.030  0.0000E+00  0.0000E+00  0.7200E+02
  -3.020  0.0000E+00  0.0000E+00  0.7200E+02
  -3.010  0.0000E+00  0.0000E+00  0.7200E+02
  -3.000  0.0000E+00  0.0000E+00  0.7200E+02
  -2.990  0.0000E+00  0.0000E+00  0.7200E+02
  -2.980  0.0000E+00  0.0000E+00  0.7200E+02
  -2.970  0.0000E+00  0.0000E+00  0.7200E+02
  -2.960  0.0000E+00  0.0000E+00  0.7200E+02
  -2.950  0.0000E+00  0.0000E+00  0.7200E+02
  -2.940  0.0000E+00  0.0000E+00  0.7200E+02
  -2.930  0.0000E+00  0.0000E+00  0.7200E+02
  -2.920  0.0000E+00  0.0000E+00  0.7200E+02
  -2.910  0.0000E+00  0.0000E+00  0.7200E+02
  -2.900  0.0000E+00  0.0000E+00  0.7200E+02
  -2.890  0.0000E+00  0.0000E+00  0.7200E+02
  -2.880  0.0000E+00  0.0000E+00  0.7200E+02
  -2.870  0.0000E+00  0.0000E+00  0.7200E+02
  -2.860  0.0000E+00  0.0000E+00  0.7200E+02
  -2.850  0.0000E+00  0.0000E+00  0.7200E+02
  -2.840  0.0000E+00  0.0000E+00  0.7200E+02
  -2.830  0.0000E+00  0.0000E+00  0.7200E+02
  -2.820  0.0000E+00  0.0000E+00  0.7200E+02
  -2.810  0.0000E+00  0.0000E+00  0.7200E+02
  -2.800  0.0000E+00  0.0000E+00  0.7200E+02
  -2.790  0.0000E+00  0.0000E+00  0.7200E+02
  -2.780  0.0000E+00  0.0000E+00  0.7200E+02
  -2.770  0.0000E+00  0.0000E+00  0.7200E+02
  -2.760  0.0000E+00  0.0000E+00  0.7200E+02
  -2.750  0.0000E+00  0.0000E+00  0.7200E+02
  -2.740  0.0000E+00  0.0000E+00  0.7200E+02
  -2.730  0.0000E+00  0.0000E+00  0.7200E+02
  -2.720  0.0000E+00  0.0000E+00  0.7200E+02
  -2.710  0.0000E+00  0.0000E+00  0.7200E+02
  -2.700  0.0000E+00  0.0000E+00  0.7200E+02
  -2.690  0.0000E+00  0.0000E+00  0.7200E+02
  -2.680  0.0000E+00  0.0000E+00  0.7200E+02
  -2.670  0.0000E+00  0.0000E+00  0.7200E+02
  -2.660  0.0000E+00  0.0000E+00  0.7200E+02
  -2.650  0.0000E+00  0.0000E+00  0.7200E+02
  -2.640  0.0000E+00  0.0000E+00  0.7200E+02
  -2.630  0.0000E+00  0.0000E+00  0.7200E+02
  -2.620  0.0000E+00  0.0000E+00  0.7200E+02
  -2.610  0.0000E+00  0.0000E+00  0.7200E+02
  -2.600  0.0000E+00  0.0000E+00  0.7200E+02
  -2.590  0.0000E+00  0.0000E+00  0.7200E+02
  -2.580  0.0000E+00  0.0000E+00  0.7200E+02
  -2.570  0.0000E+00  0.0000E+00  0.7200E+02
  -2.560  0.0000E+00  0.0000E+00  0.7200E+02
  -2.550  0.0000E+00  0.0000E+00  0.7200E+02
  -2.540  0.0000E+00  0.0000E+00  0.7200E+02
  -2.530  0.0000E+00  0.0000E+00  0.7200E+02
  -2.520  0.0000E+00  0.0000E+00  0.7200E+02
  -2.510  0.0000E+00  0.0000E+00  0.7200E+02
  -2.500  0.0000E+00  0.0000E+00  0.7200E+02
  -2.490  0.0000E+00  0.0000E+00  0.7200E+02
  -2.480  0.0000E+00  0.0000E+00  0.7200E+02
  -2.470  0.0000E+00  0.0000E+00  0.7200E+02
  -2.460  0.0000E+00  0.0000E+00  0.7200E+02
  -2.450  0.0000E+00  0.0000E+00  0.7200E+02
  -2.440  0.0000E+00  0.0000E+00  0.7200E+02
  -2.430  0.0000E+00  0.0000E+00  0.7200E+02
  -2.420  0.0000E+00  0.0000E+00  0.7200E+02
  -2.410  0.0000E+00  0.0000E+00  0.7200E+02
  -2.400  0.0000E+00  0.0000E+00  0.7200E+02
  -2.390  0.0000E+00  0.0000E+00  0.7200E+02
  -2.380  0.0000E+00  0.0000E+00  0.7200E+02
  -2.370  0.0000E+00  0.0000E+00  0.7200E+02
  -2.360  0.0000E+00  0.0000E+00  0.7200E+02
  -2.350  0.0000E+00  0.0000E+00  0.7200E+02
  -2.340  0.0000E+00  0.0000E+00  0.7200E+02
  -2.330  0.0000E+00  0.0000E+00  0.7200E+02
  -2.320  0.0000E+00  0.0000E+00  0.7200E+02
  -2.310  0.0000E+00  0.0000E+00  0.7200E+02
  -2.300  0.0000E+00  0.0000E+00  0.7200E+02
  -2.290  0.0000E+00  0.0000E+00  0.7200E+02
  -2.280  0.0000E+00  0.0000E+00  0.7200E+02
  -2.270  0.0000E+00  0.0000E+00  0.7200E+02
  -2.260  0.0000E+00  0.0000E+00  0.7200E+02
  -2.250  0.0000E+00  0.0000E+00  0.7200E+02
  -2.240  0.0000E+00  0.0000E+00  0.7200E+02
  -2.230  0.0000E+00  0.0000E+00  0.7200E+02
  -2.220  0.0000E+00  0.0000E+00  0.7200E+02
  -2.210  0.0000E+00  0.0000E+00  0.7200E+02
  -2.200  0.0000E+00  0.0000E+00  0.7200E+02
  -2.190  0.0000E+00  0.0000E+00  0.7200E+02
  -2.180  0.0000E+00  0.0000E+00  0.7200E+02
  -2.170  0.0000E+00  0.0000E+00  0.7200E+02
  -2.160  0.0000E+00  0.0000E+00  0.7200E+02
  -2.150  0.0000E+00  0.0000E+00  0.7200E+02
  -2.140  0.0000E+00  0.0000E+00  0.7200E+02
  -2.130  0.0000E+00  0.0000E+00  0.7200E+02
  -2.120  0.0000E+00  0.0000E+00  0.7200E+02
  -2.110  0.0000E+00  0.0000E+00  0.7200E+02
  -2.100  0.0000E+00  0.0000E+00  0.7200E+02
  -2.090  0.0000E+00  0.0000E+00  0.7200E+02
  -2.080  0.0000E+00  0.0000E+00  0.7200E+02
  -2.070  0.0000E+00  0.0000E+00  0.7200E+02
  -2.060  0.0000E+00  0.0000E+00  0.7200E+02
  -2.050  0.0000E+00  0.0000E+00  0.7200E+02
  -2.040  0.0000E+00  0.0000E+00  0.7200E+02
  -2.030  0.0000E+00  0.0000E+00  0.7200E+02
  -2.020  0.0000E+00  0.0000E+00  0.7200E+02
  -2.010  0.0000E+00  0.0000E+00  0.7200E+02
  -2.000  0.0000E+00  0.0000E+00  0.7200E+02
  -1.990  0.0000E+00  0.0000E+00  0.7200E+02
  -1.980  0.0000E+00  0.0000E+00  0.7200E+02
  -1.970  0.0000E+00  0.0000E+00  0.7200E+02
  -1.960  0.0000E+00  0.0000E+00  0.7200E+02
  -1.950  0.0000E+00  0.0000E+00  0.7200E+02
  -1.940  0.0000E+00  0.0000E+00  0.7200E+02
  -1.930  0.0000E+00  0.0000E+00  0.7200E+02
  -1.920  0.0000E+00  0.0000E+00  0.7200E+02
  -1.910  0.0000E+00  0.0000E+00  0.7200E+02
  -1.900  0.0000E+00  0.0000E+00  0.7200E+02
  -1.890  0.0000E+00  0.0000E+00  0.7200E+02
  -1.880  0.0000E+00  0.0000E+00  0.7200E+02
  -1.870  0.0000E+00  0.0000E+00  0.7200E+02
  -1.860  0.0000E+00  0.0000E+00  0.7200E+02
  -1.850  0.0000E+00  0.0000E+00  0.7200E+02
  -1.840  0.0000E+00  0.0000E+00  0.7200E+02
  -1.830  0.0000E+00  0.0000E+00  0.7200E+02
  -1.820  0.0000E+00  0.0000E+00  0.7200E+02
  -1.810  0.0000E+00  0.0000E+00  0.7200E+02
  -1.800  0.0000E+00  0.0000E+00  0.7200E+02
  -1.790  0.0000E+00  0.0000E+00  0.7200E+02
  -1.780  0.0000E+00  0.0000E+00  0.7200E+02
  -1.770  0.0000E+00  0.0000E+00  0.7200E+02
  -1.760  0.0000E+00  0.0000E+00  0.7200E+02
  -1.750  0.0000E+00  0.0000E+00  0.7200E+02
  -1.740  0.0000E+00  0.0000E+00  0.7200E+02
  -1.730  0.0000E+00  0.0000E+00  0.7200E+02
  -1.720  0.0000E+00  0.0000E+00  0.7200E+02
  -1.710  0.0000E+00  0.0000E+00  0.7200E+02
  -1.700  0.0000E+00  0.0000E+00  0.7200E+02
  -1.690  0.0000E+00  0.0000E+00  0.7200E+02
  -1.680  0.0000E+00  0.0000E+00  0.7200E+02
  -1.670  0.0000E+00  0.0000E+00  0.7200E+02
  -1.660  0.0000E+00  0.0000E+00  0.7200E+02
  -1.650  0.0000E+00  0.0000E+00  0.7200E+02
  -1.640  0.0000E+00  0.0000E+00  0.7200E+02
  -1.630  0.0000E+00  0.0000E+00  0.7200E+02
  -1.620  0.0000E+00  0.0000E+00  0.7200E+02
  -1.610  0.0000E+00  0.0000E+00  0.7200E+02
  -1.600  0.0000E+00  0.0000E+00  0.7200E+02
  -1.590  0.0000E+00  0.0000E+00  0.7200E+02
  -1.580  0.0000E+00  0.0000E+00  0.7200E+02
  -1.570  0.0000E+00  0.0000E+00  0.7200E+02
  -1.560  0.0000E+00  0.0000E+00  0.7200E+02
  -1.550  0.0000E+00  0.0000E+00  0.7200E+02
  -1.540  0.0000E+00  0.0000E+00  0.7200E+02
  -1.530  0.0000E+00  0.0000E+00  0.7200E+02
  -1.520  0.0000E+00  0.0000E+00  0.7200E+02
  -1.510  0.0000E+00  0.0000E+00  0.7200E+02
  -1.500  0.0000E+00  0.0000E+00  0.7200E+02
  -1.490  0.0000E+00  0.0000E+00  0.7200E+02
  -1.480  0.0000E+00  0.0000E+00  0.7200E+02
  -1.470  0.0000E+00  0.0000E+00  0.7200E+02
  -1.460  0.0000E+00  0.0000E+00  0.7200E+02
  -1.450  0.0000E+00  0.0000E+00  0.7200E+02
  -1.440  0.0000E+00  0.0000E+00  0.7200E+02
  -1.430  0.0000E+00  0.0000E+00  0.7200E+02
  -1.420  0.0000E+00  0.0000E+00  0.7200E+02
  -1.410  0.0000E+00  0.0000E+00  0.7200E+02
  -1.400  0.0000E+00  0.0000E+00  0.7200E+02
  -1.390  0.0000E+00  0.0000E+00  0.7200E+02
  -1.380  0.0000E+00  0.0000E+00  0.7200E+02
  -1.370  0.0000E+00  0.0000E+00  0.7200E+02
  -1.360  0.0000E+00  0.0000E+00  0.7200E+02
  -1.350  0.0000E+00  0.0000E+00  0.7200E+02
  -1.340  0.0000E+00  0.0000E+00  0.7200E+02
  -1.330  0.0000E+00  0.0000E+00  0.7200E+02
  -1.320  0.0000E+00  0.0000E+00  0.7200E+02
  -1.310  0.0000E+00  0.0000E+00  0.7200E+02
  -1.300  0.0000E+00  0.0000E+00  0.7200E+02
  -1.290  0.0000E+00  0.0000E+00  0.7200E+02
  -1.280  0.0000E+00  0.0000E+00  0.7200E+02
  -1.270  0.0000E+00  0.0000E+00  0.7200E+02
  -1.260  0.0000E+00  0.0000E+00  0.7200E+02
  -1.250  0.0000E+00  0.0000E+00  0.7200E+02
  -1.240  0.0000E+00  0.0000E+00  0.7200E+02
  -1.230  0.0000E+00  0.0000E+00  0.7200E+02
  -1.220  0.0000E+00  0.0000E+00  0.7200E+02
  -1.210  0.0000E+00  0.0000E+00  0.7200E+02
  -1.200  0.0000E+00  0.0000E+00  0.7200E+02
  -1.190  0.0000E+00  0.0000E+00  0.7200E+02
  -1.180  0.0000E+00  0.0000E+00  0.7200E+02
  -1.170  0.0000E+00  0.0000E+00  0.7200E+02
  -1.160  0.0000E+00  0.0000E+00  0.7200E+02
  -1.150  0.0000E+00  0.0000E+00  0.7200E+02
  -1.140  0.0000E+00  0.0000E+00  0.7200E+02
  -1.130  0.0000E+00  0.0000E+00  0.7200E+02
  -1.120  0.0000E+00  0.0000E+00  0.7200E+02
  -1.110  0.0000E+00  0.0000E+00  0.7200E+02
  -1.100  0.0000E+00  0.0000E+00  0.7200E+02
  -1.090  0.0000E+00  0.0000E+00  0.7200E+02
  -1.080  0.0000E+00  0.0000E+00  0.7200E+02
  -1.070  0.0000E+00  0.0000E+00  0.7200E+02
  -1.060  0.0000E+00  0.0000E+00  0.7200E+02
  -1.050  0.0000E+00  0.0000E+00  0.7200E+02
  -1.040  0.0000E+00  0.0000E+00  0.7200E+02
  -1.030  0.0000E+00  0.0000E+00  0.7200E+02
  -1.020  0.0000E+00  0.0000E+00  0.7200E+02
  -1.010  0.0000E+00  0.0000E+00  0.7200E+02
  -1.000  0.0000E+00  0.0000E+00  0.7200E+02
  -0.990  0.0000E+00  0.0000E+00  0.7200E+02
  -0.980  0.0000E+00  0.0000E+00  0.7200E+02
  -0.970  0.0000E+00  0.0000E+00  0.7200E+02
  -0.960  0.0000E+00  0.0000E+00  0.7200E+02
  -0.950  0.0000E+00  0.0000E+00  0.7200E+02
  -0.940  0.0000E+00  0.0000E+00  0.7200E+02
  -0.930  0.0000E+00  0.0000E+00  0.7200E+02
  -0.920  0.0000E+00  0.0000E+00  0.7200E+02
  -0.910  0.0000E+00  0.0000E+00  0.7200E+02
  -0.900  0.0000E+00  0.0000E+00  0.7200E+02
  -0.890  0.0000E+00  0.0000E+00  0.7200E+02
  -0.880  0.0000E+00  0.0000E+00  0.7200E+02
  -0.870  0.0000E+00  0.0000E+00  0.7200E+02
  -0.860  0.0000E+00  0.0000E+00  0.7200E+02
  -0.850  0.0000E+00  0.0000E+00  0.7200E+02
  -0.840  0.0000E+00  0.0000E+00  0.7200E+02
  -0.830  0.0000E+00  0.0000E+00  0.7200E+02
  -0.820  0.0000E+00  0.0000E+00  0.7200E+02
  -0.810  0.0000E+00  0.0000E+00  0.7200E+02
  -0.800  0.0000E+00  0.0000E+00  0.7200E+02
  -0.790  0.0000E+00  0.0000E+00  0.7200E+02
  -0.780  0.0000E+00  0.0000E+00  0.7200E+02
  -0.770  0.0000E+00  0.0000E+00  0.7200E+02
  -0.760  0.0000E+00  0.0000E+00  0.7200E+02
  -0.750  0.0000E+00  0.0000E+00  0.7200E+02
  -0.740  0.0000E+00  0.0000E+00  0.7200E+02
  -0.730  0.0000E+00  0.0000E+00  0.7200E+02
  -0.720  0.0000E+00  0.0000E+00  0.7200E+02
  -0.710  0.3512E-03  0.0000E+00  0.7200E+02
  -0.700  0.1295E+02  0.8809E+01  0.7207E+02
  -0.690  0.5527E+02  0.4323E+02  0.7262E+02
  -0.680  0.9374E+02  0.8736E+02  0.7412E+02
  -0.670  0.1142E+03  0.1078E+03  0.7616E+02
  -0.660  0.1314E+03  0.1263E+03  0.7853E+02
  -0.650  0.1798E+03  0.1877E+03  0.8145E+02
  -0.640  0.1856E+03  0.1902E+03  0.8508E+02
  -0.630  0.2113E+03  0.2122E+03  0.8905E+02
  -0.620  0.1796E+03  0.1883E+03  0.9313E+02
  -0.610  0.1443E+03  0.1509E+03  0.9645E+02
  -0.600  0.1636E+03  0.1696E+03  0.9960E+02
  -0.590  0.2249E+03  0.2102E+03  0.1038E+03
  -0.580  0.3540E+03  0.3396E+03  0.1093E+03
  -0.570  0.3733E+03  0.3737E+03  0.1167E+03
  -0.560  0.4350E+03  0.4140E+03  0.1245E+03
  -0.550  0.6896E+03  0.6150E+03  0.1351E+03
  -0.540  0.5079E+03  0.5773E+03  0.1480E+03
  -0.530  0.4261E+03  0.3305E+03  0.1566E+03
  -0.520  0.3006E+03  0.2271E+03  0.1629E+03
  -0.510  0.2124E+03  0.2522E+03  0.1686E+03
  -0.500  0.1856E+03  0.1908E+03  0.1725E+03
  -0.490  0.1812E+03  0.1856E+03  0.1765E+03
  -0.480  0.2694E+03  0.2045E+03  0.1805E+03
  -0.470  0.1726E+03  0.1562E+03  0.1848E+03
  -0.460  0.2553E+03  0.2153E+03  0.1890E+03
  -0.450  0.1624E+03  0.2091E+03  0.1934E+03
  -0.440  0.1585E+03  0.1341E+03  0.1965E+03
  -0.430  0.2124E+03  0.2606E+03  0.2008E+03
  -0.420  0.1610E+03  0.2389E+03  0.2045E+03
  -0.410  0.1313E+03  0.1042E+03  0.2073E+03
  -0.400  0.1324E+03  0.1582E+03  0.2102E+03
  -0.390  0.1805E+03  0.1814E+03  0.2131E+03
  -0.380  0.1690E+03  0.1762E+03  0.2166E+03
  -0.370  0.1301E+03  0.1346E+03  0.2196E+03
  -0.360  0.1441E+03  0.1417E+03  0.2223E+03
  -0.350  0.1321E+03  0.1381E+03  0.2251E+03
  -0.340  0.1097E+03  0.1187E+03  0.2276E+03
  -0.330  0.7184E+02  0.7689E+02  0.2295E+03
  -0.320  0.8276E+02  0.7585E+02  0.2310E+03
  -0.310  0.1459E+03  0.9636E+02  0.2328E+03
  -0.300  0.1197E+03  0.1262E+03  0.2354E+03
  -0.290  0.1285E+03  0.1209E+03  0.2379E+03
  -0.280  0.1066E+03  0.1116E+03  0.2403E+03
  -0.270  0.1089E+03  0.1290E+03  0.2425E+03
  -0.260  0.1279E+03  0.1224E+03  0.2449E+03
  -0.250  0.1428E+03  0.1457E+03  0.2476E+03
  -0.240  0.1569E+03  0.1502E+03  0.2505E+03
  -0.230  0.1533E+03  0.2080E+03  0.2538E+03
  -0.220  0.1099E+03  0.1148E+03  0.2564E+03
  -0.210  0.2167E+03  0.1993E+03  0.2593E+03
  -0.200  0.4378E+03  0.4077E+03  0.2660E+03
  -0.190  0.3842E+03  0.4026E+03  0.2742E+03
  -0.180  0.6392E+03  0.5263E+03  0.2830E+03
  -0.170  0.5626E+03  0.6825E+03  0.2958E+03
  -0.160  0.6269E+03  0.7167E+03  0.3073E+03
  -0.150  0.6330E+03  0.6607E+03  0.3195E+03
  -0.140  0.5526E+03  0.5496E+03  0.3292E+03
  -0.130  0.2832E+03  0.2364E+03  0.3390E+03
  -0.120  0.2247E+03  0.2438E+03  0.3438E+03
  -0.110  0.1003E+03  0.1032E+03  0.3471E+03
  -0.100  0.7912E+02  0.8213E+02  0.3489E+03
  -0.090  0.7188E+02  0.6921E+02  0.3504E+03
  -0.080  0.8013E+02  0.7532E+02  0.3519E+03
  -0.070  0.7104E+02  0.7437E+02  0.3534E+03
  -0.060  0.7017E+02  0.6633E+02  0.3548E+03
  -0.050  0.7096E+02  0.7004E+02  0.3562E+03
  -0.040  0.6339E+02  0.6642E+02  0.3576E+03
  -0.030  0.4441E+02  0.5298E+02  0.3587E+03
  -0.020  0.4692E+02  0.4079E+02  0.3596E+03
  -0.010  0.7492E+02  0.7164E+02  0.3607E+03
   0.000  0.6746E+02  0.7283E+02  0.3623E+03
   0.010  0.6930E+02  0.5432E+02  0.3636E+03
   0.020  0.4241E+02  0.3937E+02  0.3646E+03
   0.030  0.7933E+02  0.7689E+02  0.3658E+03
   0.040  0.7486E+02  0.9114E+02  0.3675E+03
   0.050  0.8816E+02  0.8673E+02  0.3691E+03
   0.060  0.6038E+02  0.7048E+02  0.3708E+03
   0.070  0.5612E+02  0.5495E+02  0.3719E+03
   0.080  0.4394E+02  0.5500E+02  0.3730E+03
   0.090  0.4049E+02  0.3729E+02  0.3738E+03
   0.100  0.6184E+02  0.5970E+02  0.3748E+03
   0.110  0.7626E+02  0.7174E+02  0.3762E+03
   0.120  0.9242E+02  0.9697E+02  0.3780E+03
   0.130  0.6877E+02  0.6469E+02  0.3796E+03
   0.140  0.3388E+02  0.3903E+02  0.3805E+03
   0.150  0.2017E+02  0.2320E+02  0.3811E+03
   0.160  0.1363E+02  0.1472E+02  0.3815E+03
   0.170  0.1950E+02  0.1311E+02  0.3817E+03
   0.180  0.4580E+01  0.5402E+01  0.3819E+03
   0.190  0.1642E+01  0.2126E+01  0.3820E+03
   0.200  0.1918E+00  0.3608E+00  0.3820E+03
   0.210  0.0000E+00  0.3730E-03  0.3820E+03
   0.220  0.0000E+00  0.0000E+00  0.3820E+03
   0.230  0.0000E+00  0.0000E+00  0.3820E+03
   0.240  0.0000E+00  0.0000E+00  0.3820E+03
   0.250  0.0000E+00  0.0000E+00  0.3820E+03
   0.260  0.0000E+00  0.0000E+00  0.3820E+03
   0.270  0.0000E+00  0.0000E+00  0.3820E+03
   0.280  0.0000E+00  0.0000E+00  0.3820E+03
   0.290  0.0000E+00  0.0000E+00  0.3820E+03
   0.300  0.0000E+00  0.0000E+00  0.3820E+03
   0.310  0.0000E+00  0.0000E+00  0.3820E+03
   0.320  0.0000E+00  0.0000E+00  0.3820E+03
   0.330  0.0000E+00  0.0000E+00  0.3820E+03
   0.340  0.0000E+00  0.0000E+00  0.3820E+03
   0.350  0.8045E-04  0.0000E+00  0.3820E+03
   0.360  0.2806E-02  0.2140E-03  0.3820E+03
   0.370  0.1405E-01  0.3888E-02  0.3820E+03
   0.380  0.3689E-01  0.1694E-01  0.3820E+03
   0.390  0.7138E-01  0.4146E-01  0.3820E+03
   0.400  0.1182E+00  0.7747E-01  0.3820E+03
   0.410  0.1778E+00  0.1254E+00  0.3820E+03
   0.420  0.2503E+00  0.1861E+00  0.3820E+03
   0.430  0.3356E+00  0.2594E+00  0.3820E+03
   0.440  0.4337E+00  0.3456E+00  0.3820E+03
   0.450  0.5447E+00  0.4445E+00  0.3820E+03
   0.460  0.6685E+00  0.5561E+00  0.3820E+03
   0.470  0.8052E+00  0.6805E+00  0.3821E+03
   0.480  0.9795E+00  0.8176E+00  0.3821E+03
   0.490  0.1371E+01  0.1007E+01  0.3821E+03
   0.500  0.1954E+01  0.1434E+01  0.3821E+03
   0.510  0.2776E+01  0.2013E+01  0.3822E+03
   0.520  0.3582E+01  0.2843E+01  0.3822E+03
   0.530  0.4101E+01  0.3637E+01  0.3823E+03
   0.540  0.4342E+01  0.4140E+01  0.3824E+03
   0.550  0.4307E+01  0.4361E+01  0.3825E+03
   0.560  0.4000E+01  0.4302E+01  0.3825E+03
   0.570  0.3624E+01  0.3969E+01  0.3826E+03
   0.580  0.3695E+01  0.3620E+01  0.3827E+03
   0.590  0.3935E+01  0.3728E+01  0.3828E+03
   0.600  0.4176E+01  0.3971E+01  0.3828E+03
   0.610  0.4435E+01  0.4215E+01  0.3829E+03
   0.620  0.4708E+01  0.4477E+01  0.3830E+03
   0.630  0.4995E+01  0.4753E+01  0.3831E+03
   0.640  0.5298E+01  0.5044E+01  0.3832E+03
   0.650  0.5618E+01  0.5351E+01  0.3833E+03
   0.660  0.5951E+01  0.5675E+01  0.3834E+03
   0.670  0.6289E+01  0.6013E+01  0.3836E+03
   0.680  0.6599E+01  0.6351E+01  0.3837E+03
   0.690  0.7058E+01  0.6663E+01  0.3838E+03
   0.700  0.8091E+01  0.7198E+01  0.3840E+03
   0.710  0.9645E+01  0.8420E+01  0.3841E+03
   0.720  0.1093E+02  0.1017E+02  0.3843E+03
   0.730  0.1181E+02  0.1108E+02  0.3845E+03
   0.740  0.1267E+02  0.1196E+02  0.3848E+03
   0.750  0.1251E+02  0.1280E+02  0.3850E+03
   0.760  0.1265E+02  0.1258E+02  0.3853E+03
   0.770  0.1313E+02  0.1270E+02  0.3855E+03
   0.780  0.1263E+02  0.1300E+02  0.3858E+03
   0.790  0.1214E+02  0.1193E+02  0.3860E+03
   0.800  0.1232E+02  0.1193E+02  0.3863E+03
   0.810  0.1255E+02  0.1218E+02  0.3865E+03
   0.820  0.1274E+02  0.1243E+02  0.3868E+03
   0.830  0.1290E+02  0.1264E+02  0.3870E+03
   0.840  0.1303E+02  0.1283E+02  0.3873E+03
   0.850  0.1315E+02  0.1298E+02  0.3875E+03
   0.860  0.1326E+02  0.1311E+02  0.3878E+03
   0.870  0.1335E+02  0.1324E+02  0.3881E+03
   0.880  0.1343E+02  0.1335E+02  0.3883E+03
   0.890  0.1350E+02  0.1346E+02  0.3886E+03
   0.900  0.1422E+02  0.1357E+02  0.3889E+03
   0.910  0.1558E+02  0.1446E+02  0.3892E+03
   0.920  0.1686E+02  0.1585E+02  0.3895E+03
   0.930  0.1828E+02  0.1707E+02  0.3898E+03
   0.940  0.1935E+02  0.1847E+02  0.3902E+03
   0.950  0.2018E+02  0.1940E+02  0.3906E+03
   0.960  0.2097E+02  0.2004E+02  0.3910E+03
   0.970  0.2042E+02  0.2017E+02  0.3914E+03
   0.980  0.2174E+02  0.1930E+02  0.3918E+03
   0.990  0.2689E+02  0.2111E+02  0.3922E+03
   1.000  0.3163E+02  0.2677E+02  0.3928E+03
   1.010  0.3707E+02  0.3247E+02  0.3934E+03
   1.020  0.4394E+02  0.3809E+02  0.3942E+03
   1.030  0.4274E+02  0.5015E+02  0.3951E+03
   1.040  0.4524E+02  0.4666E+02  0.3960E+03
   1.050  0.8047E+02  0.4973E+02  0.3970E+03
   1.060  0.6342E+02  0.7035E+02  0.3984E+03
   1.070  0.7923E+02  0.6817E+02  0.3997E+03
   1.080  0.3961E+02  0.7620E+02  0.4012E+03
   1.090  0.3445E+02  0.3626E+02  0.4022E+03
   1.100  0.3185E+02  0.3112E+02  0.4028E+03
   1.110  0.3268E+02  0.2652E+02  0.4034E+03
   1.120  0.2934E+02  0.2709E+02  0.4040E+03
   1.130  0.2640E+02  0.2980E+02  0.4046E+03
   1.140  0.2321E+02  0.3002E+02  0.4051E+03
   1.150  0.1983E+02  0.2572E+02  0.4056E+03
   1.160  0.1694E+02  0.2022E+02  0.4060E+03
   1.170  0.2038E+02  0.1811E+02  0.4064E+03
   1.180  0.2536E+02  0.2242E+02  0.4068E+03
   1.190  0.2817E+02  0.2546E+02  0.4073E+03
   1.200  0.2841E+02  0.2657E+02  0.4079E+03
   1.210  0.2745E+02  0.2599E+02  0.4084E+03
   1.220  0.2727E+02  0.2500E+02  0.4090E+03
   1.230  0.2757E+02  0.2496E+02  0.4095E+03
   1.240  0.2865E+02  0.2535E+02  0.4100E+03
   1.250  0.2916E+02  0.2660E+02  0.4106E+03
   1.260  0.2876E+02  0.2746E+02  0.4111E+03
   1.270  0.2783E+02  0.2770E+02  0.4117E+03
   1.280  0.2633E+02  0.2691E+02  0.4122E+03
   1.290  0.2422E+02  0.2616E+02  0.4127E+03
   1.300  0.2183E+02  0.2492E+02  0.4132E+03
   1.310  0.2040E+02  0.2320E+02  0.4137E+03
   1.320  0.1897E+02  0.2107E+02  0.4141E+03
   1.330  0.1748E+02  0.1928E+02  0.4145E+03
   1.340  0.1658E+02  0.1782E+02  0.4148E+03
   1.350  0.2177E+02  0.1705E+02  0.4152E+03
   1.360  0.2174E+02  0.1691E+02  0.4156E+03
   1.370  0.2113E+02  0.1727E+02  0.4160E+03
   1.380  0.2022E+02  0.1812E+02  0.4164E+03
   1.390  0.1857E+02  0.1928E+02  0.4167E+03
   1.400  0.2100E+02  0.2053E+02  0.4171E+03
   1.410  0.1204E+02  0.1954E+02  0.4175E+03
   1.420  0.1186E+02  0.1955E+02  0.4178E+03
   1.430  0.1209E+02  0.1806E+02  0.4181E+03
   1.440  0.1239E+02  0.1295E+02  0.4184E+03
   1.450  0.1302E+02  0.1120E+02  0.4186E+03
   1.460  0.1374E+02  0.1192E+02  0.4189E+03
   1.470  0.1432E+02  0.1284E+02  0.4191E+03
   1.480  0.1475E+02  0.1361E+02  0.4194E+03
   1.490  0.1502E+02  0.1398E+02  0.4197E+03
   1.500  0.1513E+02  0.1423E+02  0.4200E+03
   1.510  0.1508E+02  0.1437E+02  0.4203E+03
   1.520  0.1487E+02  0.1440E+02  0.4206E+03
   1.530  0.1450E+02  0.1430E+02  0.4209E+03
   1.540  0.1397E+02  0.1409E+02  0.4212E+03
   1.550  0.1334E+02  0.1375E+02  0.4214E+03
   1.560  0.1261E+02  0.1328E+02  0.4217E+03
   1.570  0.1175E+02  0.1268E+02  0.4220E+03
   1.580  0.1136E+02  0.1196E+02  0.4222E+03
   1.590  0.1119E+02  0.1124E+02  0.4224E+03
   1.600  0.1118E+02  0.1065E+02  0.4227E+03
   1.610  0.1129E+02  0.1019E+02  0.4229E+03
   1.620  0.1140E+02  0.9874E+01  0.4231E+03
   1.630  0.1148E+02  0.9749E+01  0.4233E+03
   1.640  0.1136E+02  0.9749E+01  0.4235E+03
   1.650  0.1565E+02  0.9817E+01  0.4237E+03
   1.660  0.1133E+02  0.9951E+01  0.4239E+03
   1.670  0.1093E+02  0.1096E+02  0.4242E+03
   1.680  0.1008E+02  0.1186E+02  0.4244E+03
   1.690  0.9159E+01  0.1248E+02  0.4246E+03
   1.700  0.8981E+01  0.1156E+02  0.4248E+03
   1.710  0.9515E+01  0.1065E+02  0.4250E+03
   1.720  0.9802E+01  0.1003E+02  0.4252E+03
   1.730  0.9539E+01  0.1052E+02  0.4254E+03
   1.740  0.8843E+01  0.1175E+02  0.4256E+03
   1.750  0.8632E+01  0.1168E+02  0.4258E+03
   1.760  0.5523E+01  0.8284E+01  0.4260E+03
   1.770  0.5320E+01  0.1108E+02  0.4262E+03
   1.780  0.5561E+01  0.6469E+01  0.4263E+03
   1.790  0.5836E+01  0.6017E+01  0.4264E+03
   1.800  0.6159E+01  0.5876E+01  0.4265E+03
   1.810  0.6541E+01  0.6033E+01  0.4267E+03
   1.820  0.7053E+01  0.6351E+01  0.4268E+03
   1.830  0.7573E+01  0.6734E+01  0.4269E+03
   1.840  0.8061E+01  0.7109E+01  0.4271E+03
   1.850  0.8513E+01  0.7450E+01  0.4272E+03
   1.860  0.8929E+01  0.7756E+01  0.4274E+03
   1.870  0.9309E+01  0.8026E+01  0.4276E+03
   1.880  0.9660E+01  0.8260E+01  0.4277E+03
   1.890  0.1019E+02  0.8459E+01  0.4279E+03
   1.900  0.1072E+02  0.8623E+01  0.4281E+03
   1.910  0.1108E+02  0.8751E+01  0.4283E+03
   1.920  0.1124E+02  0.8839E+01  0.4285E+03
   1.930  0.1121E+02  0.8914E+01  0.4287E+03
   1.940  0.1099E+02  0.9226E+01  0.4289E+03
   1.950  0.1059E+02  0.9502E+01  0.4291E+03
   1.960  0.1007E+02  0.9663E+01  0.4293E+03
   1.970  0.9658E+01  0.9668E+01  0.4295E+03
   1.980  0.9301E+01  0.9537E+01  0.4297E+03
   1.990  0.8995E+01  0.9314E+01  0.4299E+03
   2.000  0.8734E+01  0.8970E+01  0.4301E+03
   2.010  0.8535E+01  0.8535E+01  0.4302E+03
   2.020  0.8375E+01  0.8157E+01  0.4304E+03
   2.030  0.8237E+01  0.7836E+01  0.4306E+03
   2.040  0.8143E+01  0.7589E+01  0.4307E+03
   2.050  0.8078E+01  0.7377E+01  0.4309E+03
   2.060  0.8087E+01  0.7216E+01  0.4310E+03
   2.070  0.8092E+01  0.7119E+01  0.4312E+03
   2.080  0.8080E+01  0.7139E+01  0.4313E+03
   2.090  0.8186E+01  0.7182E+01  0.4315E+03
   2.100  0.8270E+01  0.7271E+01  0.4316E+03
   2.110  0.8293E+01  0.7376E+01  0.4318E+03
   2.120  0.8252E+01  0.7482E+01  0.4320E+03
   2.130  0.8146E+01  0.7590E+01  0.4321E+03
   2.140  0.7977E+01  0.7700E+01  0.4323E+03
   2.150  0.7743E+01  0.7811E+01  0.4324E+03
   2.160  0.7451E+01  0.7904E+01  0.4326E+03
   2.170  0.7100E+01  0.8002E+01  0.4327E+03
   2.180  0.6328E+01  0.8113E+01  0.4329E+03
   2.190  0.5344E+01  0.8136E+01  0.4330E+03
   2.200  0.6137E+01  0.8061E+01  0.4332E+03
   2.210  0.6977E+01  0.7747E+01  0.4333E+03
   2.220  0.6175E+01  0.6980E+01  0.4334E+03
   2.230  0.6255E+01  0.6562E+01  0.4336E+03
   2.240  0.6478E+01  0.6466E+01  0.4337E+03
   2.250  0.6733E+01  0.6702E+01  0.4338E+03
   2.260  0.7018E+01  0.6430E+01  0.4340E+03
   2.270  0.7277E+01  0.6352E+01  0.4341E+03
   2.280  0.7505E+01  0.6328E+01  0.4342E+03
   2.290  0.7698E+01  0.6330E+01  0.4344E+03
   2.300  0.7852E+01  0.6299E+01  0.4345E+03
   2.310  0.7945E+01  0.6239E+01  0.4347E+03
   2.320  0.7976E+01  0.6192E+01  0.4348E+03
   2.330  0.7971E+01  0.6149E+01  0.4350E+03
   2.340  0.7971E+01  0.6099E+01  0.4351E+03
   2.350  0.7925E+01  0.6043E+01  0.4352E+03
   2.360  0.7825E+01  0.5975E+01  0.4354E+03
   2.370  0.7669E+01  0.5985E+01  0.4355E+03
   2.380  0.7455E+01  0.6041E+01  0.4356E+03
   2.390  0.7203E+01  0.6087E+01  0.4358E+03
   2.400  0.6927E+01  0.6124E+01  0.4359E+03
   2.410  0.6616E+01  0.6151E+01  0.4360E+03
   2.420  0.6314E+01  0.6168E+01  0.4362E+03
   2.430  0.6051E+01  0.6174E+01  0.4363E+03
   2.440  0.5870E+01  0.6168E+01  0.4364E+03
   2.450  0.6216E+01  0.6147E+01  0.4365E+03
   2.460  0.6693E+01  0.6116E+01  0.4367E+03
   2.470  0.7106E+01  0.6746E+01  0.4368E+03
   2.480  0.7322E+01  0.7191E+01  0.4369E+03
   2.490  0.7584E+01  0.7465E+01  0.4371E+03
   2.500  0.7906E+01  0.7879E+01  0.4372E+03
   2.510  0.8256E+01  0.8369E+01  0.4374E+03
   2.520  0.8728E+01  0.8827E+01  0.4376E+03
   2.530  0.9258E+01  0.9313E+01  0.4377E+03
   2.540  0.9947E+01  0.9848E+01  0.4379E+03
   2.550  0.1082E+02  0.1038E+02  0.4381E+03
   2.560  0.1173E+02  0.1087E+02  0.4384E+03
   2.570  0.1204E+02  0.1133E+02  0.4386E+03
   2.580  0.1253E+02  0.1167E+02  0.4388E+03
   2.590  0.1311E+02  0.1205E+02  0.4391E+03
   2.600  0.1376E+02  0.1240E+02  0.4393E+03
   2.610  0.1492E+02  0.1272E+02  0.4396E+03
   2.620  0.1744E+02  0.1299E+02  0.4399E+03
   2.630  0.1867E+02  0.1342E+02  0.4402E+03
   2.640  0.1999E+02  0.1395E+02  0.4405E+03
   2.650  0.2256E+02  0.1489E+02  0.4409E+03
   2.660  0.2497E+02  0.1589E+02  0.4413E+03
   2.670  0.2822E+02  0.1752E+02  0.4417E+03
   2.680  0.3201E+02  0.1917E+02  0.4422E+03
   2.690  0.3445E+02  0.2057E+02  0.4427E+03
   2.700  0.3469E+02  0.2233E+02  0.4433E+03
   2.710  0.2964E+02  0.2523E+02  0.4439E+03
   2.720  0.2698E+02  0.2985E+02  0.4444E+03
   2.730  0.2645E+02  0.3230E+02  0.4450E+03
   2.740  0.2932E+02  0.3214E+02  0.4456E+03
   2.750  0.3171E+02  0.3994E+02  0.4462E+03
   2.760  0.2982E+02  0.4638E+02  0.4470E+03
   2.770  0.2935E+02  0.3980E+02  0.4477E+03
   2.780  0.2910E+02  0.2696E+02  0.4483E+03
   2.790  0.2767E+02  0.1846E+02  0.4488E+03
   2.800  0.2557E+02  0.1693E+02  0.4493E+03
   2.810  0.2310E+02  0.1636E+02  0.4497E+03
   2.820  0.3397E+02  0.1616E+02  0.4501E+03
   2.830  0.3410E+02  0.1598E+02  0.4506E+03
   2.840  0.2610E+02  0.2027E+02  0.4511E+03
   2.850  0.2121E+02  0.2537E+02  0.4516E+03
   2.860  0.2064E+02  0.2997E+02  0.4521E+03
   2.870  0.2747E+02  0.3207E+02  0.4526E+03
   2.880  0.2072E+02  0.2393E+02  0.4532E+03
   2.890  0.1252E+02  0.1468E+02  0.4535E+03
   2.900  0.1408E+02  0.1371E+02  0.4538E+03
   2.910  0.1486E+02  0.1502E+02  0.4540E+03
   2.920  0.1935E+02  0.1586E+02  0.4544E+03
   2.930  0.2416E+02  0.1659E+02  0.4548E+03
   2.940  0.2911E+02  0.1686E+02  0.4552E+03
   2.950  0.3391E+02  0.1670E+02  0.4557E+03
   2.960  0.2546E+02  0.1740E+02  0.4561E+03
   2.970  0.2089E+02  0.1809E+02  0.4565E+03
   2.980  0.1825E+02  0.2000E+02  0.4569E+03
   2.990  0.1857E+02  0.2273E+02  0.4573E+03
   3.000  0.1984E+02  0.2428E+02  0.4577E+03
   3.010  0.2048E+02  0.2536E+02  0.4582E+03
   3.020  0.2067E+02  0.2592E+02  0.4587E+03
   3.030  0.1976E+02  0.2606E+02  0.4591E+03
   3.040  0.1882E+02  0.2613E+02  0.4596E+03
   3.050  0.1797E+02  0.2649E+02  0.4600E+03
   3.060  0.1745E+02  0.2718E+02  0.4605E+03
   3.070  0.1749E+02  0.2769E+02  0.4609E+03
   3.080  0.1809E+02  0.2823E+02  0.4614E+03
   3.090  0.1973E+02  0.2880E+02  0.4618E+03
   3.100  0.2161E+02  0.2804E+02  0.4623E+03
   3.110  0.1900E+02  0.2792E+02  0.4628E+03
   3.120  0.1902E+02  0.3030E+02  0.4633E+03
   3.130  0.1694E+02  0.3181E+02  0.4638E+03
   3.140  0.2133E+02  0.2571E+02  0.4643E+03
   3.150  0.2766E+02  0.1992E+02  0.4648E+03
   3.160  0.2915E+02  0.1382E+02  0.4652E+03
   3.170  0.2775E+02  0.1384E+02  0.4656E+03
   3.180  0.2784E+02  0.1420E+02  0.4660E+03
   3.190  0.2865E+02  0.1450E+02  0.4665E+03
   3.200  0.2899E+02  0.1474E+02  0.4669E+03
   3.210  0.2918E+02  0.1491E+02  0.4673E+03
   3.220  0.2944E+02  0.1503E+02  0.4678E+03
   3.230  0.2996E+02  0.1520E+02  0.4682E+03
   3.240  0.3423E+02  0.1593E+02  0.4687E+03
   3.250  0.3869E+02  0.1769E+02  0.4692E+03
   3.260  0.3011E+02  0.1934E+02  0.4698E+03
   3.270  0.2433E+02  0.2165E+02  0.4702E+03
   3.280  0.2220E+02  0.2435E+02  0.4707E+03
   3.290  0.2294E+02  0.2993E+02  0.4712E+03
   3.300  0.2482E+02  0.3035E+02  0.4717E+03
   3.310  0.2508E+02  0.3191E+02  0.4723E+03
   3.320  0.2503E+02  0.3353E+02  0.4729E+03
   3.330  0.2547E+02  0.3436E+02  0.4735E+03
   3.340  0.2564E+02  0.3520E+02  0.4741E+03
   3.350  0.2617E+02  0.3286E+02  0.4747E+03
   3.360  0.2673E+02  0.3115E+02  0.4753E+03
   3.370  0.2712E+02  0.3023E+02  0.4758E+03
   3.380  0.2781E+02  0.3050E+02  0.4764E+03
   3.390  0.2883E+02  0.2989E+02  0.4770E+03
   3.400  0.2988E+02  0.3064E+02  0.4776E+03
   3.410  0.3056E+02  0.3236E+02  0.4782E+03
   3.420  0.3005E+02  0.3209E+02  0.4788E+03
   3.430  0.2944E+02  0.3285E+02  0.4795E+03
   3.440  0.2926E+02  0.3392E+02  0.4801E+03
   3.450  0.2913E+02  0.3495E+02  0.4807E+03
   3.460  0.2956E+02  0.3449E+02  0.4814E+03
   3.470  0.3036E+02  0.3422E+02  0.4820E+03
   3.480  0.3108E+02  0.3456E+02  0.4827E+03
   3.490  0.3024E+02  0.3442E+02  0.4833E+03
   3.500  0.2988E+02  0.3426E+02  0.4840E+03
   3.510  0.3013E+02  0.3402E+02  0.4846E+03
   3.520  0.3098E+02  0.3215E+02  0.4852E+03
   3.530  0.3112E+02  0.3145E+02  0.4859E+03
   3.540  0.3091E+02  0.3159E+02  0.4865E+03
   3.550  0.3254E+02  0.3195E+02  0.4871E+03
   3.560  0.3233E+02  0.3043E+02  0.4878E+03
   3.570  0.3165E+02  0.3089E+02  0.4884E+03
   3.580  0.3268E+02  0.3076E+02  0.4890E+03
   3.590  0.3358E+02  0.3015E+02  0.4897E+03
   3.600  0.3373E+02  0.3157E+02  0.4903E+03
   3.610  0.3201E+02  0.3077E+02  0.4909E+03
   3.620  0.3065E+02  0.2954E+02  0.4916E+03
   3.630  0.2995E+02  0.2995E+02  0.4922E+03
   3.640  0.2956E+02  0.3047E+02  0.4928E+03
   3.650  0.2971E+02  0.3162E+02  0.4934E+03
   3.660  0.3047E+02  0.3072E+02  0.4940E+03
   3.670  0.2872E+02  0.2964E+02  0.4946E+03
   3.680  0.2995E+02  0.3000E+02  0.4952E+03
   3.690  0.3017E+02  0.3233E+02  0.4958E+03
   3.700  0.2823E+02  0.3073E+02  0.4964E+03
   3.710  0.2822E+02  0.2664E+02  0.4970E+03
   3.720  0.2910E+02  0.2498E+02  0.4975E+03
   3.730  0.2947E+02  0.2123E+02  0.4981E+03
   3.740  0.2810E+02  0.2116E+02  0.4986E+03
   3.750  0.2957E+02  0.2219E+02  0.4991E+03
   3.760  0.2620E+02  0.2279E+02  0.4996E+03
   3.770  0.2777E+02  0.2754E+02  0.5001E+03
   3.780  0.2635E+02  0.2617E+02  0.5006E+03
   3.790  0.2666E+02  0.3088E+02  0.5012E+03
   3.800  0.2687E+02  0.3751E+02  0.5018E+03
   3.810  0.2566E+02  0.3926E+02  0.5024E+03
   3.820  0.2458E+02  0.3906E+02  0.5031E+03
   3.830  0.3041E+02  0.3616E+02  0.5037E+03
   3.840  0.4025E+02  0.4238E+02  0.5045E+03
   3.850  0.4348E+02  0.3740E+02  0.5053E+03
   3.860  0.4484E+02  0.3446E+02  0.5061E+03
   3.870  0.4511E+02  0.3317E+02  0.5069E+03
   3.880  0.4318E+02  0.3361E+02  0.5076E+03
   3.890  0.3831E+02  0.3428E+02  0.5084E+03
   3.900  0.3179E+02  0.3507E+02  0.5091E+03
   3.910  0.2630E+02  0.3144E+02  0.5097E+03
   3.920  0.2116E+02  0.4171E+02  0.5103E+03
   3.930  0.2298E+02  0.3242E+02  0.5109E+03
   3.940  0.2539E+02  0.2851E+02  0.5114E+03
   3.950  0.2562E+02  0.2651E+02  0.5120E+03
   3.960  0.2592E+02  0.2492E+02  0.5125E+03
   3.970  0.2722E+02  0.2347E+02  0.5130E+03
   3.980  0.2854E+02  0.2306E+02  0.5135E+03
   3.990  0.2945E+02  0.2363E+02  0.5140E+03
   4.000  0.2970E+02  0.2451E+02  0.5146E+03
   4.010  0.3020E+02  0.2409E+02  0.5151E+03
   4.020  0.3260E+02  0.2357E+02  0.5157E+03
   4.030  0.2779E+02  0.2440E+02  0.5162E+03
   4.040  0.2616E+02  0.2535E+02  0.5167E+03
   4.050  0.2580E+02  0.2599E+02  0.5172E+03
   4.060  0.2678E+02  0.2715E+02  0.5178E+03
   4.070  0.2769E+02  0.2920E+02  0.5183E+03
   4.080  0.2934E+02  0.3014E+02  0.5189E+03
   4.090  0.3215E+02  0.3013E+02  0.5195E+03
   4.100  0.3233E+02  0.3357E+02  0.5201E+03
   4.110  0.3097E+02  0.2994E+02  0.5208E+03
   4.120  0.3370E+02  0.2948E+02  0.5214E+03
   4.130  0.3238E+02  0.2993E+02  0.5220E+03
   4.140  0.3283E+02  0.3120E+02  0.5227E+03
   4.150  0.3529E+02  0.3273E+02  0.5233E+03
   4.160  0.3297E+02  0.3426E+02  0.5240E+03
   4.170  0.3152E+02  0.3456E+02  0.5247E+03
   4.180  0.2986E+02  0.3267E+02  0.5253E+03
   4.190  0.2862E+02  0.3164E+02  0.5259E+03
   4.200  0.2758E+02  0.3047E+02  0.5265E+03
   4.210  0.2727E+02  0.2990E+02  0.5271E+03
   4.220  0.2840E+02  0.2990E+02  0.5277E+03
   4.230  0.2949E+02  0.2940E+02  0.5283E+03
   4.240  0.3061E+02  0.2907E+02  0.5288E+03
   4.250  0.3224E+02  0.2950E+02  0.5295E+03
   4.260  0.3281E+02  0.3157E+02  0.5301E+03
   4.270  0.3253E+02  0.3256E+02  0.5307E+03
   4.280  0.3306E+02  0.3611E+02  0.5314E+03
   4.290  0.3233E+02  0.3474E+02  0.5321E+03
   4.300  0.3175E+02  0.3471E+02  0.5328E+03
   4.310  0.2885E+02  0.3555E+02  0.5334E+03
   4.320  0.2696E+02  0.3433E+02  0.5341E+03
   4.330  0.2715E+02  0.3398E+02  0.5347E+03
   4.340  0.2806E+02  0.3461E+02  0.5353E+03
   4.350  0.2797E+02  0.3200E+02  0.5359E+03
   4.360  0.3091E+02  0.3064E+02  0.5365E+03
   4.370  0.3495E+02  0.2962E+02  0.5371E+03
   4.380  0.3714E+02  0.2894E+02  0.5378E+03
   4.390  0.3601E+02  0.2876E+02  0.5385E+03
   4.400  0.2969E+02  0.2927E+02  0.5391E+03
   4.410  0.2533E+02  0.2894E+02  0.5396E+03
   4.420  0.2244E+02  0.2793E+02  0.5402E+03
   4.430  0.2397E+02  0.2699E+02  0.5407E+03
   4.440  0.2918E+02  0.2631E+02  0.5412E+03
   4.450  0.3759E+02  0.2621E+02  0.5418E+03
   4.460  0.3647E+02  0.2480E+02  0.5424E+03
   4.470  0.3077E+02  0.2330E+02  0.5430E+03
   4.480  0.2387E+02  0.2229E+02  0.5435E+03
   4.490  0.2376E+02  0.2178E+02  0.5440E+03
   4.500  0.2513E+02  0.2234E+02  0.5444E+03
   4.510  0.3168E+02  0.2382E+02  0.5449E+03
   4.520  0.3854E+02  0.2663E+02  0.5455E+03
   4.530  0.3577E+02  0.3001E+02  0.5462E+03
   4.540  0.2900E+02  0.2683E+02  0.5468E+03
   4.550  0.2188E+02  0.2608E+02  0.5474E+03
   4.560  0.2111E+02  0.2674E+02  0.5479E+03
   4.570  0.2054E+02  0.2717E+02  0.5483E+03
   4.580  0.2056E+02  0.2710E+02  0.5488E+03
   4.590  0.2089E+02  0.2703E+02  0.5493E+03
   4.600  0.2122E+02  0.2876E+02  0.5498E+03
   4.610  0.2150E+02  0.2713E+02  0.5503E+03
   4.620  0.2269E+02  0.2768E+02  0.5508E+03
   4.630  0.2427E+02  0.2732E+02  0.5513E+03
   4.640  0.2877E+02  0.2723E+02  0.5518E+03
   4.650  0.3033E+02  0.2868E+02  0.5524E+03
   4.660  0.3791E+02  0.3130E+02  0.5530E+03
   4.670  0.3790E+02  0.3490E+02  0.5537E+03
   4.680  0.3469E+02  0.3832E+02  0.5545E+03
   4.690  0.3028E+02  0.3849E+02  0.5552E+03
   4.700  0.2790E+02  0.3165E+02  0.5558E+03
   4.710  0.2707E+02  0.2636E+02  0.5564E+03
   4.720  0.2185E+02  0.3207E+02  0.5569E+03
   4.730  0.2551E+02  0.3454E+02  0.5575E+03
   4.740  0.3006E+02  0.2940E+02  0.5581E+03
   4.750  0.3546E+02  0.3504E+02  0.5587E+03
   4.760  0.3084E+02  0.3200E+02  0.5594E+03
   4.770  0.2445E+02  0.2516E+02  0.5600E+03
   4.780  0.2439E+02  0.2147E+02  0.5604E+03
   4.790  0.2135E+02  0.1989E+02  0.5609E+03
   4.800  0.1945E+02  0.1868E+02  0.5613E+03
   4.810  0.1825E+02  0.1764E+02  0.5616E+03
   4.820  0.1750E+02  0.1678E+02  0.5620E+03
   4.830  0.1714E+02  0.1612E+02  0.5623E+03
   4.840  0.1712E+02  0.1561E+02  0.5627E+03
   4.850  0.1736E+02  0.1523E+02  0.5630E+03
   4.860  0.2013E+02  0.1496E+02  0.5633E+03
   4.870  0.2464E+02  0.1474E+02  0.5637E+03
   4.880  0.2164E+02  0.1457E+02  0.5641E+03
   4.890  0.2101E+02  0.1448E+02  0.5644E+03
   4.900  0.2135E+02  0.1492E+02  0.5648E+03
   4.910  0.2091E+02  0.1450E+02  0.5651E+03
   4.920  0.2094E+02  0.1333E+02  0.5655E+03
   4.930  0.2582E+02  0.1336E+02  0.5659E+03
   4.940  0.2607E+02  0.1369E+02  0.5663E+03
   4.950  0.2407E+02  0.1585E+02  0.5666E+03
   4.960  0.2331E+02  0.1440E+02  0.5670E+03
   4.970  0.2014E+02  0.1560E+02  0.5674E+03
   4.980  0.1676E+02  0.1600E+02  0.5678E+03
   4.990  0.1416E+02  0.1531E+02  0.5681E+03
   5.000  0.1584E+02  0.1509E+02  0.5684E+03
   5.010  0.1762E+02  0.1610E+02  0.5687E+03
   5.020  0.1791E+02  0.1743E+02  0.5690E+03
   5.030  0.1687E+02  0.1883E+02  0.5694E+03
   5.040  0.1498E+02  0.1753E+02  0.5697E+03
   5.050  0.1371E+02  0.1535E+02  0.5700E+03
   5.060  0.1374E+02  0.1356E+02  0.5703E+03
   5.070  0.1365E+02  0.1286E+02  0.5706E+03
   5.080  0.1330E+02  0.1272E+02  0.5709E+03
   5.090  0.1244E+02  0.1215E+02  0.5711E+03
   5.100  0.1212E+02  0.1141E+02  0.5714E+03
   5.110  0.1177E+02  0.1295E+02  0.5716E+03
   5.120  0.1080E+02  0.6315E+01  0.5718E+03
   5.130  0.9886E+01  0.5102E+01  0.5720E+03
   5.140  0.9692E+01  0.6463E+01  0.5721E+03
   5.150  0.9868E+01  0.1296E+02  0.5723E+03
   5.160  0.1074E+02  0.1559E+02  0.5725E+03
   5.170  0.1133E+02  0.1386E+02  0.5728E+03
   5.180  0.1289E+02  0.1032E+02  0.5730E+03
   5.190  0.1613E+02  0.8527E+01  0.5733E+03
   5.200  0.1930E+02  0.7912E+01  0.5735E+03
   5.210  0.2105E+02  0.7464E+01  0.5738E+03
   5.220  0.1976E+02  0.7655E+01  0.5741E+03
   5.230  0.1105E+02  0.8894E+01  0.5744E+03
   5.240  0.8463E+01  0.1030E+02  0.5745E+03
   5.250  0.7536E+01  0.1187E+02  0.5747E+03
   5.260  0.7086E+01  0.1360E+02  0.5749E+03
   5.270  0.7128E+01  0.1547E+02  0.5751E+03
   5.280  0.7658E+01  0.1874E+02  0.5754E+03
   5.290  0.7493E+01  0.1706E+02  0.5757E+03
   5.300  0.7447E+01  0.1020E+02  0.5759E+03
   5.310  0.7542E+01  0.1056E+02  0.5760E+03
   5.320  0.7662E+01  0.1513E+02  0.5762E+03
   5.330  0.7724E+01  0.2101E+02  0.5765E+03
   5.340  0.7667E+01  0.2174E+02  0.5768E+03
   5.350  0.7434E+01  0.1879E+02  0.5771E+03
   5.360  0.7136E+01  0.1551E+02  0.5773E+03
   5.370  0.6780E+01  0.1417E+02  0.5775E+03
   5.380  0.6541E+01  0.1438E+02  0.5777E+03
   5.390  0.6107E+01  0.1767E+02  0.5780E+03
   5.400  0.5230E+01  0.1844E+02  0.5782E+03
   5.410  0.4142E+01  0.1644E+02  0.5784E+03
   5.420  0.3101E+01  0.1311E+02  0.5786E+03
   5.430  0.2543E+01  0.9609E+01  0.5788E+03
   5.440  0.4362E+01  0.5986E+01  0.5789E+03
   5.450  0.7047E+01  0.3348E+01  0.5790E+03
   5.460  0.1145E+02  0.1953E+01  0.5791E+03
   5.470  0.1325E+02  0.1241E+01  0.5792E+03
   5.480  0.1553E+02  0.7077E+00  0.5794E+03
   5.490  0.1848E+02  0.3234E+00  0.5796E+03
   5.500  0.2053E+02  0.8773E-01  0.5798E+03
   5.510  0.1994E+02  0.7654E-03  0.5800E+03
   5.520  0.1681E+02  0.0000E+00  0.5801E+03
   5.530  0.1362E+02  0.0000E+00  0.5803E+03
   5.540  0.1153E+02  0.0000E+00  0.5804E+03
   5.550  0.9444E+01  0.0000E+00  0.5805E+03
   5.560  0.7253E+01  0.0000E+00  0.5806E+03
   5.570  0.5881E+01  0.0000E+00  0.5807E+03
   5.580  0.4973E+01  0.0000E+00  0.5807E+03
   5.590  0.4689E+01  0.0000E+00  0.5808E+03
   5.600  0.4711E+01  0.0000E+00  0.5808E+03
   5.610  0.4451E+01  0.0000E+00  0.5809E+03
   5.620  0.3953E+01  0.0000E+00  0.5809E+03
   5.630  0.3218E+01  0.0000E+00  0.5809E+03
   5.640  0.2236E+01  0.0000E+00  0.5810E+03
   5.650  0.1004E+01  0.0000E+00  0.5810E+03
   5.660  0.3916E+00  0.0000E+00  0.5810E+03
   5.670  0.1688E+00  0.0000E+00  0.5810E+03
   5.680  0.3975E-01  0.0000E+00  0.5810E+03
   5.690  0.2947E-02  0.0000E+00  0.5810E+03
   5.700  0.1244E-02  0.0000E+00  0.5810E+03
   5.710  0.2866E-03  0.0000E+00  0.5810E+03
   5.720  0.2938E-05  0.0000E+00  0.5810E+03
   5.730  0.0000E+00  0.0000E+00  0.5810E+03
   5.740  0.0000E+00  0.0000E+00  0.5810E+03
   5.750  0.0000E+00  0.0000E+00  0.5810E+03
   5.760  0.0000E+00  0.0000E+00  0.5810E+03
   5.770  0.0000E+00  0.0000E+00  0.5810E+03
   5.780  0.0000E+00  0.0000E+00  0.5810E+03
   5.790  0.0000E+00  0.0000E+00  0.5810E+03
   5.800  0.0000E+00  0.0000E+00  0.5810E+03
   5.810  0.0000E+00  0.0000E+00  0.5810E+03
   5.820  0.0000E+00  0.0000E+00  0.5810E+03
   5.830  0.0000E+00  0.0000E+00  0.5810E+03
   5.840  0.0000E+00  0.0000E+00  0.5810E+03
   5.850  0.0000E+00  0.0000E+00  0.5810E+03
   5.860  0.0000E+00  0.0000E+00  0.5810E+03
   5.870  0.0000E+00  0.0000E+00  0.5810E+03
   5.880  0.0000E+00  0.0000E+00  0.5810E+03
   5.890  0.0000E+00  0.0000E+00  0.5810E+03
   5.900  0.0000E+00  0.0000E+00  0.5810E+03
   5.910  0.0000E+00  0.0000E+00  0.5810E+03
   5.920  0.0000E+00  0.0000E+00  0.5810E+03
   5.930  0.0000E+00  0.0000E+00  0.5810E+03
   5.940  0.0000E+00  0.0000E+00  0.5810E+03
   5.950  0.0000E+00  0.0000E+00  0.5810E+03
   5.960  0.0000E+00  0.0000E+00  0.5810E+03
   5.970  0.0000E+00  0.0000E+00  0.5810E+03
   5.980  0.0000E+00  0.0000E+00  0.5810E+03
   5.990  0.0000E+00  0.0000E+00  0.5810E+03
   6.000  0.0000E+00  0.0000E+00  0.5810E+03
   6.010  0.0000E+00  0.0000E+00  0.5810E+03
   6.020  0.0000E+00  0.0000E+00  0.5810E+03
   6.030  0.0000E+00  0.0000E+00  0.5810E+03
   6.040  0.0000E+00  0.0000E+00  0.5810E+03
   6.050  0.0000E+00  0.0000E+00  0.5810E+03
   6.060  0.0000E+00  0.0000E+00  0.5810E+03
   6.070  0.0000E+00  0.0000E+00  0.5810E+03
   6.080  0.0000E+00  0.0000E+00  0.5810E+03
   6.090  0.0000E+00  0.0000E+00  0.5810E+03
   6.100  0.0000E+00  0.0000E+00  0.5810E+03
   6.110  0.0000E+00  0.0000E+00  0.5810E+03
   6.120  0.0000E+00  0.0000E+00  0.5810E+03
   6.130  0.0000E+00  0.0000E+00  0.5810E+03
   6.140  0.0000E+00  0.0000E+00  0.5810E+03
   6.150  0.0000E+00  0.0000E+00  0.5810E+03
   6.160  0.0000E+00  0.0000E+00  0.5810E+03
   6.170  0.0000E+00  0.0000E+00  0.5810E+03
   6.180  0.0000E+00  0.0000E+00  0.5810E+03
   6.190  0.0000E+00  0.0000E+00  0.5810E+03
   6.200  0.0000E+00  0.1825E-04  0.5810E+03
   6.210  0.0000E+00  0.3633E+00  0.5810E+03
   6.220  0.0000E+00  0.2721E+01  0.5810E+03
   6.230  0.0000E+00  0.1149E+02  0.5811E+03
   6.240  0.0000E+00  0.2290E+02  0.5813E+03
   6.250  0.0000E+00  0.3117E+02  0.5815E+03
   6.260  0.0000E+00  0.1446E+02  0.5818E+03
   6.270  0.0000E+00  0.1374E+02  0.5819E+03
   6.280  0.0000E+00  0.2076E+02  0.5821E+03
   6.290  0.0000E+00  0.2818E+02  0.5823E+03
   6.300  0.0000E+00  0.4097E+02  0.5826E+03
   6.310  0.0000E+00  0.5720E+02  0.5831E+03
   6.320  0.0000E+00  0.4588E+02  0.5837E+03
   6.330  0.0000E+00  0.6269E+01  0.5840E+03
   6.340  0.0000E+00  0.6075E+00  0.5840E+03
   6.350  0.0000E+00  0.5210E-02  0.5840E+03
   6.360  0.0000E+00  0.0000E+00  0.5840E+03
   6.370  0.0000E+00  0.0000E+00  0.5840E+03
   6.380  0.0000E+00  0.0000E+00  0.5840E+03
   6.390  0.0000E+00  0.0000E+00  0.5840E+03
   6.400  0.0000E+00  0.0000E+00  0.5840E+03
   6.410  0.0000E+00  0.0000E+00  0.5840E+03
   6.420  0.0000E+00  0.0000E+00  0.5840E+03
   6.430  0.0000E+00  0.0000E+00  0.5840E+03
   6.440  0.0000E+00  0.0000E+00  0.5840E+03
   6.450  0.0000E+00  0.0000E+00  0.5840E+03
   6.460  0.0000E+00  0.0000E+00  0.5840E+03
   6.470  0.0000E+00  0.0000E+00  0.5840E+03
   6.480  0.0000E+00  0.0000E+00  0.5840E+03
   6.490  0.0000E+00  0.0000E+00  0.5840E+03
   6.500  0.0000E+00  0.0000E+00  0.5840E+03
   6.510  0.0000E+00  0.0000E+00  0.5840E+03
   6.520  0.0000E+00  0.0000E+00  0.5840E+03
   6.530  0.0000E+00  0.0000E+00  0.5840E+03
   6.540  0.0000E+00  0.0000E+00  0.5840E+03
   6.550  0.0000E+00  0.0000E+00  0.5840E+03
   6.560  0.0000E+00  0.0000E+00  0.5840E+03
   6.570  0.0000E+00  0.0000E+00  0.5840E+03
   6.580  0.0000E+00  0.0000E+00  0.5840E+03
   6.590  0.0000E+00  0.0000E+00  0.5840E+03
   6.600  0.0000E+00  0.0000E+00  0.5840E+03
   6.610  0.0000E+00  0.0000E+00  0.5840E+03
   6.620  0.0000E+00  0.0000E+00  0.5840E+03
   6.630  0.0000E+00  0.0000E+00  0.5840E+03
   6.640  0.0000E+00  0.0000E+00  0.5840E+03
   6.650  0.0000E+00  0.0000E+00  0.5840E+03
   6.660  0.0000E+00  0.0000E+00  0.5840E+03
   6.670  0.0000E+00  0.0000E+00  0.5840E+03
   6.680  0.0000E+00  0.0000E+00  0.5840E+03
   6.690  0.0000E+00  0.0000E+00  0.5840E+03
   6.700  0.0000E+00  0.0000E+00  0.5840E+03
   6.710  0.0000E+00  0.0000E+00  0.5840E+03
   6.720  0.0000E+00  0.0000E+00  0.5840E+03
   6.730  0.0000E+00  0.0000E+00  0.5840E+03
   6.740  0.0000E+00  0.0000E+00  0.5840E+03
   6.750  0.0000E+00  0.0000E+00  0.5840E+03
   6.760  0.0000E+00  0.0000E+00  0.5840E+03
   6.770  0.0000E+00  0.0000E+00  0.5840E+03
   6.780  0.0000E+00  0.0000E+00  0.5840E+03
   6.790  0.0000E+00  0.0000E+00  0.5840E+03
   6.800  0.0000E+00  0.0000E+00  0.5840E+03
   6.810  0.0000E+00  0.0000E+00  0.5840E+03
   6.820  0.0000E+00  0.0000E+00  0.5840E+03
   6.830  0.0000E+00  0.0000E+00  0.5840E+03
   6.840  0.0000E+00  0.0000E+00  0.5840E+03
   6.850  0.0000E+00  0.0000E+00  0.5840E+03
   6.860  0.0000E+00  0.0000E+00  0.5840E+03
   6.870  0.0000E+00  0.0000E+00  0.5840E+03
   6.880  0.0000E+00  0.0000E+00  0.5840E+03
   6.890  0.0000E+00  0.0000E+00  0.5840E+03
   6.900  0.0000E+00  0.0000E+00  0.5840E+03
   6.910  0.0000E+00  0.0000E+00  0.5840E+03
   6.920  0.0000E+00  0.0000E+00  0.5840E+03
   6.930  0.0000E+00  0.0000E+00  0.5840E+03
   6.940  0.0000E+00  0.0000E+00  0.5840E+03
   6.950  0.0000E+00  0.0000E+00  0.5840E+03
   6.960  0.0000E+00  0.0000E+00  0.5840E+03
   6.970  0.0000E+00  0.0000E+00  0.5840E+03
   6.980  0.0000E+00  0.0000E+00  0.5840E+03
   6.990  0.0000E+00  0.0000E+00  0.5840E+03
   7.000  0.0000E+00  0.0000E+00  0.5840E+03
   7.010  0.0000E+00  0.0000E+00  0.5840E+03
   7.020  0.0000E+00  0.0000E+00  0.5840E+03
   7.030  0.0000E+00  0.0000E+00  0.5840E+03
   7.040  0.0000E+00  0.0000E+00  0.5840E+03
   7.050  0.0000E+00  0.0000E+00  0.5840E+03
   7.060  0.0000E+00  0.0000E+00  0.5840E+03
   7.070  0.0000E+00  0.0000E+00  0.5840E+03
   7.080  0.0000E+00  0.0000E+00  0.5840E+03
   7.090  0.0000E+00  0.0000E+00  0.5840E+03
   7.100  0.0000E+00  0.0000E+00  0.5840E+03
   7.110  0.0000E+00  0.0000E+00  0.5840E+03
   7.120  0.0000E+00  0.0000E+00  0.5840E+03
   7.130  0.0000E+00  0.0000E+00  0.5840E+03
   7.140  0.0000E+00  0.0000E+00  0.5840E+03
   7.150  0.0000E+00  0.0000E+00  0.5840E+03
   7.160  0.0000E+00  0.0000E+00  0.5840E+03
   7.170  0.0000E+00  0.0000E+00  0.5840E+03
   7.180  0.0000E+00  0.0000E+00  0.5840E+03
   7.190  0.0000E+00  0.0000E+00  0.5840E+03
   7.200  0.0000E+00  0.0000E+00  0.5840E+03
   7.210  0.0000E+00  0.0000E+00  0.5840E+03
   7.220  0.0000E+00  0.0000E+00  0.5840E+03
   7.230  0.0000E+00  0.0000E+00  0.5840E+03
   7.240  0.0000E+00  0.0000E+00  0.5840E+03
   7.250  0.0000E+00  0.0000E+00  0.5840E+03
   7.260  0.0000E+00  0.0000E+00  0.5840E+03
   7.270  0.0000E+00  0.0000E+00  0.5840E+03
   7.280  0.0000E+00  0.0000E+00  0.5840E+03
   7.290  0.0000E+00  0.0000E+00  0.5840E+03
   7.300  0.0000E+00  0.0000E+00  0.5840E+03
   7.310  0.0000E+00  0.0000E+00  0.5840E+03
   7.320  0.0000E+00  0.0000E+00  0.5840E+03
   7.330  0.0000E+00  0.0000E+00  0.5840E+03
   7.340  0.0000E+00  0.0000E+00  0.5840E+03
   7.350  0.0000E+00  0.0000E+00  0.5840E+03
   7.360  0.0000E+00  0.0000E+00  0.5840E+03
   7.370  0.0000E+00  0.0000E+00  0.5840E+03
   7.380  0.0000E+00  0.0000E+00  0.5840E+03
   7.390  0.0000E+00  0.0000E+00  0.5840E+03
   7.400  0.0000E+00  0.0000E+00  0.5840E+03
   7.410  0.0000E+00  0.0000E+00  0.5840E+03
   7.420  0.0000E+00  0.0000E+00  0.5840E+03
   7.430  0.0000E+00  0.0000E+00  0.5840E+03
   7.440  0.0000E+00  0.0000E+00  0.5840E+03
   7.450  0.0000E+00  0.0000E+00  0.5840E+03
   7.460  0.3297E-06  0.0000E+00  0.5840E+03
   7.470  0.3934E-04  0.4244E-06  0.5840E+03
   7.480  0.1433E-03  0.3972E-04  0.5840E+03
   7.490  0.3123E-03  0.1429E-03  0.5840E+03
   7.500  0.6480E-03  0.3107E-03  0.5840E+03
   7.510  0.1237E-02  0.6497E-03  0.5840E+03
   7.520  0.2080E-02  0.1236E-02  0.5840E+03
   7.530  0.3175E-02  0.2069E-02  0.5840E+03
   7.540  0.4524E-02  0.3149E-02  0.5840E+03
   7.550  0.6127E-02  0.4475E-02  0.5840E+03
   7.560  0.7983E-02  0.6049E-02  0.5840E+03
   7.570  0.1009E-01  0.7870E-02  0.5840E+03
   7.580  0.1245E-01  0.9937E-02  0.5840E+03
   7.590  0.1507E-01  0.1225E-01  0.5840E+03
   7.600  0.1794E-01  0.1481E-01  0.5840E+03
   7.610  0.2106E-01  0.1762E-01  0.5840E+03
   7.620  0.2444E-01  0.2068E-01  0.5840E+03
   7.630  0.2807E-01  0.2398E-01  0.5840E+03
   7.640  0.3195E-01  0.2753E-01  0.5840E+03
   7.650  0.3609E-01  0.3132E-01  0.5840E+03
   7.660  0.4047E-01  0.3537E-01  0.5840E+03
   7.670  0.4512E-01  0.3966E-01  0.5840E+03
   7.680  0.5001E-01  0.4420E-01  0.5840E+03
   7.690  0.5516E-01  0.4898E-01  0.5840E+03
   7.700  0.6057E-01  0.5401E-01  0.5840E+03
   7.710  0.6622E-01  0.5929E-01  0.5840E+03
   7.720  0.7213E-01  0.6481E-01  0.5840E+03
   7.730  0.7829E-01  0.7058E-01  0.5840E+03
   7.740  0.8471E-01  0.7660E-01  0.5840E+03
   7.750  0.9138E-01  0.8287E-01  0.5840E+03
   7.760  0.9830E-01  0.8938E-01  0.5840E+03
   7.770  0.1055E+00  0.9614E-01  0.5840E+03
   7.780  0.1129E+00  0.1031E+00  0.5840E+03
   7.790  0.1206E+00  0.1104E+00  0.5840E+03
   7.800  0.1285E+00  0.1179E+00  0.5840E+03
   7.810  0.1367E+00  0.1256E+00  0.5840E+03
   7.820  0.1452E+00  0.1336E+00  0.5840E+03
   7.830  0.1539E+00  0.1419E+00  0.5840E+03
   7.840  0.1628E+00  0.1504E+00  0.5840E+03
   7.850  0.1720E+00  0.1591E+00  0.5840E+03
   7.860  0.1815E+00  0.1681E+00  0.5840E+03
   7.870  0.1901E+00  0.1773E+00  0.5840E+03
   7.880  0.1992E+00  0.1862E+00  0.5841E+03
   7.890  0.2095E+00  0.1949E+00  0.5841E+03
   7.900  0.2211E+00  0.2046E+00  0.5841E+03
   7.910  0.2348E+00  0.2157E+00  0.5841E+03
   7.920  0.2491E+00  0.2283E+00  0.5841E+03
   7.930  0.2624E+00  0.2430E+00  0.5841E+03
   7.940  0.2751E+00  0.2568E+00  0.5841E+03
   7.950  0.2871E+00  0.2698E+00  0.5841E+03
   7.960  0.2986E+00  0.2821E+00  0.5841E+03
   7.970  0.3097E+00  0.2939E+00  0.5841E+03
   7.980  0.3204E+00  0.3052E+00  0.5841E+03
   7.990  0.3308E+00  0.3162E+00  0.5841E+03
   8.000  0.3410E+00  0.3268E+00  0.5841E+03
   8.010  0.3510E+00  0.3371E+00  0.5841E+03
   8.020  0.3607E+00  0.3472E+00  0.5841E+03
   8.030  0.3703E+00  0.3572E+00  0.5841E+03
   8.040  0.3797E+00  0.3669E+00  0.5841E+03
   8.050  0.3888E+00  0.3764E+00  0.5842E+03
   8.060  0.3978E+00  0.3858E+00  0.5842E+03
   8.070  0.4066E+00  0.3949E+00  0.5842E+03
   8.080  0.4152E+00  0.4039E+00  0.5842E+03
   8.090  0.4236E+00  0.4126E+00  0.5842E+03
   8.100  0.4318E+00  0.4212E+00  0.5842E+03
   8.110  0.4398E+00  0.4296E+00  0.5842E+03
   8.120  0.4476E+00  0.4378E+00  0.5842E+03
   8.130  0.4553E+00  0.4458E+00  0.5842E+03
   8.140  0.4627E+00  0.4536E+00  0.5842E+03
   8.150  0.4695E+00  0.4612E+00  0.5842E+03
   8.160  0.4738E+00  0.4685E+00  0.5842E+03
   8.170  0.4760E+00  0.4738E+00  0.5843E+03
   8.180  0.4759E+00  0.4768E+00  0.5843E+03
   8.190  0.4758E+00  0.4775E+00  0.5843E+03
   8.200  0.4774E+00  0.4767E+00  0.5843E+03
   8.210  0.4798E+00  0.4780E+00  0.5843E+03
   8.220  0.4834E+00  0.4800E+00  0.5843E+03
   8.230  0.4866E+00  0.4834E+00  0.5843E+03
   8.240  0.4897E+00  0.4868E+00  0.5843E+03
   8.250  0.4927E+00  0.4900E+00  0.5843E+03
   8.260  0.4960E+00  0.4929E+00  0.5843E+03
   8.270  0.4997E+00  0.4962E+00  0.5844E+03
   8.280  0.5040E+00  0.4998E+00  0.5844E+03
   8.290  0.5091E+00  0.5039E+00  0.5844E+03
   8.300  0.5150E+00  0.5088E+00  0.5844E+03
   8.310  0.5219E+00  0.5145E+00  0.5844E+03
   8.320  0.5297E+00  0.5212E+00  0.5844E+03
   8.330  0.5385E+00  0.5287E+00  0.5844E+03
   8.340  0.5489E+00  0.5372E+00  0.5844E+03
   8.350  0.5609E+00  0.5473E+00  0.5844E+03
   8.360  0.5740E+00  0.5590E+00  0.5844E+03
   8.370  0.5876E+00  0.5720E+00  0.5845E+03
   8.380  0.6013E+00  0.5856E+00  0.5845E+03
   8.390  0.6151E+00  0.5994E+00  0.5845E+03
   8.400  0.6292E+00  0.6133E+00  0.5845E+03
   8.410  0.6433E+00  0.6274E+00  0.5845E+03
   8.420  0.6574E+00  0.6416E+00  0.5845E+03
   8.430  0.6716E+00  0.6558E+00  0.5845E+03
   8.440  0.6860E+00  0.6701E+00  0.5845E+03
   8.450  0.7007E+00  0.6846E+00  0.5846E+03
   8.460  0.7157E+00  0.6993E+00  0.5846E+03
   8.470  0.7311E+00  0.7144E+00  0.5846E+03
   8.480  0.7468E+00  0.7298E+00  0.5846E+03
   8.490  0.7628E+00  0.7455E+00  0.5846E+03
   8.500  0.7793E+00  0.7617E+00  0.5846E+03
   8.510  0.7963E+00  0.7781E+00  0.5846E+03
   8.520  0.8138E+00  0.7952E+00  0.5847E+03
   8.530  0.8318E+00  0.8127E+00  0.5847E+03
   8.540  0.8504E+00  0.8308E+00  0.5847E+03
   8.550  0.8695E+00  0.8494E+00  0.5847E+03
   8.560  0.8891E+00  0.8685E+00  0.5847E+03
   8.570  0.9092E+00  0.8882E+00  0.5847E+03
   8.580  0.9299E+00  0.9085E+00  0.5848E+03
   8.590  0.9511E+00  0.9292E+00  0.5848E+03
   8.600  0.9729E+00  0.9505E+00  0.5848E+03
   8.610  0.9952E+00  0.9724E+00  0.5848E+03
   8.620  0.1018E+01  0.9948E+00  0.5848E+03
   8.630  0.1041E+01  0.1018E+01  0.5849E+03
   8.640  0.1065E+01  0.1041E+01  0.5849E+03
   8.650  0.1090E+01  0.1065E+01  0.5849E+03
   8.660  0.1114E+01  0.1090E+01  0.5849E+03
   8.670  0.1140E+01  0.1115E+01  0.5849E+03
   8.680  0.1166E+01  0.1140E+01  0.5850E+03
   8.690  0.1192E+01  0.1166E+01  0.5850E+03
   8.700  0.1220E+01  0.1193E+01  0.5850E+03
   8.710  0.1247E+01  0.1220E+01  0.5850E+03
   8.720  0.1275E+01  0.1248E+01  0.5851E+03
   8.730  0.1303E+01  0.1276E+01  0.5851E+03
   8.740  0.1328E+01  0.1305E+01  0.5851E+03
   8.750  0.1348E+01  0.1332E+01  0.5851E+03
   8.760  0.1366E+01  0.1355E+01  0.5852E+03
   8.770  0.1401E+01  0.1373E+01  0.5852E+03
   8.780  0.1456E+01  0.1403E+01  0.5852E+03
   8.790  0.1530E+01  0.1456E+01  0.5853E+03
   8.800  0.1621E+01  0.1530E+01  0.5853E+03
   8.810  0.1731E+01  0.1621E+01  0.5853E+03
   8.820  0.1863E+01  0.1732E+01  0.5854E+03
   8.830  0.2011E+01  0.1864E+01  0.5854E+03
   8.840  0.2191E+01  0.2012E+01  0.5854E+03
   8.850  0.2407E+01  0.2189E+01  0.5855E+03
   8.860  0.2810E+01  0.2409E+01  0.5855E+03
   8.870  0.3598E+01  0.2753E+01  0.5856E+03
   8.880  0.6470E+01  0.3494E+01  0.5857E+03
   8.890  0.5983E+01  0.6807E+01  0.5858E+03
   8.900  0.5898E+01  0.6146E+01  0.5859E+03
   8.910  0.6196E+01  0.5990E+01  0.5860E+03
   8.920  0.6589E+01  0.6334E+01  0.5862E+03
   8.930  0.6837E+01  0.6734E+01  0.5863E+03
   8.940  0.7058E+01  0.6996E+01  0.5864E+03
   8.950  0.7228E+01  0.7234E+01  0.5866E+03
   8.960  0.7293E+01  0.7377E+01  0.5867E+03
   8.970  0.7336E+01  0.7428E+01  0.5869E+03
   8.980  0.7361E+01  0.7465E+01  0.5870E+03
   8.990  0.7360E+01  0.7479E+01  0.5872E+03
   9.000  0.7390E+01  0.7464E+01  0.5873E+03
   9.010  0.7498E+01  0.7502E+01  0.5875E+03
   9.020  0.7535E+01  0.7604E+01  0.5876E+03
   9.030  0.7382E+01  0.7523E+01  0.5878E+03
   9.040  0.7160E+01  0.7328E+01  0.5879E+03
   9.050  0.6912E+01  0.7074E+01  0.5880E+03
   9.060  0.6852E+01  0.6809E+01  0.5882E+03
   9.070  0.7547E+01  0.7277E+01  0.5883E+03
   9.080  0.6428E+01  0.7213E+01  0.5885E+03
   9.090  0.5400E+01  0.5881E+01  0.5886E+03
   9.100  0.5653E+01  0.5416E+01  0.5887E+03
   9.110  0.5935E+01  0.5674E+01  0.5888E+03
   9.120  0.6222E+01  0.5953E+01  0.5889E+03
   9.130  0.6475E+01  0.6227E+01  0.5891E+03
   9.140  0.6699E+01  0.6450E+01  0.5892E+03
   9.150  0.6908E+01  0.6665E+01  0.5893E+03
   9.160  0.7186E+01  0.6865E+01  0.5895E+03
   9.170  0.7463E+01  0.7135E+01  0.5896E+03
   9.180  0.7742E+01  0.7399E+01  0.5898E+03
   9.190  0.8041E+01  0.7676E+01  0.5899E+03
   9.200  0.8361E+01  0.7974E+01  0.5901E+03
   9.210  0.8695E+01  0.8291E+01  0.5902E+03
   9.220  0.9027E+01  0.8624E+01  0.5904E+03
   9.230  0.9329E+01  0.8963E+01  0.5906E+03
   9.240  0.9676E+01  0.9289E+01  0.5908E+03
   9.250  0.1002E+02  0.9623E+01  0.5910E+03
   9.260  0.1037E+02  0.9983E+01  0.5912E+03
   9.270  0.1072E+02  0.1034E+02  0.5914E+03
   9.280  0.1110E+02  0.1069E+02  0.5916E+03
   9.290  0.1149E+02  0.1106E+02  0.5918E+03
   9.300  0.1189E+02  0.1144E+02  0.5920E+03
   9.310  0.1232E+02  0.1185E+02  0.5923E+03
   9.320  0.1273E+02  0.1226E+02  0.5925E+03
   9.330  0.1312E+02  0.1268E+02  0.5928E+03
   9.340  0.1357E+02  0.1307E+02  0.5930E+03
   9.350  0.1419E+02  0.1348E+02  0.5933E+03
   9.360  0.1485E+02  0.1405E+02  0.5936E+03
   9.370  0.1554E+02  0.1481E+02  0.5939E+03
   9.380  0.1606E+02  0.1558E+02  0.5942E+03
   9.390  0.1641E+02  0.1614E+02  0.5945E+03
   9.400  0.1655E+02  0.1651E+02  0.5948E+03
   9.410  0.1648E+02  0.1670E+02  0.5952E+03
   9.420  0.1634E+02  0.1668E+02  0.5955E+03
   9.430  0.1635E+02  0.1659E+02  0.5958E+03
   9.440  0.1650E+02  0.1664E+02  0.5962E+03
   9.450  0.1680E+02  0.1686E+02  0.5965E+03
   9.460  0.1714E+02  0.1722E+02  0.5968E+03
   9.470  0.1702E+02  0.1758E+02  0.5972E+03
   9.480  0.1594E+02  0.1693E+02  0.5975E+03
   9.490  0.1795E+02  0.1603E+02  0.5979E+03
   9.500  0.1548E+02  0.2000E+02  0.5982E+03
   9.510  0.1652E+02  0.1532E+02  0.5985E+03
   9.520  0.1798E+02  0.1594E+02  0.5989E+03
   9.530  0.1798E+02  0.1740E+02  0.5992E+03
   9.540  0.1715E+02  0.1733E+02  0.5996E+03
   9.550  0.1666E+02  0.1646E+02  0.5999E+03
   9.560  0.1689E+02  0.1648E+02  0.6002E+03
   9.570  0.1612E+02  0.1682E+02  0.6006E+03
   9.580  0.1515E+02  0.1634E+02  0.6009E+03
   9.590  0.1532E+02  0.1616E+02  0.6012E+03
   9.600  0.1544E+02  0.1584E+02  0.6015E+03
   9.610  0.1542E+02  0.1577E+02  0.6018E+03
   9.620  0.1533E+02  0.1583E+02  0.6021E+03
   9.630  0.1562E+02  0.1574E+02  0.6024E+03
   9.640  0.1609E+02  0.1557E+02  0.6028E+03
   9.650  0.1655E+02  0.1599E+02  0.6031E+03
   9.660  0.1624E+02  0.1658E+02  0.6034E+03
   9.670  0.1483E+02  0.1620E+02  0.6037E+03
   9.680  0.1384E+02  0.1481E+02  0.6040E+03
   9.690  0.1370E+02  0.1351E+02  0.6043E+03
   9.700  0.1466E+02  0.1353E+02  0.6046E+03
   9.710  0.1556E+02  0.1450E+02  0.6049E+03
   9.720  0.1637E+02  0.1547E+02  0.6052E+03
   9.730  0.1703E+02  0.1641E+02  0.6055E+03
   9.740  0.1768E+02  0.1714E+02  0.6058E+03
   9.750  0.1847E+02  0.1792E+02  0.6062E+03
   9.760  0.1910E+02  0.1870E+02  0.6066E+03
   9.770  0.1914E+02  0.1911E+02  0.6069E+03
   9.780  0.1894E+02  0.1900E+02  0.6073E+03
   9.790  0.1849E+02  0.1875E+02  0.6077E+03
   9.800  0.1799E+02  0.1840E+02  0.6081E+03
   9.810  0.1758E+02  0.1796E+02  0.6084E+03
   9.820  0.1734E+02  0.1761E+02  0.6088E+03
   9.830  0.1729E+02  0.1742E+02  0.6091E+03
   9.840  0.1769E+02  0.1735E+02  0.6095E+03
   9.850  0.1885E+02  0.1747E+02  0.6098E+03
   9.860  0.2486E+02  0.1853E+02  0.6102E+03
   9.870  0.3601E+02  0.2760E+02  0.6108E+03
   9.880  0.4428E+02  0.3839E+02  0.6115E+03
   9.890  0.5038E+02  0.4580E+02  0.6124E+03
   9.900  0.5115E+02  0.5042E+02  0.6134E+03
   9.910  0.5394E+02  0.4812E+02  0.6144E+03
   9.920  0.4838E+02  0.5366E+02  0.6154E+03
   9.930  0.3279E+02  0.4576E+02  0.6163E+03
   9.940  0.3128E+02  0.3295E+02  0.6170E+03
   9.950  0.3097E+02  0.3099E+02  0.6176E+03
   9.960  0.3043E+02  0.3036E+02  0.6182E+03
   9.970  0.2969E+02  0.3076E+02  0.6188E+03
   9.980  0.2869E+02  0.3046E+02  0.6194E+03
   9.990  0.2910E+02  0.2894E+02  0.6200E+03
  10.000  0.2990E+02  0.2842E+02  0.6206E+03
  10.010  0.3094E+02  0.2929E+02  0.6212E+03
  10.020  0.3183E+02  0.3059E+02  0.6218E+03
  10.030  0.3253E+02  0.3179E+02  0.6224E+03
  10.040  0.3307E+02  0.3279E+02  0.6231E+03
  10.050  0.3325E+02  0.3346E+02  0.6237E+03
  10.060  0.3303E+02  0.3368E+02  0.6244E+03
  10.070  0.3258E+02  0.3336E+02  0.6251E+03
  10.080  0.3241E+02  0.3276E+02  0.6257E+03
  10.090  0.3241E+02  0.3255E+02  0.6264E+03
  10.100  0.3253E+02  0.3207E+02  0.6270E+03
  10.110  0.3546E+02  0.3333E+02  0.6277E+03
  10.120  0.3577E+02  0.3313E+02  0.6284E+03
  10.130  0.3059E+02  0.3307E+02  0.6290E+03
  10.140  0.2867E+02  0.3113E+02  0.6297E+03
  10.150  0.2834E+02  0.2882E+02  0.6302E+03
  10.160  0.2819E+02  0.2845E+02  0.6308E+03
  10.170  0.2763E+02  0.2798E+02  0.6314E+03
  10.180  0.2652E+02  0.2714E+02  0.6319E+03
  10.190  0.2497E+02  0.2580E+02  0.6324E+03
  10.200  0.2254E+02  0.2421E+02  0.6329E+03
  10.210  0.2075E+02  0.2223E+02  0.6334E+03
  10.220  0.2055E+02  0.2067E+02  0.6338E+03
  10.230  0.2028E+02  0.2063E+02  0.6342E+03
  10.240  0.2002E+02  0.2050E+02  0.6346E+03
  10.250  0.1977E+02  0.2047E+02  0.6350E+03
  10.260  0.1951E+02  0.2028E+02  0.6354E+03
  10.270  0.1934E+02  0.2009E+02  0.6358E+03
  10.280  0.1925E+02  0.1992E+02  0.6362E+03
  10.290  0.1924E+02  0.1971E+02  0.6366E+03
  10.300  0.1934E+02  0.1959E+02  0.6370E+03
  10.310  0.1958E+02  0.1961E+02  0.6374E+03
  10.320  0.2052E+02  0.1991E+02  0.6378E+03
  10.330  0.2845E+02  0.2264E+02  0.6382E+03
  10.340  0.3262E+02  0.3079E+02  0.6388E+03
  10.350  0.3300E+02  0.3163E+02  0.6395E+03
  10.360  0.3668E+02  0.3364E+02  0.6401E+03
  10.370  0.3106E+02  0.3837E+02  0.6408E+03
  10.380  0.2849E+02  0.3006E+02  0.6415E+03
  10.390  0.2654E+02  0.2526E+02  0.6420E+03
  10.400  0.2533E+02  0.2231E+02  0.6425E+03
  10.410  0.2055E+02  0.2752E+02  0.6430E+03
  10.420  0.1787E+02  0.2189E+02  0.6434E+03
  10.430  0.1656E+02  0.1838E+02  0.6438E+03
  10.440  0.1591E+02  0.1705E+02  0.6441E+03
  10.450  0.1616E+02  0.1643E+02  0.6445E+03
  10.460  0.1711E+02  0.1641E+02  0.6448E+03
  10.470  0.1803E+02  0.1686E+02  0.6451E+03
  10.480  0.1786E+02  0.1736E+02  0.6455E+03
  10.490  0.1697E+02  0.1757E+02  0.6458E+03
  10.500  0.1619E+02  0.1742E+02  0.6462E+03
  10.510  0.1572E+02  0.1695E+02  0.6465E+03
  10.520  0.1520E+02  0.1647E+02  0.6468E+03
  10.530  0.1463E+02  0.1567E+02  0.6471E+03
  10.540  0.1412E+02  0.1496E+02  0.6474E+03
  10.550  0.1375E+02  0.1433E+02  0.6477E+03
  10.560  0.1350E+02  0.1380E+02  0.6480E+03
  10.570  0.1335E+02  0.1340E+02  0.6483E+03
  10.580  0.1351E+02  0.1303E+02  0.6485E+03
  10.590  0.1388E+02  0.1320E+02  0.6488E+03
  10.600  0.1415E+02  0.1350E+02  0.6491E+03
  10.610  0.1446E+02  0.1372E+02  0.6493E+03
  10.620  0.1479E+02  0.1398E+02  0.6496E+03
  10.630  0.1517E+02  0.1426E+02  0.6499E+03
  10.640  0.1574E+02  0.1455E+02  0.6502E+03
  10.650  0.1739E+02  0.1482E+02  0.6505E+03
  10.660  0.1901E+02  0.1548E+02  0.6509E+03
  10.670  0.2047E+02  0.1706E+02  0.6512E+03
  10.680  0.1981E+02  0.1987E+02  0.6516E+03
  10.690  0.1872E+02  0.2106E+02  0.6520E+03
  10.700  0.1739E+02  0.1989E+02  0.6524E+03
  10.710  0.1609E+02  0.1742E+02  0.6527E+03
  10.720  0.1548E+02  0.1481E+02  0.6531E+03
  10.730  0.1702E+02  0.1391E+02  0.6534E+03
  10.740  0.1823E+02  0.1531E+02  0.6537E+03
  10.750  0.1869E+02  0.1717E+02  0.6540E+03
  10.760  0.1872E+02  0.1838E+02  0.6544E+03
  10.770  0.2001E+02  0.1889E+02  0.6548E+03
  10.780  0.1871E+02  0.1918E+02  0.6552E+03
  10.790  0.1772E+02  0.2005E+02  0.6556E+03
  10.800  0.1591E+02  0.1871E+02  0.6559E+03
  10.810  0.1343E+02  0.1722E+02  0.6562E+03
  10.820  0.1186E+02  0.1472E+02  0.6565E+03
  10.830  0.9703E+01  0.1361E+02  0.6568E+03
  10.840  0.7932E+01  0.1146E+02  0.6570E+03
  10.850  0.8954E+01  0.8753E+01  0.6572E+03
  10.860  0.1147E+02  0.7285E+01  0.6574E+03
  10.870  0.1431E+02  0.7074E+01  0.6576E+03
  10.880  0.1349E+02  0.1123E+02  0.6578E+03
  10.890  0.1282E+02  0.1281E+02  0.6580E+03
  10.900  0.1203E+02  0.1283E+02  0.6583E+03
  10.910  0.1122E+02  0.1348E+02  0.6585E+03
  10.920  0.1110E+02  0.1391E+02  0.6588E+03
  10.930  0.1120E+02  0.1265E+02  0.6590E+03
  10.940  0.1083E+02  0.1255E+02  0.6593E+03
  10.950  0.1066E+02  0.1175E+02  0.6595E+03
  10.960  0.9920E+01  0.1088E+02  0.6597E+03
  10.970  0.8782E+01  0.1132E+02  0.6599E+03
  10.980  0.9535E+01  0.1112E+02  0.6601E+03
  10.990  0.1082E+02  0.9223E+01  0.6603E+03
  11.000  0.1292E+02  0.9643E+01  0.6605E+03
  11.010  0.1510E+02  0.1121E+02  0.6608E+03
  11.020  0.1770E+02  0.1341E+02  0.6611E+03
  11.030  0.1977E+02  0.1602E+02  0.6614E+03
  11.040  0.2025E+02  0.1833E+02  0.6618E+03
  11.050  0.2039E+02  0.2071E+02  0.6622E+03
  11.060  0.2503E+02  0.2074E+02  0.6626E+03
  11.070  0.2081E+02  0.2357E+02  0.6631E+03
  11.080  0.2013E+02  0.2029E+02  0.6635E+03
  11.090  0.1749E+02  0.1978E+02  0.6639E+03
  11.100  0.1880E+02  0.1833E+02  0.6642E+03
  11.110  0.1433E+02  0.1574E+02  0.6646E+03
  11.120  0.1184E+02  0.1465E+02  0.6649E+03
  11.130  0.1029E+02  0.1293E+02  0.6651E+03
  11.140  0.8968E+01  0.1078E+02  0.6653E+03
  11.150  0.8120E+01  0.9025E+01  0.6655E+03
  11.160  0.7522E+01  0.8595E+01  0.6657E+03
  11.170  0.7085E+01  0.8333E+01  0.6658E+03
  11.180  0.7040E+01  0.7788E+01  0.6660E+03
  11.190  0.6948E+01  0.7251E+01  0.6661E+03
  11.200  0.6858E+01  0.6877E+01  0.6663E+03
  11.210  0.6782E+01  0.6690E+01  0.6664E+03
  11.220  0.6724E+01  0.6830E+01  0.6665E+03
  11.230  0.6853E+01  0.6869E+01  0.6667E+03
  11.240  0.7740E+01  0.6836E+01  0.6668E+03
  11.250  0.8420E+01  0.6802E+01  0.6670E+03
  11.260  0.8801E+01  0.6783E+01  0.6671E+03
  11.270  0.8889E+01  0.6783E+01  0.6673E+03
  11.280  0.8730E+01  0.6803E+01  0.6674E+03
  11.290  0.8911E+01  0.7087E+01  0.6676E+03
  11.300  0.9180E+01  0.8513E+01  0.6677E+03
  11.310  0.9616E+01  0.9945E+01  0.6679E+03
  11.320  0.9986E+01  0.1144E+02  0.6681E+03
  11.330  0.1029E+02  0.1175E+02  0.6684E+03
  11.340  0.1082E+02  0.1172E+02  0.6686E+03
  11.350  0.1163E+02  0.1197E+02  0.6688E+03
  11.360  0.1258E+02  0.1269E+02  0.6691E+03
  11.370  0.1376E+02  0.1354E+02  0.6693E+03
  11.380  0.1517E+02  0.1470E+02  0.6696E+03
  11.390  0.1670E+02  0.1610E+02  0.6699E+03
  11.400  0.1845E+02  0.1754E+02  0.6703E+03
  11.410  0.2042E+02  0.1916E+02  0.6706E+03
  11.420  0.2257E+02  0.2097E+02  0.6711E+03
  11.430  0.2477E+02  0.2292E+02  0.6715E+03
  11.440  0.2655E+02  0.2503E+02  0.6720E+03
  11.450  0.2849E+02  0.2702E+02  0.6725E+03
  11.460  0.3052E+02  0.2885E+02  0.6731E+03
  11.470  0.3245E+02  0.3086E+02  0.6737E+03
  11.480  0.3440E+02  0.3237E+02  0.6744E+03
  11.490  0.3174E+02  0.3360E+02  0.6751E+03
  11.500  0.2900E+02  0.3005E+02  0.6757E+03
  11.510  0.2766E+02  0.2820E+02  0.6762E+03
  11.520  0.2650E+02  0.2687E+02  0.6768E+03
  11.530  0.2494E+02  0.2560E+02  0.6773E+03
  11.540  0.2333E+02  0.2476E+02  0.6778E+03
  11.550  0.2307E+02  0.2343E+02  0.6783E+03
  11.560  0.2236E+02  0.2347E+02  0.6787E+03
  11.570  0.2237E+02  0.2185E+02  0.6792E+03
  11.580  0.2299E+02  0.2096E+02  0.6796E+03
  11.590  0.2390E+02  0.2169E+02  0.6801E+03
  11.600  0.2484E+02  0.2248E+02  0.6805E+03
  11.610  0.2317E+02  0.2405E+02  0.6810E+03
  11.620  0.2350E+02  0.2256E+02  0.6815E+03
  11.630  0.2473E+02  0.2280E+02  0.6819E+03
  11.640  0.2627E+02  0.2362E+02  0.6824E+03
  11.650  0.2599E+02  0.2560E+02  0.6829E+03
  11.660  0.2768E+02  0.2663E+02  0.6835E+03
  11.670  0.2943E+02  0.2691E+02  0.6840E+03
  11.680  0.3181E+02  0.2883E+02  0.6846E+03
  11.690  0.3157E+02  0.3109E+02  0.6852E+03
  11.700  0.2848E+02  0.2966E+02  0.6858E+03
  11.710  0.2639E+02  0.2691E+02  0.6864E+03
  11.720  0.2528E+02  0.2560E+02  0.6869E+03
  11.730  0.2418E+02  0.2500E+02  0.6874E+03
  11.740  0.2328E+02  0.2646E+02  0.6879E+03
  11.750  0.2235E+02  0.2673E+02  0.6884E+03
  11.760  0.2254E+02  0.2408E+02  0.6889E+03
  11.770  0.2256E+02  0.2318E+02  0.6893E+03
  11.780  0.2262E+02  0.2294E+02  0.6898E+03
  11.790  0.2380E+02  0.2300E+02  0.6902E+03
  11.800  0.2353E+02  0.2310E+02  0.6907E+03
  11.810  0.2320E+02  0.2700E+02  0.6912E+03
  11.820  0.2217E+02  0.2373E+02  0.6917E+03
  11.830  0.2111E+02  0.2292E+02  0.6921E+03
  11.840  0.2001E+02  0.2171E+02  0.6926E+03
  11.850  0.1913E+02  0.2064E+02  0.6930E+03
  11.860  0.1820E+02  0.1972E+02  0.6934E+03
  11.870  0.1763E+02  0.1880E+02  0.6937E+03
  11.880  0.1668E+02  0.1779E+02  0.6941E+03
  11.890  0.1538E+02  0.1684E+02  0.6944E+03
  11.900  0.1386E+02  0.1591E+02  0.6947E+03
  11.910  0.1276E+02  0.1466E+02  0.6950E+03
  11.920  0.1163E+02  0.1329E+02  0.6953E+03
  11.930  0.1068E+02  0.1215E+02  0.6955E+03
  11.940  0.9840E+01  0.1116E+02  0.6957E+03
  11.950  0.9136E+01  0.1033E+02  0.6959E+03
  11.960  0.9013E+01  0.9643E+01  0.6961E+03
  11.970  0.9361E+01  0.9470E+01  0.6963E+03
  11.980  0.8588E+01  0.9288E+01  0.6965E+03
  11.990  0.7822E+01  0.8890E+01  0.6967E+03
  12.000  0.7173E+01  0.8360E+01  0.6968E+03
  12.010  0.6547E+01  0.7791E+01  0.6970E+03
  12.020  0.5941E+01  0.7207E+01  0.6971E+03
  12.030  0.5352E+01  0.6554E+01  0.6973E+03
  12.040  0.4780E+01  0.5830E+01  0.6974E+03
  12.050  0.4215E+01  0.5034E+01  0.6975E+03
  12.060  0.3638E+01  0.4311E+01  0.6976E+03
  12.070  0.3126E+01  0.3704E+01  0.6976E+03
  12.080  0.2668E+01  0.3161E+01  0.6977E+03
  12.090  0.2274E+01  0.2663E+01  0.6977E+03
  12.100  0.1957E+01  0.2256E+01  0.6978E+03
  12.110  0.1680E+01  0.1947E+01  0.6978E+03
  12.120  0.1428E+01  0.1666E+01  0.6979E+03
  12.130  0.1197E+01  0.1408E+01  0.6979E+03
  12.140  0.9880E+00  0.1173E+01  0.6979E+03
  12.150  0.8001E+00  0.9611E+00  0.6979E+03
  12.160  0.6336E+00  0.7716E+00  0.6979E+03
  12.170  0.4885E+00  0.6048E+00  0.6980E+03
  12.180  0.3646E+00  0.4606E+00  0.6980E+03
  12.190  0.2622E+00  0.3391E+00  0.6980E+03
  12.200  0.1811E+00  0.2402E+00  0.6980E+03
  12.210  0.1214E+00  0.1640E+00  0.6980E+03
  12.220  0.8297E-01  0.1105E+00  0.6980E+03
  12.230  0.6424E-01  0.7893E-01  0.6980E+03
  12.240  0.5605E-01  0.6374E-01  0.6980E+03
  12.250  0.5132E-01  0.5699E-01  0.6980E+03
  12.260  0.4721E-01  0.5243E-01  0.6980E+03
  12.270  0.4335E-01  0.4833E-01  0.6980E+03
  12.280  0.3966E-01  0.4441E-01  0.6980E+03
  12.290  0.3613E-01  0.4065E-01  0.6980E+03
  12.300  0.3277E-01  0.3706E-01  0.6980E+03
  12.310  0.2957E-01  0.3364E-01  0.6980E+03
  12.320  0.2654E-01  0.3039E-01  0.6980E+03
  12.330  0.2366E-01  0.2730E-01  0.6980E+03
  12.340  0.2096E-01  0.2437E-01  0.6980E+03
  12.350  0.1842E-01  0.2161E-01  0.6980E+03
  12.360  0.1604E-01  0.1902E-01  0.6980E+03
  12.370  0.1383E-01  0.1659E-01  0.6980E+03
  12.380  0.1178E-01  0.1433E-01  0.6980E+03
  12.390  0.9895E-02  0.1224E-01  0.6980E+03
  12.400  0.8175E-02  0.1031E-01  0.6980E+03
  12.410  0.6620E-02  0.8542E-02  0.6980E+03
  12.420  0.5230E-02  0.6944E-02  0.6980E+03
  12.430  0.4003E-02  0.5512E-02  0.6980E+03
  12.440  0.2941E-02  0.4246E-02  0.6980E+03
  12.450  0.2044E-02  0.3145E-02  0.6980E+03
  12.460  0.1311E-02  0.2211E-02  0.6980E+03
  12.470  0.7420E-03  0.1442E-02  0.6980E+03
  12.480  0.3377E-03  0.8386E-03  0.6980E+03
  12.490  0.9777E-04  0.4014E-03  0.6980E+03
  12.500  0.1008E-04  0.1301E-03  0.6980E+03
  12.510  0.0000E+00  0.1896E-04  0.6980E+03
  12.520  0.0000E+00  0.0000E+00  0.6980E+03
  12.530  0.0000E+00  0.0000E+00  0.6980E+03
  12.540  0.0000E+00  0.0000E+00  0.6980E+03
  12.550  0.0000E+00  0.0000E+00  0.6980E+03
  12.560  0.0000E+00  0.0000E+00  0.6980E+03
  12.570  0.0000E+00  0.0000E+00  0.6980E+03
  12.580  0.0000E+00  0.0000E+00  0.6980E+03
  12.590  0.0000E+00  0.0000E+00  0.6980E+03
  12.600  0.0000E+00  0.0000E+00  0.6980E+03
  12.610  0.0000E+00  0.0000E+00  0.6980E+03
  12.620  0.0000E+00  0.0000E+00  0.6980E+03
  12.630  0.0000E+00  0.0000E+00  0.6980E+03
  12.640  0.0000E+00  0.0000E+00  0.6980E+03
  12.650  0.0000E+00  0.0000E+00  0.6980E+03
  12.660  0.0000E+00  0.0000E+00  0.6980E+03
  12.670  0.0000E+00  0.0000E+00  0.6980E+03
  12.680  0.0000E+00  0.0000E+00  0.6980E+03
  12.690  0.0000E+00  0.0000E+00  0.6980E+03
  12.700  0.0000E+00  0.0000E+00  0.6980E+03
  12.710  0.0000E+00  0.0000E+00  0.6980E+03
  12.720  0.0000E+00  0.0000E+00  0.6980E+03
  12.730  0.0000E+00  0.0000E+00  0.6980E+03
  12.740  0.0000E+00  0.0000E+00  0.6980E+03
  12.750  0.0000E+00  0.0000E+00  0.6980E+03
  12.760  0.0000E+00  0.0000E+00  0.6980E+03
  12.770  0.0000E+00  0.0000E+00  0.6980E+03
  12.780  0.0000E+00  0.0000E+00  0.6980E+03
  12.790  0.0000E+00  0.0000E+00  0.6980E+03
  12.800  0.0000E+00  0.0000E+00  0.6980E+03
  12.810  0.0000E+00  0.0000E+00  0.6980E+03
  12.820  0.0000E+00  0.0000E+00  0.6980E+03
  12.830  0.0000E+00  0.0000E+00  0.6980E+03
  12.840  0.0000E+00  0.0000E+00  0.6980E+03
  12.850  0.0000E+00  0.0000E+00  0.6980E+03
  12.860  0.0000E+00  0.0000E+00  0.6980E+03
  12.870  0.0000E+00  0.0000E+00  0.6980E+03
  12.880  0.0000E+00  0.0000E+00  0.6980E+03
  12.890  0.0000E+00  0.0000E+00  0.6980E+03
  12.900  0.0000E+00  0.0000E+00  0.6980E+03
  12.910  0.0000E+00  0.0000E+00  0.6980E+03
  12.920  0.0000E+00  0.0000E+00  0.6980E+03
  12.930  0.0000E+00  0.0000E+00  0.6980E+03
  12.940  0.0000E+00  0.0000E+00  0.6980E+03
  12.950  0.0000E+00  0.0000E+00  0.6980E+03
  12.960  0.0000E+00  0.0000E+00  0.6980E+03
  12.970  0.0000E+00  0.0000E+00  0.6980E+03
  12.980  0.0000E+00  0.0000E+00  0.6980E+03
  12.990  0.0000E+00  0.0000E+00  0.6980E+03
  13.000  0.0000E+00  0.0000E+00  0.6980E+03
  13.010  0.0000E+00  0.0000E+00  0.6980E+03
  13.020  0.0000E+00  0.0000E+00  0.6980E+03
  13.030  0.0000E+00  0.0000E+00  0.6980E+03
  13.040  0.0000E+00  0.0000E+00  0.6980E+03
  13.050  0.0000E+00  0.0000E+00  0.6980E+03
  13.060  0.0000E+00  0.0000E+00  0.6980E+03
  13.070  0.0000E+00  0.0000E+00  0.6980E+03
  13.080  0.0000E+00  0.0000E+00  0.6980E+03
  13.090  0.0000E+00  0.0000E+00  0.6980E+03
  13.100  0.0000E+00  0.0000E+00  0.6980E+03
  13.110  0.0000E+00  0.0000E+00  0.6980E+03
  13.120  0.0000E+00  0.0000E+00  0.6980E+03
  13.130  0.0000E+00  0.0000E+00  0.6980E+03
  13.140  0.0000E+00  0.0000E+00  0.6980E+03
  13.150  0.0000E+00  0.0000E+00  0.6980E+03
  13.160  0.0000E+00  0.0000E+00  0.6980E+03
  13.170  0.0000E+00  0.0000E+00  0.6980E+03
  13.180  0.0000E+00  0.0000E+00  0.6980E+03
  13.190  0.0000E+00  0.0000E+00  0.6980E+03
  13.200  0.0000E+00  0.0000E+00  0.6980E+03
  13.210  0.0000E+00  0.0000E+00  0.6980E+03
  13.220  0.0000E+00  0.0000E+00  0.6980E+03
  13.230  0.0000E+00  0.0000E+00  0.6980E+03
  13.240  0.0000E+00  0.0000E+00  0.6980E+03
  13.250  0.0000E+00  0.0000E+00  0.6980E+03
  13.260  0.0000E+00  0.0000E+00  0.6980E+03
  13.270  0.0000E+00  0.0000E+00  0.6980E+03
  13.280  0.0000E+00  0.0000E+00  0.6980E+03
  13.290  0.0000E+00  0.0000E+00  0.6980E+03
  13.300  0.0000E+00  0.0000E+00  0.6980E+03
  13.310  0.0000E+00  0.0000E+00  0.6980E+03
  13.320  0.0000E+00  0.0000E+00  0.6980E+03
  13.330  0.0000E+00  0.0000E+00  0.6980E+03
  13.340  0.0000E+00  0.0000E+00  0.6980E+03
  13.350  0.0000E+00  0.0000E+00  0.6980E+03
  13.360  0.0000E+00  0.0000E+00  0.6980E+03
  13.370  0.0000E+00  0.0000E+00  0.6980E+03
  13.380  0.0000E+00  0.0000E+00  0.6980E+03
  13.390  0.0000E+00  0.0000E+00  0.6980E+03
  13.400  0.0000E+00  0.0000E+00  0.6980E+03
  13.410  0.0000E+00  0.0000E+00  0.6980E+03
  13.420  0.0000E+00  0.0000E+00  0.6980E+03
  13.430  0.0000E+00  0.0000E+00  0.6980E+03
  13.440  0.0000E+00  0.0000E+00  0.6980E+03
  13.450  0.0000E+00  0.0000E+00  0.6980E+03
  13.460  0.0000E+00  0.0000E+00  0.6980E+03
  13.470  0.0000E+00  0.0000E+00  0.6980E+03
  13.480  0.0000E+00  0.0000E+00  0.6980E+03
  13.490  0.0000E+00  0.0000E+00  0.6980E+03
  13.500  0.0000E+00  0.0000E+00  0.6980E+03
  13.510  0.0000E+00  0.0000E+00  0.6980E+03
  13.520  0.0000E+00  0.0000E+00  0.6980E+03
  13.530  0.0000E+00  0.0000E+00  0.6980E+03
  13.540  0.0000E+00  0.0000E+00  0.6980E+03
  13.550  0.0000E+00  0.0000E+00  0.6980E+03
  13.560  0.0000E+00  0.0000E+00  0.6980E+03
  13.570  0.0000E+00  0.0000E+00  0.6980E+03
  13.580  0.0000E+00  0.0000E+00  0.6980E+03
  13.590  0.0000E+00  0.0000E+00  0.6980E+03
  13.600  0.0000E+00  0.0000E+00  0.6980E+03
  13.610  0.0000E+00  0.0000E+00  0.6980E+03
  13.620  0.0000E+00  0.0000E+00  0.6980E+03
  13.630  0.0000E+00  0.0000E+00  0.6980E+03
  13.640  0.0000E+00  0.0000E+00  0.6980E+03
  13.650  0.0000E+00  0.0000E+00  0.6980E+03
  13.660  0.0000E+00  0.0000E+00  0.6980E+03
  13.670  0.0000E+00  0.0000E+00  0.6980E+03
  13.680  0.0000E+00  0.0000E+00  0.6980E+03
  13.690  0.0000E+00  0.0000E+00  0.6980E+03
  13.700  0.0000E+00  0.0000E+00  0.6980E+03
  13.710  0.0000E+00  0.0000E+00  0.6980E+03
  13.720  0.0000E+00  0.0000E+00  0.6980E+03
  13.730  0.0000E+00  0.0000E+00  0.6980E+03
  13.740  0.0000E+00  0.0000E+00  0.6980E+03
  13.750  0.0000E+00  0.0000E+00  0.6980E+03
  13.760  0.0000E+00  0.0000E+00  0.6980E+03
  13.770  0.0000E+00  0.0000E+00  0.6980E+03
  13.780  0.0000E+00  0.0000E+00  0.6980E+03
  13.790  0.0000E+00  0.0000E+00  0.6980E+03
  13.800  0.0000E+00  0.0000E+00  0.6980E+03
  13.810  0.0000E+00  0.0000E+00  0.6980E+03
  13.820  0.0000E+00  0.0000E+00  0.6980E+03
  13.830  0.0000E+00  0.0000E+00  0.6980E+03
  13.840  0.0000E+00  0.0000E+00  0.6980E+03
  13.850  0.0000E+00  0.0000E+00  0.6980E+03
  13.860  0.0000E+00  0.0000E+00  0.6980E+03
  13.870  0.0000E+00  0.0000E+00  0.6980E+03
  13.880  0.0000E+00  0.0000E+00  0.6980E+03
  13.890  0.0000E+00  0.0000E+00  0.6980E+03
  13.900  0.0000E+00  0.0000E+00  0.6980E+03
  13.910  0.0000E+00  0.0000E+00  0.6980E+03
  13.920  0.0000E+00  0.0000E+00  0.6980E+03
  13.930  0.0000E+00  0.0000E+00  0.6980E+03
  13.940  0.0000E+00  0.0000E+00  0.6980E+03
  13.950  0.0000E+00  0.0000E+00  0.6980E+03
  13.960  0.0000E+00  0.0000E+00  0.6980E+03
  13.970  0.0000E+00  0.0000E+00  0.6980E+03
  13.980  0.0000E+00  0.0000E+00  0.6980E+03
  13.990  0.0000E+00  0.0000E+00  0.6980E+03
  14.000  0.0000E+00  0.0000E+00  0.6980E+03
  14.010  0.0000E+00  0.0000E+00  0.6980E+03
  14.020  0.0000E+00  0.0000E+00  0.6980E+03
  14.030  0.0000E+00  0.0000E+00  0.6980E+03
  14.040  0.0000E+00  0.0000E+00  0.6980E+03
  14.050  0.0000E+00  0.0000E+00  0.6980E+03
  14.060  0.0000E+00  0.0000E+00  0.6980E+03
  14.070  0.0000E+00  0.0000E+00  0.6980E+03
  14.080  0.0000E+00  0.0000E+00  0.6980E+03
  14.090  0.0000E+00  0.0000E+00  0.6980E+03
  14.100  0.0000E+00  0.0000E+00  0.6980E+03
  14.110  0.0000E+00  0.0000E+00  0.6980E+03
  14.120  0.0000E+00  0.0000E+00  0.6980E+03
  14.130  0.0000E+00  0.0000E+00  0.6980E+03
  14.140  0.0000E+00  0.0000E+00  0.6980E+03
  14.150  0.0000E+00  0.0000E+00  0.6980E+03
  14.160  0.0000E+00  0.0000E+00  0.6980E+03
  14.170  0.0000E+00  0.0000E+00  0.6980E+03
  14.180  0.0000E+00  0.0000E+00  0.6980E+03
  14.190  0.0000E+00  0.0000E+00  0.6980E+03
  14.200  0.0000E+00  0.0000E+00  0.6980E+03
  14.210  0.0000E+00  0.0000E+00  0.6980E+03
  14.220  0.0000E+00  0.0000E+00  0.6980E+03
  14.230  0.0000E+00  0.0000E+00  0.6980E+03
  14.240  0.0000E+00  0.0000E+00  0.6980E+03
  14.250  0.0000E+00  0.0000E+00  0.6980E+03
  14.260  0.0000E+00  0.0000E+00  0.6980E+03
  14.270  0.0000E+00  0.0000E+00  0.6980E+03
  14.280  0.0000E+00  0.0000E+00  0.6980E+03
  14.290  0.0000E+00  0.0000E+00  0.6980E+03
  14.300  0.0000E+00  0.0000E+00  0.6980E+03
  14.310  0.0000E+00  0.0000E+00  0.6980E+03
  14.320  0.0000E+00  0.0000E+00  0.6980E+03
  14.330  0.0000E+00  0.0000E+00  0.6980E+03
  14.340  0.0000E+00  0.0000E+00  0.6980E+03
  14.350  0.0000E+00  0.0000E+00  0.6980E+03
  14.360  0.0000E+00  0.0000E+00  0.6980E+03
  14.370  0.0000E+00  0.0000E+00  0.6980E+03
  14.380  0.0000E+00  0.0000E+00  0.6980E+03
  14.390  0.0000E+00  0.0000E+00  0.6980E+03
  14.400  0.0000E+00  0.0000E+00  0.6980E+03
  14.410  0.0000E+00  0.0000E+00  0.6980E+03
  14.420  0.0000E+00  0.0000E+00  0.6980E+03
  14.430  0.0000E+00  0.0000E+00  0.6980E+03
  14.440  0.0000E+00  0.0000E+00  0.6980E+03
  14.450  0.0000E+00  0.0000E+00  0.6980E+03
  14.460  0.0000E+00  0.0000E+00  0.6980E+03
  14.470  0.0000E+00  0.0000E+00  0.6980E+03
  14.480  0.0000E+00  0.0000E+00  0.6980E+03
  14.490  0.0000E+00  0.0000E+00  0.6980E+03
  14.500  0.0000E+00  0.0000E+00  0.6980E+03
  14.510  0.0000E+00  0.0000E+00  0.6980E+03
  14.520  0.0000E+00  0.0000E+00  0.6980E+03
  14.530  0.0000E+00  0.0000E+00  0.6980E+03
  14.540  0.0000E+00  0.0000E+00  0.6980E+03
  14.550  0.0000E+00  0.0000E+00  0.6980E+03
  14.560  0.0000E+00  0.0000E+00  0.6980E+03
  14.570  0.0000E+00  0.0000E+00  0.6980E+03
  14.580  0.0000E+00  0.0000E+00  0.6980E+03
  14.590  0.0000E+00  0.0000E+00  0.6980E+03
  14.600  0.0000E+00  0.0000E+00  0.6980E+03
  14.610  0.0000E+00  0.0000E+00  0.6980E+03
  14.620  0.0000E+00  0.0000E+00  0.6980E+03
  14.630  0.0000E+00  0.0000E+00  0.6980E+03
  14.640  0.0000E+00  0.0000E+00  0.6980E+03
  14.650  0.0000E+00  0.0000E+00  0.6980E+03
  14.660  0.0000E+00  0.0000E+00  0.6980E+03
  14.670  0.0000E+00  0.0000E+00  0.6980E+03
  14.680  0.0000E+00  0.0000E+00  0.6980E+03
  14.690  0.0000E+00  0.0000E+00  0.6980E+03
  14.700  0.0000E+00  0.0000E+00  0.6980E+03
  14.710  0.0000E+00  0.0000E+00  0.6980E+03
  14.720  0.0000E+00  0.0000E+00  0.6980E+03
  14.730  0.0000E+00  0.0000E+00  0.6980E+03
  14.740  0.0000E+00  0.0000E+00  0.6980E+03
  14.750  0.0000E+00  0.0000E+00  0.6980E+03
  14.760  0.0000E+00  0.0000E+00  0.6980E+03
  14.770  0.0000E+00  0.0000E+00  0.6980E+03
  14.780  0.0000E+00  0.0000E+00  0.6980E+03
  14.790  0.0000E+00  0.0000E+00  0.6980E+03
  14.800  0.0000E+00  0.0000E+00  0.6980E+03
  14.810  0.0000E+00  0.0000E+00  0.6980E+03
  14.820  0.0000E+00  0.0000E+00  0.6980E+03
  14.830  0.0000E+00  0.0000E+00  0.6980E+03
  14.840  0.0000E+00  0.0000E+00  0.6980E+03
  14.850  0.0000E+00  0.0000E+00  0.6980E+03
  14.860  0.0000E+00  0.0000E+00  0.6980E+03
  14.870  0.0000E+00  0.0000E+00  0.6980E+03
  14.880  0.0000E+00  0.0000E+00  0.6980E+03
  14.890  0.0000E+00  0.0000E+00  0.6980E+03
  14.900  0.0000E+00  0.0000E+00  0.6980E+03
  14.910  0.0000E+00  0.0000E+00  0.6980E+03
  14.920  0.0000E+00  0.0000E+00  0.6980E+03
  14.930  0.0000E+00  0.0000E+00  0.6980E+03
  14.940  0.0000E+00  0.0000E+00  0.6980E+03
  14.950  0.0000E+00  0.0000E+00  0.6980E+03
  14.960  0.0000E+00  0.0000E+00  0.6980E+03
  14.970  0.0000E+00  0.0000E+00  0.6980E+03
  14.980  0.0000E+00  0.0000E+00  0.6980E+03
  14.990  0.0000E+00  0.0000E+00  0.6980E+03
  15.000  0.0000E+00  0.0000E+00  0.6980E+03
