#  E (eV)   dosup(E)     dosdw(E)   Int dos(E) EFermi =    6.911 eV
 -15.000  0.0000E+00  0.0000E+00  0.8000E+01
 -14.990  0.0000E+00  0.0000E+00  0.8000E+01
 -14.980  0.0000E+00  0.0000E+00  0.8000E+01
 -14.970  0.0000E+00  0.0000E+00  0.8000E+01
 -14.960  0.0000E+00  0.0000E+00  0.8000E+01
 -14.950  0.0000E+00  0.0000E+00  0.8000E+01
 -14.940  0.0000E+00  0.0000E+00  0.8000E+01
 -14.930  0.0000E+00  0.0000E+00  0.8000E+01
 -14.920  0.0000E+00  0.0000E+00  0.8000E+01
 -14.910  0.0000E+00  0.0000E+00  0.8000E+01
 -14.900  0.0000E+00  0.0000E+00  0.8000E+01
 -14.890  0.0000E+00  0.0000E+00  0.8000E+01
 -14.880  0.0000E+00  0.0000E+00  0.8000E+01
 -14.870  0.0000E+00  0.0000E+00  0.8000E+01
 -14.860  0.0000E+00  0.0000E+00  0.8000E+01
 -14.850  0.0000E+00  0.0000E+00  0.8000E+01
 -14.840  0.0000E+00  0.0000E+00  0.8000E+01
 -14.830  0.0000E+00  0.0000E+00  0.8000E+01
 -14.820  0.0000E+00  0.0000E+00  0.8000E+01
 -14.810  0.0000E+00  0.0000E+00  0.8000E+01
 -14.800  0.0000E+00  0.0000E+00  0.8000E+01
 -14.790  0.0000E+00  0.0000E+00  0.8000E+01
 -14.780  0.0000E+00  0.0000E+00  0.8000E+01
 -14.770  0.0000E+00  0.0000E+00  0.8000E+01
 -14.760  0.0000E+00  0.0000E+00  0.8000E+01
 -14.750  0.0000E+00  0.0000E+00  0.8000E+01
 -14.740  0.0000E+00  0.0000E+00  0.8000E+01
 -14.730  0.0000E+00  0.0000E+00  0.8000E+01
 -14.720  0.0000E+00  0.0000E+00  0.8000E+01
 -14.710  0.0000E+00  0.0000E+00  0.8000E+01
 -14.700  0.0000E+00  0.0000E+00  0.8000E+01
 -14.690  0.0000E+00  0.0000E+00  0.8000E+01
 -14.680  0.0000E+00  0.0000E+00  0.8000E+01
 -14.670  0.0000E+00  0.0000E+00  0.8000E+01
 -14.660  0.0000E+00  0.0000E+00  0.8000E+01
 -14.650  0.0000E+00  0.0000E+00  0.8000E+01
 -14.640  0.0000E+00  0.0000E+00  0.8000E+01
 -14.630  0.0000E+00  0.0000E+00  0.8000E+01
 -14.620  0.0000E+00  0.0000E+00  0.8000E+01
 -14.610  0.0000E+00  0.0000E+00  0.8000E+01
 -14.600  0.0000E+00  0.0000E+00  0.8000E+01
 -14.590  0.0000E+00  0.0000E+00  0.8000E+01
 -14.580  0.0000E+00  0.0000E+00  0.8000E+01
 -14.570  0.0000E+00  0.0000E+00  0.8000E+01
 -14.560  0.0000E+00  0.0000E+00  0.8000E+01
 -14.550  0.0000E+00  0.0000E+00  0.8000E+01
 -14.540  0.0000E+00  0.0000E+00  0.8000E+01
 -14.530  0.0000E+00  0.0000E+00  0.8000E+01
 -14.520  0.0000E+00  0.0000E+00  0.8000E+01
 -14.510  0.0000E+00  0.0000E+00  0.8000E+01
 -14.500  0.0000E+00  0.0000E+00  0.8000E+01
 -14.490  0.0000E+00  0.0000E+00  0.8000E+01
 -14.480  0.0000E+00  0.0000E+00  0.8000E+01
 -14.470  0.0000E+00  0.0000E+00  0.8000E+01
 -14.460  0.0000E+00  0.0000E+00  0.8000E+01
 -14.450  0.0000E+00  0.0000E+00  0.8000E+01
 -14.440  0.0000E+00  0.0000E+00  0.8000E+01
 -14.430  0.0000E+00  0.0000E+00  0.8000E+01
 -14.420  0.0000E+00  0.0000E+00  0.8000E+01
 -14.410  0.0000E+00  0.0000E+00  0.8000E+01
 -14.400  0.0000E+00  0.0000E+00  0.8000E+01
 -14.390  0.0000E+00  0.0000E+00  0.8000E+01
 -14.380  0.0000E+00  0.0000E+00  0.8000E+01
 -14.370  0.0000E+00  0.0000E+00  0.8000E+01
 -14.360  0.0000E+00  0.0000E+00  0.8000E+01
 -14.350  0.0000E+00  0.0000E+00  0.8000E+01
 -14.340  0.0000E+00  0.0000E+00  0.8000E+01
 -14.330  0.0000E+00  0.0000E+00  0.8000E+01
 -14.320  0.0000E+00  0.0000E+00  0.8000E+01
 -14.310  0.0000E+00  0.0000E+00  0.8000E+01
 -14.300  0.0000E+00  0.0000E+00  0.8000E+01
 -14.290  0.0000E+00  0.0000E+00  0.8000E+01
 -14.280  0.0000E+00  0.0000E+00  0.8000E+01
 -14.270  0.0000E+00  0.0000E+00  0.8000E+01
 -14.260  0.0000E+00  0.0000E+00  0.8000E+01
 -14.250  0.0000E+00  0.0000E+00  0.8000E+01
 -14.240  0.0000E+00  0.0000E+00  0.8000E+01
 -14.230  0.0000E+00  0.0000E+00  0.8000E+01
 -14.220  0.0000E+00  0.0000E+00  0.8000E+01
 -14.210  0.0000E+00  0.0000E+00  0.8000E+01
 -14.200  0.0000E+00  0.0000E+00  0.8000E+01
 -14.190  0.0000E+00  0.0000E+00  0.8000E+01
 -14.180  0.0000E+00  0.0000E+00  0.8000E+01
 -14.170  0.0000E+00  0.0000E+00  0.8000E+01
 -14.160  0.0000E+00  0.0000E+00  0.8000E+01
 -14.150  0.0000E+00  0.0000E+00  0.8000E+01
 -14.140  0.0000E+00  0.0000E+00  0.8000E+01
 -14.130  0.0000E+00  0.0000E+00  0.8000E+01
 -14.120  0.0000E+00  0.0000E+00  0.8000E+01
 -14.110  0.0000E+00  0.0000E+00  0.8000E+01
 -14.100  0.0000E+00  0.0000E+00  0.8000E+01
 -14.090  0.0000E+00  0.0000E+00  0.8000E+01
 -14.080  0.0000E+00  0.0000E+00  0.8000E+01
 -14.070  0.0000E+00  0.0000E+00  0.8000E+01
 -14.060  0.0000E+00  0.0000E+00  0.8000E+01
 -14.050  0.0000E+00  0.0000E+00  0.8000E+01
 -14.040  0.0000E+00  0.0000E+00  0.8000E+01
 -14.030  0.0000E+00  0.0000E+00  0.8000E+01
 -14.020  0.0000E+00  0.0000E+00  0.8000E+01
 -14.010  0.0000E+00  0.0000E+00  0.8000E+01
 -14.000  0.0000E+00  0.0000E+00  0.8000E+01
 -13.990  0.0000E+00  0.0000E+00  0.8000E+01
 -13.980  0.0000E+00  0.0000E+00  0.8000E+01
 -13.970  0.0000E+00  0.0000E+00  0.8000E+01
 -13.960  0.0000E+00  0.0000E+00  0.8000E+01
 -13.950  0.0000E+00  0.0000E+00  0.8000E+01
 -13.940  0.0000E+00  0.0000E+00  0.8000E+01
 -13.930  0.0000E+00  0.0000E+00  0.8000E+01
 -13.920  0.0000E+00  0.0000E+00  0.8000E+01
 -13.910  0.0000E+00  0.0000E+00  0.8000E+01
 -13.900  0.0000E+00  0.0000E+00  0.8000E+01
 -13.890  0.0000E+00  0.0000E+00  0.8000E+01
 -13.880  0.0000E+00  0.0000E+00  0.8000E+01
 -13.870  0.0000E+00  0.0000E+00  0.8000E+01
 -13.860  0.0000E+00  0.0000E+00  0.8000E+01
 -13.850  0.0000E+00  0.0000E+00  0.8000E+01
 -13.840  0.0000E+00  0.0000E+00  0.8000E+01
 -13.830  0.0000E+00  0.0000E+00  0.8000E+01
 -13.820  0.0000E+00  0.0000E+00  0.8000E+01
 -13.810  0.0000E+00  0.0000E+00  0.8000E+01
 -13.800  0.0000E+00  0.0000E+00  0.8000E+01
 -13.790  0.0000E+00  0.0000E+00  0.8000E+01
 -13.780  0.0000E+00  0.0000E+00  0.8000E+01
 -13.770  0.0000E+00  0.0000E+00  0.8000E+01
 -13.760  0.0000E+00  0.0000E+00  0.8000E+01
 -13.750  0.0000E+00  0.0000E+00  0.8000E+01
 -13.740  0.0000E+00  0.0000E+00  0.8000E+01
 -13.730  0.0000E+00  0.0000E+00  0.8000E+01
 -13.720  0.0000E+00  0.0000E+00  0.8000E+01
 -13.710  0.0000E+00  0.0000E+00  0.8000E+01
 -13.700  0.0000E+00  0.0000E+00  0.8000E+01
 -13.690  0.0000E+00  0.0000E+00  0.8000E+01
 -13.680  0.0000E+00  0.0000E+00  0.8000E+01
 -13.670  0.0000E+00  0.0000E+00  0.8000E+01
 -13.660  0.0000E+00  0.0000E+00  0.8000E+01
 -13.650  0.0000E+00  0.0000E+00  0.8000E+01
 -13.640  0.0000E+00  0.0000E+00  0.8000E+01
 -13.630  0.0000E+00  0.0000E+00  0.8000E+01
 -13.620  0.0000E+00  0.0000E+00  0.8000E+01
 -13.610  0.0000E+00  0.0000E+00  0.8000E+01
 -13.600  0.0000E+00  0.0000E+00  0.8000E+01
 -13.590  0.0000E+00  0.0000E+00  0.8000E+01
 -13.580  0.0000E+00  0.0000E+00  0.8000E+01
 -13.570  0.0000E+00  0.0000E+00  0.8000E+01
 -13.560  0.0000E+00  0.0000E+00  0.8000E+01
 -13.550  0.0000E+00  0.0000E+00  0.8000E+01
 -13.540  0.0000E+00  0.0000E+00  0.8000E+01
 -13.530  0.0000E+00  0.0000E+00  0.8000E+01
 -13.520  0.0000E+00  0.0000E+00  0.8000E+01
 -13.510  0.0000E+00  0.0000E+00  0.8000E+01
 -13.500  0.0000E+00  0.0000E+00  0.8000E+01
 -13.490  0.0000E+00  0.0000E+00  0.8000E+01
 -13.480  0.0000E+00  0.0000E+00  0.8000E+01
 -13.470  0.0000E+00  0.0000E+00  0.8000E+01
 -13.460  0.0000E+00  0.0000E+00  0.8000E+01
 -13.450  0.0000E+00  0.0000E+00  0.8000E+01
 -13.440  0.0000E+00  0.0000E+00  0.8000E+01
 -13.430  0.0000E+00  0.0000E+00  0.8000E+01
 -13.420  0.0000E+00  0.0000E+00  0.8000E+01
 -13.410  0.0000E+00  0.0000E+00  0.8000E+01
 -13.400  0.0000E+00  0.0000E+00  0.8000E+01
 -13.390  0.0000E+00  0.0000E+00  0.8000E+01
 -13.380  0.0000E+00  0.0000E+00  0.8000E+01
 -13.370  0.0000E+00  0.0000E+00  0.8000E+01
 -13.360  0.0000E+00  0.0000E+00  0.8000E+01
 -13.350  0.0000E+00  0.0000E+00  0.8000E+01
 -13.340  0.0000E+00  0.0000E+00  0.8000E+01
 -13.330  0.0000E+00  0.0000E+00  0.8000E+01
 -13.320  0.0000E+00  0.0000E+00  0.8000E+01
 -13.310  0.0000E+00  0.0000E+00  0.8000E+01
 -13.300  0.0000E+00  0.0000E+00  0.8000E+01
 -13.290  0.0000E+00  0.0000E+00  0.8000E+01
 -13.280  0.0000E+00  0.0000E+00  0.8000E+01
 -13.270  0.0000E+00  0.0000E+00  0.8000E+01
 -13.260  0.0000E+00  0.0000E+00  0.8000E+01
 -13.250  0.0000E+00  0.0000E+00  0.8000E+01
 -13.240  0.0000E+00  0.0000E+00  0.8000E+01
 -13.230  0.0000E+00  0.0000E+00  0.8000E+01
 -13.220  0.0000E+00  0.0000E+00  0.8000E+01
 -13.210  0.0000E+00  0.0000E+00  0.8000E+01
 -13.200  0.0000E+00  0.0000E+00  0.8000E+01
 -13.190  0.0000E+00  0.0000E+00  0.8000E+01
 -13.180  0.0000E+00  0.0000E+00  0.8000E+01
 -13.170  0.0000E+00  0.0000E+00  0.8000E+01
 -13.160  0.0000E+00  0.0000E+00  0.8000E+01
 -13.150  0.0000E+00  0.0000E+00  0.8000E+01
 -13.140  0.0000E+00  0.0000E+00  0.8000E+01
 -13.130  0.0000E+00  0.0000E+00  0.8000E+01
 -13.120  0.0000E+00  0.0000E+00  0.8000E+01
 -13.110  0.0000E+00  0.0000E+00  0.8000E+01
 -13.100  0.0000E+00  0.0000E+00  0.8000E+01
 -13.090  0.0000E+00  0.0000E+00  0.8000E+01
 -13.080  0.0000E+00  0.0000E+00  0.8000E+01
 -13.070  0.0000E+00  0.0000E+00  0.8000E+01
 -13.060  0.0000E+00  0.0000E+00  0.8000E+01
 -13.050  0.0000E+00  0.0000E+00  0.8000E+01
 -13.040  0.0000E+00  0.0000E+00  0.8000E+01
 -13.030  0.0000E+00  0.0000E+00  0.8000E+01
 -13.020  0.0000E+00  0.0000E+00  0.8000E+01
 -13.010  0.0000E+00  0.0000E+00  0.8000E+01
 -13.000  0.0000E+00  0.0000E+00  0.8000E+01
 -12.990  0.0000E+00  0.0000E+00  0.8000E+01
 -12.980  0.0000E+00  0.0000E+00  0.8000E+01
 -12.970  0.0000E+00  0.0000E+00  0.8000E+01
 -12.960  0.0000E+00  0.0000E+00  0.8000E+01
 -12.950  0.0000E+00  0.0000E+00  0.8000E+01
 -12.940  0.0000E+00  0.0000E+00  0.8000E+01
 -12.930  0.0000E+00  0.0000E+00  0.8000E+01
 -12.920  0.0000E+00  0.0000E+00  0.8000E+01
 -12.910  0.0000E+00  0.0000E+00  0.8000E+01
 -12.900  0.0000E+00  0.0000E+00  0.8000E+01
 -12.890  0.0000E+00  0.0000E+00  0.8000E+01
 -12.880  0.0000E+00  0.0000E+00  0.8000E+01
 -12.870  0.0000E+00  0.0000E+00  0.8000E+01
 -12.860  0.0000E+00  0.0000E+00  0.8000E+01
 -12.850  0.0000E+00  0.0000E+00  0.8000E+01
 -12.840  0.0000E+00  0.0000E+00  0.8000E+01
 -12.830  0.0000E+00  0.0000E+00  0.8000E+01
 -12.820  0.0000E+00  0.0000E+00  0.8000E+01
 -12.810  0.0000E+00  0.0000E+00  0.8000E+01
 -12.800  0.0000E+00  0.0000E+00  0.8000E+01
 -12.790  0.0000E+00  0.0000E+00  0.8000E+01
 -12.780  0.0000E+00  0.0000E+00  0.8000E+01
 -12.770  0.0000E+00  0.0000E+00  0.8000E+01
 -12.760  0.0000E+00  0.0000E+00  0.8000E+01
 -12.750  0.0000E+00  0.0000E+00  0.8000E+01
 -12.740  0.0000E+00  0.0000E+00  0.8000E+01
 -12.730  0.0000E+00  0.0000E+00  0.8000E+01
 -12.720  0.0000E+00  0.0000E+00  0.8000E+01
 -12.710  0.0000E+00  0.0000E+00  0.8000E+01
 -12.700  0.0000E+00  0.0000E+00  0.8000E+01
 -12.690  0.0000E+00  0.0000E+00  0.8000E+01
 -12.680  0.0000E+00  0.0000E+00  0.8000E+01
 -12.670  0.0000E+00  0.0000E+00  0.8000E+01
 -12.660  0.0000E+00  0.0000E+00  0.8000E+01
 -12.650  0.0000E+00  0.0000E+00  0.8000E+01
 -12.640  0.0000E+00  0.0000E+00  0.8000E+01
 -12.630  0.0000E+00  0.0000E+00  0.8000E+01
 -12.620  0.0000E+00  0.0000E+00  0.8000E+01
 -12.610  0.0000E+00  0.0000E+00  0.8000E+01
 -12.600  0.0000E+00  0.0000E+00  0.8000E+01
 -12.590  0.0000E+00  0.0000E+00  0.8000E+01
 -12.580  0.0000E+00  0.0000E+00  0.8000E+01
 -12.570  0.0000E+00  0.0000E+00  0.8000E+01
 -12.560  0.0000E+00  0.0000E+00  0.8000E+01
 -12.550  0.0000E+00  0.0000E+00  0.8000E+01
 -12.540  0.0000E+00  0.0000E+00  0.8000E+01
 -12.530  0.0000E+00  0.0000E+00  0.8000E+01
 -12.520  0.0000E+00  0.0000E+00  0.8000E+01
 -12.510  0.0000E+00  0.0000E+00  0.8000E+01
 -12.500  0.0000E+00  0.0000E+00  0.8000E+01
 -12.490  0.0000E+00  0.0000E+00  0.8000E+01
 -12.480  0.0000E+00  0.0000E+00  0.8000E+01
 -12.470  0.0000E+00  0.0000E+00  0.8000E+01
 -12.460  0.0000E+00  0.0000E+00  0.8000E+01
 -12.450  0.0000E+00  0.0000E+00  0.8000E+01
 -12.440  0.0000E+00  0.0000E+00  0.8000E+01
 -12.430  0.0000E+00  0.0000E+00  0.8000E+01
 -12.420  0.0000E+00  0.0000E+00  0.8000E+01
 -12.410  0.0000E+00  0.0000E+00  0.8000E+01
 -12.400  0.0000E+00  0.0000E+00  0.8000E+01
 -12.390  0.0000E+00  0.0000E+00  0.8000E+01
 -12.380  0.0000E+00  0.0000E+00  0.8000E+01
 -12.370  0.0000E+00  0.0000E+00  0.8000E+01
 -12.360  0.0000E+00  0.0000E+00  0.8000E+01
 -12.350  0.0000E+00  0.0000E+00  0.8000E+01
 -12.340  0.0000E+00  0.0000E+00  0.8000E+01
 -12.330  0.0000E+00  0.0000E+00  0.8000E+01
 -12.320  0.0000E+00  0.0000E+00  0.8000E+01
 -12.310  0.0000E+00  0.0000E+00  0.8000E+01
 -12.300  0.0000E+00  0.0000E+00  0.8000E+01
 -12.290  0.0000E+00  0.0000E+00  0.8000E+01
 -12.280  0.0000E+00  0.0000E+00  0.8000E+01
 -12.270  0.0000E+00  0.0000E+00  0.8000E+01
 -12.260  0.0000E+00  0.0000E+00  0.8000E+01
 -12.250  0.0000E+00  0.0000E+00  0.8000E+01
 -12.240  0.0000E+00  0.0000E+00  0.8000E+01
 -12.230  0.0000E+00  0.0000E+00  0.8000E+01
 -12.220  0.0000E+00  0.0000E+00  0.8000E+01
 -12.210  0.0000E+00  0.0000E+00  0.8000E+01
 -12.200  0.0000E+00  0.0000E+00  0.8000E+01
 -12.190  0.0000E+00  0.0000E+00  0.8000E+01
 -12.180  0.0000E+00  0.0000E+00  0.8000E+01
 -12.170  0.0000E+00  0.0000E+00  0.8000E+01
 -12.160  0.0000E+00  0.0000E+00  0.8000E+01
 -12.150  0.0000E+00  0.0000E+00  0.8000E+01
 -12.140  0.0000E+00  0.0000E+00  0.8000E+01
 -12.130  0.0000E+00  0.0000E+00  0.8000E+01
 -12.120  0.0000E+00  0.0000E+00  0.8000E+01
 -12.110  0.0000E+00  0.0000E+00  0.8000E+01
 -12.100  0.0000E+00  0.0000E+00  0.8000E+01
 -12.090  0.0000E+00  0.0000E+00  0.8000E+01
 -12.080  0.0000E+00  0.0000E+00  0.8000E+01
 -12.070  0.0000E+00  0.0000E+00  0.8000E+01
 -12.060  0.0000E+00  0.0000E+00  0.8000E+01
 -12.050  0.0000E+00  0.0000E+00  0.8000E+01
 -12.040  0.0000E+00  0.0000E+00  0.8000E+01
 -12.030  0.0000E+00  0.0000E+00  0.8000E+01
 -12.020  0.0000E+00  0.0000E+00  0.8000E+01
 -12.010  0.0000E+00  0.0000E+00  0.8000E+01
 -12.000  0.0000E+00  0.0000E+00  0.8000E+01
 -11.990  0.0000E+00  0.0000E+00  0.8000E+01
 -11.980  0.0000E+00  0.0000E+00  0.8000E+01
 -11.970  0.0000E+00  0.0000E+00  0.8000E+01
 -11.960  0.0000E+00  0.0000E+00  0.8000E+01
 -11.950  0.0000E+00  0.0000E+00  0.8000E+01
 -11.940  0.0000E+00  0.0000E+00  0.8000E+01
 -11.930  0.0000E+00  0.0000E+00  0.8000E+01
 -11.920  0.0000E+00  0.0000E+00  0.8000E+01
 -11.910  0.0000E+00  0.0000E+00  0.8000E+01
 -11.900  0.0000E+00  0.0000E+00  0.8000E+01
 -11.890  0.0000E+00  0.0000E+00  0.8000E+01
 -11.880  0.0000E+00  0.0000E+00  0.8000E+01
 -11.870  0.0000E+00  0.0000E+00  0.8000E+01
 -11.860  0.0000E+00  0.0000E+00  0.8000E+01
 -11.850  0.0000E+00  0.0000E+00  0.8000E+01
 -11.840  0.0000E+00  0.0000E+00  0.8000E+01
 -11.830  0.0000E+00  0.0000E+00  0.8000E+01
 -11.820  0.0000E+00  0.0000E+00  0.8000E+01
 -11.810  0.0000E+00  0.0000E+00  0.8000E+01
 -11.800  0.0000E+00  0.0000E+00  0.8000E+01
 -11.790  0.0000E+00  0.0000E+00  0.8000E+01
 -11.780  0.0000E+00  0.0000E+00  0.8000E+01
 -11.770  0.0000E+00  0.0000E+00  0.8000E+01
 -11.760  0.0000E+00  0.0000E+00  0.8000E+01
 -11.750  0.0000E+00  0.0000E+00  0.8000E+01
 -11.740  0.0000E+00  0.0000E+00  0.8000E+01
 -11.730  0.0000E+00  0.0000E+00  0.8000E+01
 -11.720  0.0000E+00  0.0000E+00  0.8000E+01
 -11.710  0.0000E+00  0.0000E+00  0.8000E+01
 -11.700  0.0000E+00  0.0000E+00  0.8000E+01
 -11.690  0.0000E+00  0.0000E+00  0.8000E+01
 -11.680  0.0000E+00  0.0000E+00  0.8000E+01
 -11.670  0.0000E+00  0.0000E+00  0.8000E+01
 -11.660  0.0000E+00  0.0000E+00  0.8000E+01
 -11.650  0.0000E+00  0.0000E+00  0.8000E+01
 -11.640  0.0000E+00  0.0000E+00  0.8000E+01
 -11.630  0.0000E+00  0.0000E+00  0.8000E+01
 -11.620  0.0000E+00  0.0000E+00  0.8000E+01
 -11.610  0.0000E+00  0.0000E+00  0.8000E+01
 -11.600  0.0000E+00  0.0000E+00  0.8000E+01
 -11.590  0.0000E+00  0.0000E+00  0.8000E+01
 -11.580  0.0000E+00  0.0000E+00  0.8000E+01
 -11.570  0.0000E+00  0.0000E+00  0.8000E+01
 -11.560  0.0000E+00  0.0000E+00  0.8000E+01
 -11.550  0.0000E+00  0.0000E+00  0.8000E+01
 -11.540  0.0000E+00  0.0000E+00  0.8000E+01
 -11.530  0.0000E+00  0.0000E+00  0.8000E+01
 -11.520  0.0000E+00  0.0000E+00  0.8000E+01
 -11.510  0.0000E+00  0.0000E+00  0.8000E+01
 -11.500  0.0000E+00  0.0000E+00  0.8000E+01
 -11.490  0.0000E+00  0.0000E+00  0.8000E+01
 -11.480  0.0000E+00  0.0000E+00  0.8000E+01
 -11.470  0.0000E+00  0.0000E+00  0.8000E+01
 -11.460  0.0000E+00  0.0000E+00  0.8000E+01
 -11.450  0.0000E+00  0.0000E+00  0.8000E+01
 -11.440  0.0000E+00  0.0000E+00  0.8000E+01
 -11.430  0.0000E+00  0.0000E+00  0.8000E+01
 -11.420  0.0000E+00  0.0000E+00  0.8000E+01
 -11.410  0.0000E+00  0.0000E+00  0.8000E+01
 -11.400  0.0000E+00  0.0000E+00  0.8000E+01
 -11.390  0.0000E+00  0.0000E+00  0.8000E+01
 -11.380  0.0000E+00  0.0000E+00  0.8000E+01
 -11.370  0.0000E+00  0.0000E+00  0.8000E+01
 -11.360  0.0000E+00  0.0000E+00  0.8000E+01
 -11.350  0.0000E+00  0.0000E+00  0.8000E+01
 -11.340  0.0000E+00  0.0000E+00  0.8000E+01
 -11.330  0.0000E+00  0.0000E+00  0.8000E+01
 -11.320  0.0000E+00  0.0000E+00  0.8000E+01
 -11.310  0.0000E+00  0.0000E+00  0.8000E+01
 -11.300  0.0000E+00  0.0000E+00  0.8000E+01
 -11.290  0.0000E+00  0.0000E+00  0.8000E+01
 -11.280  0.0000E+00  0.0000E+00  0.8000E+01
 -11.270  0.0000E+00  0.0000E+00  0.8000E+01
 -11.260  0.0000E+00  0.0000E+00  0.8000E+01
 -11.250  0.0000E+00  0.0000E+00  0.8000E+01
 -11.240  0.0000E+00  0.0000E+00  0.8000E+01
 -11.230  0.0000E+00  0.0000E+00  0.8000E+01
 -11.220  0.0000E+00  0.0000E+00  0.8000E+01
 -11.210  0.0000E+00  0.0000E+00  0.8000E+01
 -11.200  0.0000E+00  0.0000E+00  0.8000E+01
 -11.190  0.0000E+00  0.0000E+00  0.8000E+01
 -11.180  0.0000E+00  0.0000E+00  0.8000E+01
 -11.170  0.0000E+00  0.0000E+00  0.8000E+01
 -11.160  0.0000E+00  0.0000E+00  0.8000E+01
 -11.150  0.0000E+00  0.0000E+00  0.8000E+01
 -11.140  0.0000E+00  0.0000E+00  0.8000E+01
 -11.130  0.0000E+00  0.0000E+00  0.8000E+01
 -11.120  0.0000E+00  0.0000E+00  0.8000E+01
 -11.110  0.0000E+00  0.0000E+00  0.8000E+01
 -11.100  0.0000E+00  0.0000E+00  0.8000E+01
 -11.090  0.0000E+00  0.0000E+00  0.8000E+01
 -11.080  0.0000E+00  0.0000E+00  0.8000E+01
 -11.070  0.0000E+00  0.0000E+00  0.8000E+01
 -11.060  0.0000E+00  0.0000E+00  0.8000E+01
 -11.050  0.0000E+00  0.0000E+00  0.8000E+01
 -11.040  0.0000E+00  0.0000E+00  0.8000E+01
 -11.030  0.0000E+00  0.0000E+00  0.8000E+01
 -11.020  0.0000E+00  0.0000E+00  0.8000E+01
 -11.010  0.0000E+00  0.0000E+00  0.8000E+01
 -11.000  0.0000E+00  0.0000E+00  0.8000E+01
 -10.990  0.0000E+00  0.0000E+00  0.8000E+01
 -10.980  0.0000E+00  0.0000E+00  0.8000E+01
 -10.970  0.0000E+00  0.0000E+00  0.8000E+01
 -10.960  0.0000E+00  0.0000E+00  0.8000E+01
 -10.950  0.0000E+00  0.0000E+00  0.8000E+01
 -10.940  0.0000E+00  0.0000E+00  0.8000E+01
 -10.930  0.0000E+00  0.0000E+00  0.8000E+01
 -10.920  0.0000E+00  0.0000E+00  0.8000E+01
 -10.910  0.0000E+00  0.0000E+00  0.8000E+01
 -10.900  0.0000E+00  0.0000E+00  0.8000E+01
 -10.890  0.0000E+00  0.0000E+00  0.8000E+01
 -10.880  0.0000E+00  0.0000E+00  0.8000E+01
 -10.870  0.0000E+00  0.0000E+00  0.8000E+01
 -10.860  0.0000E+00  0.0000E+00  0.8000E+01
 -10.850  0.0000E+00  0.0000E+00  0.8000E+01
 -10.840  0.0000E+00  0.0000E+00  0.8000E+01
 -10.830  0.0000E+00  0.0000E+00  0.8000E+01
 -10.820  0.0000E+00  0.0000E+00  0.8000E+01
 -10.810  0.0000E+00  0.0000E+00  0.8000E+01
 -10.800  0.0000E+00  0.0000E+00  0.8000E+01
 -10.790  0.0000E+00  0.0000E+00  0.8000E+01
 -10.780  0.0000E+00  0.0000E+00  0.8000E+01
 -10.770  0.0000E+00  0.0000E+00  0.8000E+01
 -10.760  0.0000E+00  0.0000E+00  0.8000E+01
 -10.750  0.0000E+00  0.0000E+00  0.8000E+01
 -10.740  0.0000E+00  0.0000E+00  0.8000E+01
 -10.730  0.0000E+00  0.0000E+00  0.8000E+01
 -10.720  0.0000E+00  0.0000E+00  0.8000E+01
 -10.710  0.0000E+00  0.0000E+00  0.8000E+01
 -10.700  0.0000E+00  0.0000E+00  0.8000E+01
 -10.690  0.0000E+00  0.0000E+00  0.8000E+01
 -10.680  0.0000E+00  0.0000E+00  0.8000E+01
 -10.670  0.0000E+00  0.0000E+00  0.8000E+01
 -10.660  0.0000E+00  0.0000E+00  0.8000E+01
 -10.650  0.0000E+00  0.0000E+00  0.8000E+01
 -10.640  0.0000E+00  0.0000E+00  0.8000E+01
 -10.630  0.0000E+00  0.0000E+00  0.8000E+01
 -10.620  0.0000E+00  0.0000E+00  0.8000E+01
 -10.610  0.0000E+00  0.0000E+00  0.8000E+01
 -10.600  0.0000E+00  0.0000E+00  0.8000E+01
 -10.590  0.0000E+00  0.0000E+00  0.8000E+01
 -10.580  0.0000E+00  0.0000E+00  0.8000E+01
 -10.570  0.0000E+00  0.0000E+00  0.8000E+01
 -10.560  0.0000E+00  0.0000E+00  0.8000E+01
 -10.550  0.0000E+00  0.0000E+00  0.8000E+01
 -10.540  0.0000E+00  0.0000E+00  0.8000E+01
 -10.530  0.0000E+00  0.0000E+00  0.8000E+01
 -10.520  0.0000E+00  0.0000E+00  0.8000E+01
 -10.510  0.0000E+00  0.0000E+00  0.8000E+01
 -10.500  0.0000E+00  0.0000E+00  0.8000E+01
 -10.490  0.0000E+00  0.0000E+00  0.8000E+01
 -10.480  0.0000E+00  0.0000E+00  0.8000E+01
 -10.470  0.0000E+00  0.0000E+00  0.8000E+01
 -10.460  0.0000E+00  0.0000E+00  0.8000E+01
 -10.450  0.0000E+00  0.0000E+00  0.8000E+01
 -10.440  0.0000E+00  0.0000E+00  0.8000E+01
 -10.430  0.0000E+00  0.0000E+00  0.8000E+01
 -10.420  0.0000E+00  0.0000E+00  0.8000E+01
 -10.410  0.0000E+00  0.0000E+00  0.8000E+01
 -10.400  0.0000E+00  0.0000E+00  0.8000E+01
 -10.390  0.0000E+00  0.0000E+00  0.8000E+01
 -10.380  0.0000E+00  0.0000E+00  0.8000E+01
 -10.370  0.0000E+00  0.0000E+00  0.8000E+01
 -10.360  0.0000E+00  0.0000E+00  0.8000E+01
 -10.350  0.0000E+00  0.0000E+00  0.8000E+01
 -10.340  0.0000E+00  0.0000E+00  0.8000E+01
 -10.330  0.0000E+00  0.0000E+00  0.8000E+01
 -10.320  0.0000E+00  0.0000E+00  0.8000E+01
 -10.310  0.0000E+00  0.0000E+00  0.8000E+01
 -10.300  0.0000E+00  0.0000E+00  0.8000E+01
 -10.290  0.0000E+00  0.0000E+00  0.8000E+01
 -10.280  0.0000E+00  0.0000E+00  0.8000E+01
 -10.270  0.0000E+00  0.0000E+00  0.8000E+01
 -10.260  0.0000E+00  0.0000E+00  0.8000E+01
 -10.250  0.0000E+00  0.0000E+00  0.8000E+01
 -10.240  0.0000E+00  0.0000E+00  0.8000E+01
 -10.230  0.0000E+00  0.0000E+00  0.8000E+01
 -10.220  0.0000E+00  0.0000E+00  0.8000E+01
 -10.210  0.0000E+00  0.0000E+00  0.8000E+01
 -10.200  0.0000E+00  0.0000E+00  0.8000E+01
 -10.190  0.0000E+00  0.0000E+00  0.8000E+01
 -10.180  0.0000E+00  0.0000E+00  0.8000E+01
 -10.170  0.0000E+00  0.0000E+00  0.8000E+01
 -10.160  0.0000E+00  0.0000E+00  0.8000E+01
 -10.150  0.0000E+00  0.0000E+00  0.8000E+01
 -10.140  0.0000E+00  0.0000E+00  0.8000E+01
 -10.130  0.0000E+00  0.0000E+00  0.8000E+01
 -10.120  0.0000E+00  0.0000E+00  0.8000E+01
 -10.110  0.0000E+00  0.0000E+00  0.8000E+01
 -10.100  0.0000E+00  0.0000E+00  0.8000E+01
 -10.090  0.0000E+00  0.0000E+00  0.8000E+01
 -10.080  0.0000E+00  0.0000E+00  0.8000E+01
 -10.070  0.0000E+00  0.0000E+00  0.8000E+01
 -10.060  0.0000E+00  0.0000E+00  0.8000E+01
 -10.050  0.0000E+00  0.0000E+00  0.8000E+01
 -10.040  0.0000E+00  0.0000E+00  0.8000E+01
 -10.030  0.0000E+00  0.0000E+00  0.8000E+01
 -10.020  0.0000E+00  0.0000E+00  0.8000E+01
 -10.010  0.0000E+00  0.0000E+00  0.8000E+01
 -10.000  0.0000E+00  0.0000E+00  0.8000E+01
  -9.990  0.0000E+00  0.0000E+00  0.8000E+01
  -9.980  0.0000E+00  0.0000E+00  0.8000E+01
  -9.970  0.0000E+00  0.0000E+00  0.8000E+01
  -9.960  0.0000E+00  0.0000E+00  0.8000E+01
  -9.950  0.0000E+00  0.0000E+00  0.8000E+01
  -9.940  0.0000E+00  0.0000E+00  0.8000E+01
  -9.930  0.0000E+00  0.0000E+00  0.8000E+01
  -9.920  0.0000E+00  0.0000E+00  0.8000E+01
  -9.910  0.0000E+00  0.0000E+00  0.8000E+01
  -9.900  0.0000E+00  0.0000E+00  0.8000E+01
  -9.890  0.0000E+00  0.0000E+00  0.8000E+01
  -9.880  0.0000E+00  0.0000E+00  0.8000E+01
  -9.870  0.0000E+00  0.0000E+00  0.8000E+01
  -9.860  0.0000E+00  0.0000E+00  0.8000E+01
  -9.850  0.0000E+00  0.0000E+00  0.8000E+01
  -9.840  0.0000E+00  0.0000E+00  0.8000E+01
  -9.830  0.0000E+00  0.0000E+00  0.8000E+01
  -9.820  0.0000E+00  0.0000E+00  0.8000E+01
  -9.810  0.0000E+00  0.0000E+00  0.8000E+01
  -9.800  0.0000E+00  0.0000E+00  0.8000E+01
  -9.790  0.0000E+00  0.0000E+00  0.8000E+01
  -9.780  0.0000E+00  0.0000E+00  0.8000E+01
  -9.770  0.0000E+00  0.0000E+00  0.8000E+01
  -9.760  0.0000E+00  0.0000E+00  0.8000E+01
  -9.750  0.0000E+00  0.0000E+00  0.8000E+01
  -9.740  0.0000E+00  0.0000E+00  0.8000E+01
  -9.730  0.0000E+00  0.0000E+00  0.8000E+01
  -9.720  0.0000E+00  0.0000E+00  0.8000E+01
  -9.710  0.0000E+00  0.0000E+00  0.8000E+01
  -9.700  0.0000E+00  0.0000E+00  0.8000E+01
  -9.690  0.0000E+00  0.0000E+00  0.8000E+01
  -9.680  0.0000E+00  0.0000E+00  0.8000E+01
  -9.670  0.0000E+00  0.0000E+00  0.8000E+01
  -9.660  0.0000E+00  0.0000E+00  0.8000E+01
  -9.650  0.0000E+00  0.0000E+00  0.8000E+01
  -9.640  0.0000E+00  0.0000E+00  0.8000E+01
  -9.630  0.0000E+00  0.0000E+00  0.8000E+01
  -9.620  0.0000E+00  0.0000E+00  0.8000E+01
  -9.610  0.0000E+00  0.0000E+00  0.8000E+01
  -9.600  0.0000E+00  0.0000E+00  0.8000E+01
  -9.590  0.0000E+00  0.0000E+00  0.8000E+01
  -9.580  0.0000E+00  0.0000E+00  0.8000E+01
  -9.570  0.0000E+00  0.0000E+00  0.8000E+01
  -9.560  0.0000E+00  0.0000E+00  0.8000E+01
  -9.550  0.0000E+00  0.0000E+00  0.8000E+01
  -9.540  0.0000E+00  0.0000E+00  0.8000E+01
  -9.530  0.0000E+00  0.0000E+00  0.8000E+01
  -9.520  0.0000E+00  0.0000E+00  0.8000E+01
  -9.510  0.0000E+00  0.0000E+00  0.8000E+01
  -9.500  0.0000E+00  0.0000E+00  0.8000E+01
  -9.490  0.0000E+00  0.0000E+00  0.8000E+01
  -9.480  0.0000E+00  0.0000E+00  0.8000E+01
  -9.470  0.0000E+00  0.0000E+00  0.8000E+01
  -9.460  0.0000E+00  0.0000E+00  0.8000E+01
  -9.450  0.0000E+00  0.0000E+00  0.8000E+01
  -9.440  0.0000E+00  0.0000E+00  0.8000E+01
  -9.430  0.0000E+00  0.0000E+00  0.8000E+01
  -9.420  0.0000E+00  0.0000E+00  0.8000E+01
  -9.410  0.0000E+00  0.0000E+00  0.8000E+01
  -9.400  0.0000E+00  0.0000E+00  0.8000E+01
  -9.390  0.0000E+00  0.0000E+00  0.8000E+01
  -9.380  0.0000E+00  0.0000E+00  0.8000E+01
  -9.370  0.0000E+00  0.0000E+00  0.8000E+01
  -9.360  0.0000E+00  0.0000E+00  0.8000E+01
  -9.350  0.0000E+00  0.0000E+00  0.8000E+01
  -9.340  0.0000E+00  0.0000E+00  0.8000E+01
  -9.330  0.0000E+00  0.0000E+00  0.8000E+01
  -9.320  0.0000E+00  0.0000E+00  0.8000E+01
  -9.310  0.0000E+00  0.0000E+00  0.8000E+01
  -9.300  0.0000E+00  0.0000E+00  0.8000E+01
  -9.290  0.0000E+00  0.0000E+00  0.8000E+01
  -9.280  0.0000E+00  0.0000E+00  0.8000E+01
  -9.270  0.0000E+00  0.0000E+00  0.8000E+01
  -9.260  0.0000E+00  0.0000E+00  0.8000E+01
  -9.250  0.0000E+00  0.0000E+00  0.8000E+01
  -9.240  0.0000E+00  0.0000E+00  0.8000E+01
  -9.230  0.0000E+00  0.0000E+00  0.8000E+01
  -9.220  0.0000E+00  0.0000E+00  0.8000E+01
  -9.210  0.0000E+00  0.0000E+00  0.8000E+01
  -9.200  0.0000E+00  0.0000E+00  0.8000E+01
  -9.190  0.0000E+00  0.0000E+00  0.8000E+01
  -9.180  0.0000E+00  0.0000E+00  0.8000E+01
  -9.170  0.0000E+00  0.0000E+00  0.8000E+01
  -9.160  0.0000E+00  0.0000E+00  0.8000E+01
  -9.150  0.0000E+00  0.0000E+00  0.8000E+01
  -9.140  0.0000E+00  0.0000E+00  0.8000E+01
  -9.130  0.0000E+00  0.0000E+00  0.8000E+01
  -9.120  0.0000E+00  0.0000E+00  0.8000E+01
  -9.110  0.0000E+00  0.0000E+00  0.8000E+01
  -9.100  0.0000E+00  0.0000E+00  0.8000E+01
  -9.090  0.0000E+00  0.0000E+00  0.8000E+01
  -9.080  0.0000E+00  0.0000E+00  0.8000E+01
  -9.070  0.0000E+00  0.0000E+00  0.8000E+01
  -9.060  0.0000E+00  0.0000E+00  0.8000E+01
  -9.050  0.0000E+00  0.0000E+00  0.8000E+01
  -9.040  0.0000E+00  0.0000E+00  0.8000E+01
  -9.030  0.0000E+00  0.0000E+00  0.8000E+01
  -9.020  0.0000E+00  0.0000E+00  0.8000E+01
  -9.010  0.0000E+00  0.0000E+00  0.8000E+01
  -9.000  0.0000E+00  0.0000E+00  0.8000E+01
  -8.990  0.0000E+00  0.0000E+00  0.8000E+01
  -8.980  0.0000E+00  0.0000E+00  0.8000E+01
  -8.970  0.0000E+00  0.0000E+00  0.8000E+01
  -8.960  0.0000E+00  0.0000E+00  0.8000E+01
  -8.950  0.0000E+00  0.0000E+00  0.8000E+01
  -8.940  0.0000E+00  0.0000E+00  0.8000E+01
  -8.930  0.0000E+00  0.0000E+00  0.8000E+01
  -8.920  0.0000E+00  0.0000E+00  0.8000E+01
  -8.910  0.0000E+00  0.0000E+00  0.8000E+01
  -8.900  0.0000E+00  0.0000E+00  0.8000E+01
  -8.890  0.0000E+00  0.0000E+00  0.8000E+01
  -8.880  0.0000E+00  0.0000E+00  0.8000E+01
  -8.870  0.0000E+00  0.0000E+00  0.8000E+01
  -8.860  0.0000E+00  0.0000E+00  0.8000E+01
  -8.850  0.0000E+00  0.0000E+00  0.8000E+01
  -8.840  0.0000E+00  0.0000E+00  0.8000E+01
  -8.830  0.0000E+00  0.0000E+00  0.8000E+01
  -8.820  0.0000E+00  0.0000E+00  0.8000E+01
  -8.810  0.0000E+00  0.0000E+00  0.8000E+01
  -8.800  0.0000E+00  0.0000E+00  0.8000E+01
  -8.790  0.0000E+00  0.0000E+00  0.8000E+01
  -8.780  0.0000E+00  0.0000E+00  0.8000E+01
  -8.770  0.0000E+00  0.0000E+00  0.8000E+01
  -8.760  0.0000E+00  0.0000E+00  0.8000E+01
  -8.750  0.0000E+00  0.0000E+00  0.8000E+01
  -8.740  0.0000E+00  0.0000E+00  0.8000E+01
  -8.730  0.0000E+00  0.0000E+00  0.8000E+01
  -8.720  0.0000E+00  0.0000E+00  0.8000E+01
  -8.710  0.0000E+00  0.0000E+00  0.8000E+01
  -8.700  0.0000E+00  0.0000E+00  0.8000E+01
  -8.690  0.0000E+00  0.0000E+00  0.8000E+01
  -8.680  0.0000E+00  0.0000E+00  0.8000E+01
  -8.670  0.0000E+00  0.0000E+00  0.8000E+01
  -8.660  0.0000E+00  0.0000E+00  0.8000E+01
  -8.650  0.0000E+00  0.0000E+00  0.8000E+01
  -8.640  0.0000E+00  0.0000E+00  0.8000E+01
  -8.630  0.0000E+00  0.0000E+00  0.8000E+01
  -8.620  0.0000E+00  0.0000E+00  0.8000E+01
  -8.610  0.0000E+00  0.0000E+00  0.8000E+01
  -8.600  0.0000E+00  0.0000E+00  0.8000E+01
  -8.590  0.0000E+00  0.0000E+00  0.8000E+01
  -8.580  0.0000E+00  0.0000E+00  0.8000E+01
  -8.570  0.0000E+00  0.0000E+00  0.8000E+01
  -8.560  0.0000E+00  0.0000E+00  0.8000E+01
  -8.550  0.0000E+00  0.0000E+00  0.8000E+01
  -8.540  0.0000E+00  0.0000E+00  0.8000E+01
  -8.530  0.0000E+00  0.0000E+00  0.8000E+01
  -8.520  0.0000E+00  0.0000E+00  0.8000E+01
  -8.510  0.0000E+00  0.0000E+00  0.8000E+01
  -8.500  0.0000E+00  0.0000E+00  0.8000E+01
  -8.490  0.0000E+00  0.0000E+00  0.8000E+01
  -8.480  0.0000E+00  0.0000E+00  0.8000E+01
  -8.470  0.0000E+00  0.0000E+00  0.8000E+01
  -8.460  0.0000E+00  0.0000E+00  0.8000E+01
  -8.450  0.0000E+00  0.0000E+00  0.8000E+01
  -8.440  0.0000E+00  0.0000E+00  0.8000E+01
  -8.430  0.0000E+00  0.0000E+00  0.8000E+01
  -8.420  0.0000E+00  0.0000E+00  0.8000E+01
  -8.410  0.0000E+00  0.0000E+00  0.8000E+01
  -8.400  0.0000E+00  0.0000E+00  0.8000E+01
  -8.390  0.0000E+00  0.0000E+00  0.8000E+01
  -8.380  0.0000E+00  0.0000E+00  0.8000E+01
  -8.370  0.0000E+00  0.0000E+00  0.8000E+01
  -8.360  0.0000E+00  0.0000E+00  0.8000E+01
  -8.350  0.0000E+00  0.0000E+00  0.8000E+01
  -8.340  0.0000E+00  0.0000E+00  0.8000E+01
  -8.330  0.0000E+00  0.0000E+00  0.8000E+01
  -8.320  0.0000E+00  0.0000E+00  0.8000E+01
  -8.310  0.0000E+00  0.0000E+00  0.8000E+01
  -8.300  0.0000E+00  0.0000E+00  0.8000E+01
  -8.290  0.0000E+00  0.0000E+00  0.8000E+01
  -8.280  0.0000E+00  0.0000E+00  0.8000E+01
  -8.270  0.0000E+00  0.0000E+00  0.8000E+01
  -8.260  0.0000E+00  0.0000E+00  0.8000E+01
  -8.250  0.0000E+00  0.0000E+00  0.8000E+01
  -8.240  0.0000E+00  0.0000E+00  0.8000E+01
  -8.230  0.0000E+00  0.0000E+00  0.8000E+01
  -8.220  0.0000E+00  0.0000E+00  0.8000E+01
  -8.210  0.0000E+00  0.0000E+00  0.8000E+01
  -8.200  0.0000E+00  0.0000E+00  0.8000E+01
  -8.190  0.0000E+00  0.0000E+00  0.8000E+01
  -8.180  0.0000E+00  0.0000E+00  0.8000E+01
  -8.170  0.0000E+00  0.0000E+00  0.8000E+01
  -8.160  0.0000E+00  0.0000E+00  0.8000E+01
  -8.150  0.0000E+00  0.0000E+00  0.8000E+01
  -8.140  0.0000E+00  0.0000E+00  0.8000E+01
  -8.130  0.0000E+00  0.0000E+00  0.8000E+01
  -8.120  0.0000E+00  0.0000E+00  0.8000E+01
  -8.110  0.0000E+00  0.0000E+00  0.8000E+01
  -8.100  0.0000E+00  0.0000E+00  0.8000E+01
  -8.090  0.0000E+00  0.0000E+00  0.8000E+01
  -8.080  0.0000E+00  0.0000E+00  0.8000E+01
  -8.070  0.0000E+00  0.0000E+00  0.8000E+01
  -8.060  0.0000E+00  0.0000E+00  0.8000E+01
  -8.050  0.0000E+00  0.0000E+00  0.8000E+01
  -8.040  0.0000E+00  0.0000E+00  0.8000E+01
  -8.030  0.0000E+00  0.0000E+00  0.8000E+01
  -8.020  0.0000E+00  0.0000E+00  0.8000E+01
  -8.010  0.0000E+00  0.0000E+00  0.8000E+01
  -8.000  0.0000E+00  0.0000E+00  0.8000E+01
  -7.990  0.0000E+00  0.0000E+00  0.8000E+01
  -7.980  0.0000E+00  0.0000E+00  0.8000E+01
  -7.970  0.0000E+00  0.0000E+00  0.8000E+01
  -7.960  0.0000E+00  0.0000E+00  0.8000E+01
  -7.950  0.0000E+00  0.0000E+00  0.8000E+01
  -7.940  0.0000E+00  0.0000E+00  0.8000E+01
  -7.930  0.0000E+00  0.0000E+00  0.8000E+01
  -7.920  0.0000E+00  0.0000E+00  0.8000E+01
  -7.910  0.0000E+00  0.0000E+00  0.8000E+01
  -7.900  0.0000E+00  0.0000E+00  0.8000E+01
  -7.890  0.0000E+00  0.0000E+00  0.8000E+01
  -7.880  0.0000E+00  0.0000E+00  0.8000E+01
  -7.870  0.0000E+00  0.0000E+00  0.8000E+01
  -7.860  0.0000E+00  0.0000E+00  0.8000E+01
  -7.850  0.0000E+00  0.0000E+00  0.8000E+01
  -7.840  0.0000E+00  0.0000E+00  0.8000E+01
  -7.830  0.0000E+00  0.0000E+00  0.8000E+01
  -7.820  0.0000E+00  0.0000E+00  0.8000E+01
  -7.810  0.0000E+00  0.0000E+00  0.8000E+01
  -7.800  0.0000E+00  0.0000E+00  0.8000E+01
  -7.790  0.0000E+00  0.0000E+00  0.8000E+01
  -7.780  0.0000E+00  0.0000E+00  0.8000E+01
  -7.770  0.0000E+00  0.0000E+00  0.8000E+01
  -7.760  0.0000E+00  0.0000E+00  0.8000E+01
  -7.750  0.0000E+00  0.0000E+00  0.8000E+01
  -7.740  0.0000E+00  0.0000E+00  0.8000E+01
  -7.730  0.0000E+00  0.0000E+00  0.8000E+01
  -7.720  0.0000E+00  0.0000E+00  0.8000E+01
  -7.710  0.0000E+00  0.0000E+00  0.8000E+01
  -7.700  0.0000E+00  0.0000E+00  0.8000E+01
  -7.690  0.0000E+00  0.0000E+00  0.8000E+01
  -7.680  0.0000E+00  0.0000E+00  0.8000E+01
  -7.670  0.0000E+00  0.0000E+00  0.8000E+01
  -7.660  0.0000E+00  0.0000E+00  0.8000E+01
  -7.650  0.0000E+00  0.0000E+00  0.8000E+01
  -7.640  0.1522E-03  0.0000E+00  0.8000E+01
  -7.630  0.3414E-01  0.1745E-01  0.8000E+01
  -7.620  0.3210E+00  0.2259E+00  0.8003E+01
  -7.610  0.9573E+00  0.7866E+00  0.8013E+01
  -7.600  0.1852E+01  0.1667E+01  0.8040E+01
  -7.590  0.2537E+01  0.2430E+01  0.8083E+01
  -7.580  0.2930E+01  0.2879E+01  0.8137E+01
  -7.570  0.3138E+01  0.3133E+01  0.8198E+01
  -7.560  0.3331E+01  0.3326E+01  0.8262E+01
  -7.550  0.3563E+01  0.3575E+01  0.8331E+01
  -7.540  0.3826E+01  0.3816E+01  0.8405E+01
  -7.530  0.4322E+01  0.4284E+01  0.8486E+01
  -7.520  0.5069E+01  0.5041E+01  0.8579E+01
  -7.510  0.5878E+01  0.5842E+01  0.8687E+01
  -7.500  0.6540E+01  0.6571E+01  0.8812E+01
  -7.490  0.6582E+01  0.6667E+01  0.8945E+01
  -7.480  0.6051E+01  0.6165E+01  0.9073E+01
  -7.470  0.5374E+01  0.5473E+01  0.9189E+01
  -7.460  0.5010E+01  0.5069E+01  0.9292E+01
  -7.450  0.5078E+01  0.5031E+01  0.9392E+01
  -7.440  0.5280E+01  0.5145E+01  0.9495E+01
  -7.430  0.6169E+01  0.5682E+01  0.9604E+01
  -7.420  0.7541E+01  0.7073E+01  0.9737E+01
  -7.410  0.9020E+01  0.8537E+01  0.9897E+01
  -7.400  0.1025E+02  0.1004E+02  0.1009E+02
  -7.390  0.1031E+02  0.1035E+02  0.1029E+02
  -7.380  0.1014E+02  0.1028E+02  0.1050E+02
  -7.370  0.9802E+01  0.9986E+01  0.1070E+02
  -7.360  0.9374E+01  0.9587E+01  0.1089E+02
  -7.350  0.8700E+01  0.8931E+01  0.1108E+02
  -7.340  0.7724E+01  0.7949E+01  0.1125E+02
  -7.330  0.6892E+01  0.7036E+01  0.1139E+02
  -7.320  0.6462E+01  0.6514E+01  0.1153E+02
  -7.310  0.7025E+01  0.6948E+01  0.1166E+02
  -7.300  0.1025E+02  0.1164E+02  0.1184E+02
  -7.290  0.9503E+01  0.9775E+01  0.1204E+02
  -7.280  0.7157E+01  0.7361E+01  0.1221E+02
  -7.270  0.8833E+01  0.8435E+01  0.1237E+02
  -7.260  0.1092E+02  0.1035E+02  0.1256E+02
  -7.250  0.1379E+02  0.1328E+02  0.1280E+02
  -7.240  0.1620E+02  0.1614E+02  0.1310E+02
  -7.230  0.1399E+02  0.1415E+02  0.1342E+02
  -7.220  0.1187E+02  0.1217E+02  0.1368E+02
  -7.210  0.1055E+02  0.1076E+02  0.1391E+02
  -7.200  0.9934E+01  0.9998E+01  0.1411E+02
  -7.190  0.1032E+02  0.1031E+02  0.1432E+02
  -7.180  0.1099E+02  0.1099E+02  0.1453E+02
  -7.170  0.1285E+02  0.1293E+02  0.1477E+02
  -7.160  0.1311E+02  0.1276E+02  0.1503E+02
  -7.150  0.1226E+02  0.1231E+02  0.1529E+02
  -7.140  0.1199E+02  0.1193E+02  0.1553E+02
  -7.130  0.1334E+02  0.1211E+02  0.1578E+02
  -7.120  0.1452E+02  0.1385E+02  0.1605E+02
  -7.110  0.1385E+02  0.1435E+02  0.1633E+02
  -7.100  0.1524E+02  0.1496E+02  0.1662E+02
  -7.090  0.2044E+02  0.1882E+02  0.1696E+02
  -7.080  0.2221E+02  0.2397E+02  0.1740E+02
  -7.070  0.2181E+02  0.2125E+02  0.1782E+02
  -7.060  0.2254E+02  0.2258E+02  0.1832E+02
  -7.050  0.1859E+02  0.2012E+02  0.1874E+02
  -7.040  0.1378E+02  0.1422E+02  0.1907E+02
  -7.030  0.1543E+02  0.1515E+02  0.1935E+02
  -7.020  0.2193E+02  0.2351E+02  0.1974E+02
  -7.010  0.1497E+02  0.1501E+02  0.2009E+02
  -7.000  0.1575E+02  0.1253E+02  0.2036E+02
  -6.990  0.1680E+02  0.1580E+02  0.2067E+02
  -6.980  0.1998E+02  0.1904E+02  0.2103E+02
  -6.970  0.2209E+02  0.2320E+02  0.2146E+02
  -6.960  0.1978E+02  0.2102E+02  0.2189E+02
  -6.950  0.1910E+02  0.1905E+02  0.2228E+02
  -6.940  0.2670E+02  0.2545E+02  0.2277E+02
  -6.930  0.2167E+02  0.2258E+02  0.2324E+02
  -6.920  0.1775E+02  0.1979E+02  0.2365E+02
  -6.910  0.1814E+02  0.1798E+02  0.2400E+02
  -6.900  0.4719E+02  0.3898E+02  0.2454E+02
  -6.890  0.3536E+02  0.2744E+02  0.2535E+02
  -6.880  0.3037E+02  0.2893E+02  0.2596E+02
  -6.870  0.2494E+02  0.3224E+02  0.2655E+02
  -6.860  0.1949E+02  0.2178E+02  0.2702E+02
  -6.850  0.2087E+02  0.1898E+02  0.2742E+02
  -6.840  0.2771E+02  0.2449E+02  0.2786E+02
  -6.830  0.3311E+02  0.3832E+02  0.2850E+02
  -6.820  0.2196E+02  0.2619E+02  0.2911E+02
  -6.810  0.5907E+02  0.3318E+02  0.2961E+02
  -6.800  0.3980E+02  0.4554E+02  0.3077E+02
  -6.790  0.3629E+02  0.3290E+02  0.3151E+02
  -6.780  0.4306E+02  0.4281E+02  0.3230E+02
  -6.770  0.4645E+02  0.4262E+02  0.3316E+02
  -6.760  0.3209E+02  0.3358E+02  0.3393E+02
  -6.750  0.2726E+02  0.2794E+02  0.3453E+02
  -6.740  0.2647E+02  0.2445E+02  0.3505E+02
  -6.730  0.2815E+02  0.2626E+02  0.3556E+02
  -6.720  0.3466E+02  0.3362E+02  0.3619E+02
  -6.710  0.3939E+02  0.3758E+02  0.3692E+02
  -6.700  0.4268E+02  0.4148E+02  0.3772E+02
  -6.690  0.5245E+02  0.5242E+02  0.3866E+02
  -6.680  0.6583E+02  0.7442E+02  0.3990E+02
  -6.670  0.4529E+02  0.4483E+02  0.4111E+02
  -6.660  0.4770E+02  0.4300E+02  0.4195E+02
  -6.650  0.4420E+02  0.4650E+02  0.4296E+02
  -6.640  0.4975E+02  0.4684E+02  0.4383E+02
  -6.630  0.7375E+02  0.7449E+02  0.4501E+02
  -6.620  0.5052E+02  0.4938E+02  0.4613E+02
  -6.610  0.6142E+02  0.6804E+02  0.4728E+02
  -6.600  0.3593E+02  0.3571E+02  0.4821E+02
  -6.590  0.4449E+02  0.4028E+02  0.4897E+02
  -6.580  0.6214E+02  0.4086E+02  0.4991E+02
  -6.570  0.3607E+02  0.4049E+02  0.5082E+02
  -6.560  0.2530E+02  0.3591E+02  0.5151E+02
  -6.550  0.7947E+01  0.1774E+02  0.5197E+02
  -6.540  0.3712E+02  0.1311E+02  0.5230E+02
  -6.530  0.6278E+02  0.2117E+02  0.5294E+02
  -6.520  0.7872E+02  0.1045E+03  0.5431E+02
  -6.510  0.6003E+02  0.5753E+02  0.5584E+02
  -6.500  0.8900E+02  0.4102E+02  0.5695E+02
  -6.490  0.3281E+02  0.7839E+02  0.5812E+02
  -6.480  0.5009E+02  0.4122E+02  0.5904E+02
  -6.470  0.4908E+02  0.5484E+02  0.6010E+02
  -6.460  0.5050E+02  0.4705E+02  0.6111E+02
  -6.450  0.4604E+02  0.4733E+02  0.6209E+02
  -6.440  0.4346E+02  0.4057E+02  0.6297E+02
  -6.430  0.5089E+02  0.3348E+02  0.6377E+02
  -6.420  0.5044E+02  0.3631E+02  0.6461E+02
  -6.410  0.4029E+02  0.4563E+02  0.6552E+02
  -6.400  0.3833E+02  0.4157E+02  0.6634E+02
  -6.390  0.3554E+02  0.3352E+02  0.6712E+02
  -6.380  0.3516E+02  0.3078E+02  0.6778E+02
  -6.370  0.2961E+02  0.2826E+02  0.6840E+02
  -6.360  0.2499E+02  0.3077E+02  0.6894E+02
  -6.350  0.1056E+02  0.3231E+02  0.6946E+02
  -6.340  0.0000E+00  0.2556E+02  0.6976E+02
  -6.330  0.0000E+00  0.1160E+02  0.6996E+02
  -6.320  0.0000E+00  0.2285E-02  0.7000E+02
  -6.310  0.0000E+00  0.0000E+00  0.7000E+02
  -6.300  0.0000E+00  0.0000E+00  0.7000E+02
  -6.290  0.0000E+00  0.0000E+00  0.7000E+02
  -6.280  0.0000E+00  0.0000E+00  0.7000E+02
  -6.270  0.0000E+00  0.0000E+00  0.7000E+02
  -6.260  0.0000E+00  0.0000E+00  0.7000E+02
  -6.250  0.0000E+00  0.0000E+00  0.7000E+02
  -6.240  0.0000E+00  0.0000E+00  0.7000E+02
  -6.230  0.0000E+00  0.0000E+00  0.7000E+02
  -6.220  0.0000E+00  0.0000E+00  0.7000E+02
  -6.210  0.0000E+00  0.0000E+00  0.7000E+02
  -6.200  0.0000E+00  0.0000E+00  0.7000E+02
  -6.190  0.0000E+00  0.0000E+00  0.7000E+02
  -6.180  0.0000E+00  0.0000E+00  0.7000E+02
  -6.170  0.0000E+00  0.0000E+00  0.7000E+02
  -6.160  0.0000E+00  0.0000E+00  0.7000E+02
  -6.150  0.0000E+00  0.0000E+00  0.7000E+02
  -6.140  0.0000E+00  0.0000E+00  0.7000E+02
  -6.130  0.0000E+00  0.0000E+00  0.7000E+02
  -6.120  0.0000E+00  0.0000E+00  0.7000E+02
  -6.110  0.0000E+00  0.0000E+00  0.7000E+02
  -6.100  0.0000E+00  0.0000E+00  0.7000E+02
  -6.090  0.0000E+00  0.0000E+00  0.7000E+02
  -6.080  0.0000E+00  0.0000E+00  0.7000E+02
  -6.070  0.0000E+00  0.0000E+00  0.7000E+02
  -6.060  0.0000E+00  0.0000E+00  0.7000E+02
  -6.050  0.0000E+00  0.0000E+00  0.7000E+02
  -6.040  0.0000E+00  0.0000E+00  0.7000E+02
  -6.030  0.0000E+00  0.0000E+00  0.7000E+02
  -6.020  0.0000E+00  0.0000E+00  0.7000E+02
  -6.010  0.0000E+00  0.0000E+00  0.7000E+02
  -6.000  0.0000E+00  0.0000E+00  0.7000E+02
  -5.990  0.0000E+00  0.0000E+00  0.7000E+02
  -5.980  0.0000E+00  0.0000E+00  0.7000E+02
  -5.970  0.0000E+00  0.0000E+00  0.7000E+02
  -5.960  0.0000E+00  0.0000E+00  0.7000E+02
  -5.950  0.0000E+00  0.0000E+00  0.7000E+02
  -5.940  0.0000E+00  0.0000E+00  0.7000E+02
  -5.930  0.0000E+00  0.0000E+00  0.7000E+02
  -5.920  0.0000E+00  0.0000E+00  0.7000E+02
  -5.910  0.0000E+00  0.0000E+00  0.7000E+02
  -5.900  0.0000E+00  0.0000E+00  0.7000E+02
  -5.890  0.0000E+00  0.0000E+00  0.7000E+02
  -5.880  0.0000E+00  0.0000E+00  0.7000E+02
  -5.870  0.0000E+00  0.0000E+00  0.7000E+02
  -5.860  0.0000E+00  0.0000E+00  0.7000E+02
  -5.850  0.0000E+00  0.0000E+00  0.7000E+02
  -5.840  0.0000E+00  0.0000E+00  0.7000E+02
  -5.830  0.0000E+00  0.0000E+00  0.7000E+02
  -5.820  0.0000E+00  0.0000E+00  0.7000E+02
  -5.810  0.0000E+00  0.0000E+00  0.7000E+02
  -5.800  0.0000E+00  0.0000E+00  0.7000E+02
  -5.790  0.0000E+00  0.0000E+00  0.7000E+02
  -5.780  0.0000E+00  0.0000E+00  0.7000E+02
  -5.770  0.0000E+00  0.0000E+00  0.7000E+02
  -5.760  0.0000E+00  0.0000E+00  0.7000E+02
  -5.750  0.0000E+00  0.0000E+00  0.7000E+02
  -5.740  0.0000E+00  0.0000E+00  0.7000E+02
  -5.730  0.0000E+00  0.0000E+00  0.7000E+02
  -5.720  0.0000E+00  0.0000E+00  0.7000E+02
  -5.710  0.0000E+00  0.0000E+00  0.7000E+02
  -5.700  0.0000E+00  0.0000E+00  0.7000E+02
  -5.690  0.0000E+00  0.0000E+00  0.7000E+02
  -5.680  0.0000E+00  0.0000E+00  0.7000E+02
  -5.670  0.0000E+00  0.0000E+00  0.7000E+02
  -5.660  0.0000E+00  0.0000E+00  0.7000E+02
  -5.650  0.0000E+00  0.0000E+00  0.7000E+02
  -5.640  0.0000E+00  0.0000E+00  0.7000E+02
  -5.630  0.0000E+00  0.0000E+00  0.7000E+02
  -5.620  0.0000E+00  0.0000E+00  0.7000E+02
  -5.610  0.0000E+00  0.0000E+00  0.7000E+02
  -5.600  0.0000E+00  0.0000E+00  0.7000E+02
  -5.590  0.0000E+00  0.0000E+00  0.7000E+02
  -5.580  0.0000E+00  0.0000E+00  0.7000E+02
  -5.570  0.0000E+00  0.0000E+00  0.7000E+02
  -5.560  0.0000E+00  0.0000E+00  0.7000E+02
  -5.550  0.0000E+00  0.0000E+00  0.7000E+02
  -5.540  0.0000E+00  0.0000E+00  0.7000E+02
  -5.530  0.0000E+00  0.0000E+00  0.7000E+02
  -5.520  0.0000E+00  0.0000E+00  0.7000E+02
  -5.510  0.0000E+00  0.0000E+00  0.7000E+02
  -5.500  0.0000E+00  0.0000E+00  0.7000E+02
  -5.490  0.0000E+00  0.0000E+00  0.7000E+02
  -5.480  0.0000E+00  0.0000E+00  0.7000E+02
  -5.470  0.0000E+00  0.0000E+00  0.7000E+02
  -5.460  0.0000E+00  0.0000E+00  0.7000E+02
  -5.450  0.0000E+00  0.0000E+00  0.7000E+02
  -5.440  0.0000E+00  0.0000E+00  0.7000E+02
  -5.430  0.0000E+00  0.0000E+00  0.7000E+02
  -5.420  0.0000E+00  0.0000E+00  0.7000E+02
  -5.410  0.0000E+00  0.0000E+00  0.7000E+02
  -5.400  0.0000E+00  0.0000E+00  0.7000E+02
  -5.390  0.0000E+00  0.0000E+00  0.7000E+02
  -5.380  0.0000E+00  0.0000E+00  0.7000E+02
  -5.370  0.0000E+00  0.0000E+00  0.7000E+02
  -5.360  0.0000E+00  0.0000E+00  0.7000E+02
  -5.350  0.0000E+00  0.0000E+00  0.7000E+02
  -5.340  0.0000E+00  0.0000E+00  0.7000E+02
  -5.330  0.0000E+00  0.0000E+00  0.7000E+02
  -5.320  0.0000E+00  0.0000E+00  0.7000E+02
  -5.310  0.0000E+00  0.0000E+00  0.7000E+02
  -5.300  0.0000E+00  0.0000E+00  0.7000E+02
  -5.290  0.0000E+00  0.0000E+00  0.7000E+02
  -5.280  0.0000E+00  0.0000E+00  0.7000E+02
  -5.270  0.0000E+00  0.0000E+00  0.7000E+02
  -5.260  0.0000E+00  0.0000E+00  0.7000E+02
  -5.250  0.0000E+00  0.0000E+00  0.7000E+02
  -5.240  0.0000E+00  0.0000E+00  0.7000E+02
  -5.230  0.0000E+00  0.0000E+00  0.7000E+02
  -5.220  0.0000E+00  0.0000E+00  0.7000E+02
  -5.210  0.0000E+00  0.0000E+00  0.7000E+02
  -5.200  0.0000E+00  0.0000E+00  0.7000E+02
  -5.190  0.0000E+00  0.0000E+00  0.7000E+02
  -5.180  0.0000E+00  0.0000E+00  0.7000E+02
  -5.170  0.0000E+00  0.0000E+00  0.7000E+02
  -5.160  0.0000E+00  0.0000E+00  0.7000E+02
  -5.150  0.0000E+00  0.0000E+00  0.7000E+02
  -5.140  0.0000E+00  0.0000E+00  0.7000E+02
  -5.130  0.0000E+00  0.0000E+00  0.7000E+02
  -5.120  0.0000E+00  0.0000E+00  0.7000E+02
  -5.110  0.0000E+00  0.0000E+00  0.7000E+02
  -5.100  0.0000E+00  0.0000E+00  0.7000E+02
  -5.090  0.0000E+00  0.0000E+00  0.7000E+02
  -5.080  0.0000E+00  0.0000E+00  0.7000E+02
  -5.070  0.0000E+00  0.0000E+00  0.7000E+02
  -5.060  0.0000E+00  0.0000E+00  0.7000E+02
  -5.050  0.0000E+00  0.0000E+00  0.7000E+02
  -5.040  0.0000E+00  0.0000E+00  0.7000E+02
  -5.030  0.0000E+00  0.0000E+00  0.7000E+02
  -5.020  0.0000E+00  0.0000E+00  0.7000E+02
  -5.010  0.0000E+00  0.0000E+00  0.7000E+02
  -5.000  0.0000E+00  0.0000E+00  0.7000E+02
  -4.990  0.0000E+00  0.0000E+00  0.7000E+02
  -4.980  0.0000E+00  0.0000E+00  0.7000E+02
  -4.970  0.0000E+00  0.0000E+00  0.7000E+02
  -4.960  0.0000E+00  0.0000E+00  0.7000E+02
  -4.950  0.0000E+00  0.0000E+00  0.7000E+02
  -4.940  0.0000E+00  0.0000E+00  0.7000E+02
  -4.930  0.0000E+00  0.0000E+00  0.7000E+02
  -4.920  0.0000E+00  0.0000E+00  0.7000E+02
  -4.910  0.0000E+00  0.0000E+00  0.7000E+02
  -4.900  0.0000E+00  0.0000E+00  0.7000E+02
  -4.890  0.0000E+00  0.0000E+00  0.7000E+02
  -4.880  0.0000E+00  0.0000E+00  0.7000E+02
  -4.870  0.0000E+00  0.0000E+00  0.7000E+02
  -4.860  0.0000E+00  0.0000E+00  0.7000E+02
  -4.850  0.0000E+00  0.0000E+00  0.7000E+02
  -4.840  0.0000E+00  0.0000E+00  0.7000E+02
  -4.830  0.0000E+00  0.0000E+00  0.7000E+02
  -4.820  0.0000E+00  0.0000E+00  0.7000E+02
  -4.810  0.0000E+00  0.0000E+00  0.7000E+02
  -4.800  0.0000E+00  0.0000E+00  0.7000E+02
  -4.790  0.0000E+00  0.0000E+00  0.7000E+02
  -4.780  0.0000E+00  0.0000E+00  0.7000E+02
  -4.770  0.0000E+00  0.0000E+00  0.7000E+02
  -4.760  0.0000E+00  0.0000E+00  0.7000E+02
  -4.750  0.0000E+00  0.0000E+00  0.7000E+02
  -4.740  0.0000E+00  0.0000E+00  0.7000E+02
  -4.730  0.0000E+00  0.0000E+00  0.7000E+02
  -4.720  0.0000E+00  0.0000E+00  0.7000E+02
  -4.710  0.0000E+00  0.0000E+00  0.7000E+02
  -4.700  0.0000E+00  0.0000E+00  0.7000E+02
  -4.690  0.0000E+00  0.0000E+00  0.7000E+02
  -4.680  0.0000E+00  0.0000E+00  0.7000E+02
  -4.670  0.0000E+00  0.0000E+00  0.7000E+02
  -4.660  0.0000E+00  0.0000E+00  0.7000E+02
  -4.650  0.0000E+00  0.0000E+00  0.7000E+02
  -4.640  0.0000E+00  0.0000E+00  0.7000E+02
  -4.630  0.0000E+00  0.0000E+00  0.7000E+02
  -4.620  0.0000E+00  0.0000E+00  0.7000E+02
  -4.610  0.0000E+00  0.0000E+00  0.7000E+02
  -4.600  0.0000E+00  0.0000E+00  0.7000E+02
  -4.590  0.0000E+00  0.0000E+00  0.7000E+02
  -4.580  0.0000E+00  0.0000E+00  0.7000E+02
  -4.570  0.0000E+00  0.0000E+00  0.7000E+02
  -4.560  0.0000E+00  0.0000E+00  0.7000E+02
  -4.550  0.0000E+00  0.0000E+00  0.7000E+02
  -4.540  0.0000E+00  0.0000E+00  0.7000E+02
  -4.530  0.0000E+00  0.0000E+00  0.7000E+02
  -4.520  0.0000E+00  0.0000E+00  0.7000E+02
  -4.510  0.0000E+00  0.0000E+00  0.7000E+02
  -4.500  0.0000E+00  0.0000E+00  0.7000E+02
  -4.490  0.0000E+00  0.0000E+00  0.7000E+02
  -4.480  0.0000E+00  0.0000E+00  0.7000E+02
  -4.470  0.0000E+00  0.0000E+00  0.7000E+02
  -4.460  0.0000E+00  0.0000E+00  0.7000E+02
  -4.450  0.0000E+00  0.0000E+00  0.7000E+02
  -4.440  0.0000E+00  0.0000E+00  0.7000E+02
  -4.430  0.0000E+00  0.0000E+00  0.7000E+02
  -4.420  0.0000E+00  0.0000E+00  0.7000E+02
  -4.410  0.0000E+00  0.0000E+00  0.7000E+02
  -4.400  0.0000E+00  0.0000E+00  0.7000E+02
  -4.390  0.0000E+00  0.0000E+00  0.7000E+02
  -4.380  0.0000E+00  0.0000E+00  0.7000E+02
  -4.370  0.0000E+00  0.0000E+00  0.7000E+02
  -4.360  0.0000E+00  0.0000E+00  0.7000E+02
  -4.350  0.0000E+00  0.0000E+00  0.7000E+02
  -4.340  0.0000E+00  0.0000E+00  0.7000E+02
  -4.330  0.0000E+00  0.0000E+00  0.7000E+02
  -4.320  0.0000E+00  0.0000E+00  0.7000E+02
  -4.310  0.0000E+00  0.0000E+00  0.7000E+02
  -4.300  0.0000E+00  0.0000E+00  0.7000E+02
  -4.290  0.0000E+00  0.0000E+00  0.7000E+02
  -4.280  0.0000E+00  0.0000E+00  0.7000E+02
  -4.270  0.0000E+00  0.0000E+00  0.7000E+02
  -4.260  0.0000E+00  0.0000E+00  0.7000E+02
  -4.250  0.0000E+00  0.0000E+00  0.7000E+02
  -4.240  0.0000E+00  0.0000E+00  0.7000E+02
  -4.230  0.0000E+00  0.0000E+00  0.7000E+02
  -4.220  0.0000E+00  0.0000E+00  0.7000E+02
  -4.210  0.0000E+00  0.0000E+00  0.7000E+02
  -4.200  0.0000E+00  0.0000E+00  0.7000E+02
  -4.190  0.0000E+00  0.0000E+00  0.7000E+02
  -4.180  0.0000E+00  0.0000E+00  0.7000E+02
  -4.170  0.0000E+00  0.0000E+00  0.7000E+02
  -4.160  0.0000E+00  0.0000E+00  0.7000E+02
  -4.150  0.0000E+00  0.0000E+00  0.7000E+02
  -4.140  0.0000E+00  0.0000E+00  0.7000E+02
  -4.130  0.0000E+00  0.0000E+00  0.7000E+02
  -4.120  0.0000E+00  0.0000E+00  0.7000E+02
  -4.110  0.0000E+00  0.0000E+00  0.7000E+02
  -4.100  0.0000E+00  0.0000E+00  0.7000E+02
  -4.090  0.0000E+00  0.0000E+00  0.7000E+02
  -4.080  0.0000E+00  0.0000E+00  0.7000E+02
  -4.070  0.0000E+00  0.0000E+00  0.7000E+02
  -4.060  0.0000E+00  0.0000E+00  0.7000E+02
  -4.050  0.0000E+00  0.0000E+00  0.7000E+02
  -4.040  0.0000E+00  0.0000E+00  0.7000E+02
  -4.030  0.0000E+00  0.0000E+00  0.7000E+02
  -4.020  0.0000E+00  0.0000E+00  0.7000E+02
  -4.010  0.0000E+00  0.0000E+00  0.7000E+02
  -4.000  0.0000E+00  0.0000E+00  0.7000E+02
  -3.990  0.0000E+00  0.0000E+00  0.7000E+02
  -3.980  0.0000E+00  0.0000E+00  0.7000E+02
  -3.970  0.0000E+00  0.0000E+00  0.7000E+02
  -3.960  0.0000E+00  0.0000E+00  0.7000E+02
  -3.950  0.0000E+00  0.0000E+00  0.7000E+02
  -3.940  0.0000E+00  0.0000E+00  0.7000E+02
  -3.930  0.0000E+00  0.0000E+00  0.7000E+02
  -3.920  0.0000E+00  0.0000E+00  0.7000E+02
  -3.910  0.0000E+00  0.0000E+00  0.7000E+02
  -3.900  0.0000E+00  0.0000E+00  0.7000E+02
  -3.890  0.0000E+00  0.0000E+00  0.7000E+02
  -3.880  0.0000E+00  0.0000E+00  0.7000E+02
  -3.870  0.0000E+00  0.0000E+00  0.7000E+02
  -3.860  0.0000E+00  0.0000E+00  0.7000E+02
  -3.850  0.0000E+00  0.0000E+00  0.7000E+02
  -3.840  0.0000E+00  0.0000E+00  0.7000E+02
  -3.830  0.0000E+00  0.0000E+00  0.7000E+02
  -3.820  0.0000E+00  0.0000E+00  0.7000E+02
  -3.810  0.0000E+00  0.0000E+00  0.7000E+02
  -3.800  0.0000E+00  0.0000E+00  0.7000E+02
  -3.790  0.0000E+00  0.0000E+00  0.7000E+02
  -3.780  0.0000E+00  0.0000E+00  0.7000E+02
  -3.770  0.0000E+00  0.0000E+00  0.7000E+02
  -3.760  0.0000E+00  0.0000E+00  0.7000E+02
  -3.750  0.0000E+00  0.0000E+00  0.7000E+02
  -3.740  0.0000E+00  0.0000E+00  0.7000E+02
  -3.730  0.0000E+00  0.0000E+00  0.7000E+02
  -3.720  0.0000E+00  0.0000E+00  0.7000E+02
  -3.710  0.0000E+00  0.0000E+00  0.7000E+02
  -3.700  0.0000E+00  0.0000E+00  0.7000E+02
  -3.690  0.0000E+00  0.0000E+00  0.7000E+02
  -3.680  0.0000E+00  0.0000E+00  0.7000E+02
  -3.670  0.0000E+00  0.0000E+00  0.7000E+02
  -3.660  0.0000E+00  0.0000E+00  0.7000E+02
  -3.650  0.0000E+00  0.0000E+00  0.7000E+02
  -3.640  0.0000E+00  0.0000E+00  0.7000E+02
  -3.630  0.0000E+00  0.0000E+00  0.7000E+02
  -3.620  0.0000E+00  0.0000E+00  0.7000E+02
  -3.610  0.0000E+00  0.0000E+00  0.7000E+02
  -3.600  0.0000E+00  0.0000E+00  0.7000E+02
  -3.590  0.0000E+00  0.0000E+00  0.7000E+02
  -3.580  0.0000E+00  0.0000E+00  0.7000E+02
  -3.570  0.0000E+00  0.0000E+00  0.7000E+02
  -3.560  0.0000E+00  0.0000E+00  0.7000E+02
  -3.550  0.0000E+00  0.0000E+00  0.7000E+02
  -3.540  0.0000E+00  0.0000E+00  0.7000E+02
  -3.530  0.0000E+00  0.0000E+00  0.7000E+02
  -3.520  0.0000E+00  0.0000E+00  0.7000E+02
  -3.510  0.0000E+00  0.0000E+00  0.7000E+02
  -3.500  0.0000E+00  0.0000E+00  0.7000E+02
  -3.490  0.0000E+00  0.0000E+00  0.7000E+02
  -3.480  0.0000E+00  0.0000E+00  0.7000E+02
  -3.470  0.0000E+00  0.0000E+00  0.7000E+02
  -3.460  0.0000E+00  0.0000E+00  0.7000E+02
  -3.450  0.0000E+00  0.0000E+00  0.7000E+02
  -3.440  0.0000E+00  0.0000E+00  0.7000E+02
  -3.430  0.0000E+00  0.0000E+00  0.7000E+02
  -3.420  0.0000E+00  0.0000E+00  0.7000E+02
  -3.410  0.0000E+00  0.0000E+00  0.7000E+02
  -3.400  0.0000E+00  0.0000E+00  0.7000E+02
  -3.390  0.0000E+00  0.0000E+00  0.7000E+02
  -3.380  0.0000E+00  0.0000E+00  0.7000E+02
  -3.370  0.0000E+00  0.0000E+00  0.7000E+02
  -3.360  0.0000E+00  0.0000E+00  0.7000E+02
  -3.350  0.0000E+00  0.0000E+00  0.7000E+02
  -3.340  0.0000E+00  0.0000E+00  0.7000E+02
  -3.330  0.0000E+00  0.0000E+00  0.7000E+02
  -3.320  0.0000E+00  0.0000E+00  0.7000E+02
  -3.310  0.0000E+00  0.0000E+00  0.7000E+02
  -3.300  0.0000E+00  0.0000E+00  0.7000E+02
  -3.290  0.0000E+00  0.0000E+00  0.7000E+02
  -3.280  0.0000E+00  0.0000E+00  0.7000E+02
  -3.270  0.0000E+00  0.0000E+00  0.7000E+02
  -3.260  0.0000E+00  0.0000E+00  0.7000E+02
  -3.250  0.0000E+00  0.0000E+00  0.7000E+02
  -3.240  0.0000E+00  0.0000E+00  0.7000E+02
  -3.230  0.0000E+00  0.0000E+00  0.7000E+02
  -3.220  0.0000E+00  0.0000E+00  0.7000E+02
  -3.210  0.0000E+00  0.0000E+00  0.7000E+02
  -3.200  0.0000E+00  0.0000E+00  0.7000E+02
  -3.190  0.0000E+00  0.0000E+00  0.7000E+02
  -3.180  0.0000E+00  0.0000E+00  0.7000E+02
  -3.170  0.0000E+00  0.0000E+00  0.7000E+02
  -3.160  0.0000E+00  0.0000E+00  0.7000E+02
  -3.150  0.0000E+00  0.0000E+00  0.7000E+02
  -3.140  0.0000E+00  0.0000E+00  0.7000E+02
  -3.130  0.0000E+00  0.0000E+00  0.7000E+02
  -3.120  0.0000E+00  0.0000E+00  0.7000E+02
  -3.110  0.0000E+00  0.0000E+00  0.7000E+02
  -3.100  0.0000E+00  0.0000E+00  0.7000E+02
  -3.090  0.0000E+00  0.0000E+00  0.7000E+02
  -3.080  0.0000E+00  0.0000E+00  0.7000E+02
  -3.070  0.0000E+00  0.0000E+00  0.7000E+02
  -3.060  0.0000E+00  0.0000E+00  0.7000E+02
  -3.050  0.0000E+00  0.0000E+00  0.7000E+02
  -3.040  0.0000E+00  0.0000E+00  0.7000E+02
  -3.030  0.0000E+00  0.0000E+00  0.7000E+02
  -3.020  0.0000E+00  0.0000E+00  0.7000E+02
  -3.010  0.0000E+00  0.0000E+00  0.7000E+02
  -3.000  0.0000E+00  0.0000E+00  0.7000E+02
  -2.990  0.0000E+00  0.0000E+00  0.7000E+02
  -2.980  0.0000E+00  0.0000E+00  0.7000E+02
  -2.970  0.0000E+00  0.0000E+00  0.7000E+02
  -2.960  0.0000E+00  0.0000E+00  0.7000E+02
  -2.950  0.0000E+00  0.0000E+00  0.7000E+02
  -2.940  0.0000E+00  0.0000E+00  0.7000E+02
  -2.930  0.0000E+00  0.0000E+00  0.7000E+02
  -2.920  0.0000E+00  0.0000E+00  0.7000E+02
  -2.910  0.0000E+00  0.0000E+00  0.7000E+02
  -2.900  0.0000E+00  0.0000E+00  0.7000E+02
  -2.890  0.0000E+00  0.0000E+00  0.7000E+02
  -2.880  0.0000E+00  0.0000E+00  0.7000E+02
  -2.870  0.0000E+00  0.0000E+00  0.7000E+02
  -2.860  0.0000E+00  0.0000E+00  0.7000E+02
  -2.850  0.0000E+00  0.0000E+00  0.7000E+02
  -2.840  0.0000E+00  0.0000E+00  0.7000E+02
  -2.830  0.0000E+00  0.0000E+00  0.7000E+02
  -2.820  0.0000E+00  0.0000E+00  0.7000E+02
  -2.810  0.0000E+00  0.0000E+00  0.7000E+02
  -2.800  0.0000E+00  0.0000E+00  0.7000E+02
  -2.790  0.0000E+00  0.0000E+00  0.7000E+02
  -2.780  0.0000E+00  0.0000E+00  0.7000E+02
  -2.770  0.0000E+00  0.0000E+00  0.7000E+02
  -2.760  0.0000E+00  0.0000E+00  0.7000E+02
  -2.750  0.0000E+00  0.0000E+00  0.7000E+02
  -2.740  0.0000E+00  0.0000E+00  0.7000E+02
  -2.730  0.0000E+00  0.0000E+00  0.7000E+02
  -2.720  0.0000E+00  0.0000E+00  0.7000E+02
  -2.710  0.0000E+00  0.0000E+00  0.7000E+02
  -2.700  0.0000E+00  0.0000E+00  0.7000E+02
  -2.690  0.0000E+00  0.0000E+00  0.7000E+02
  -2.680  0.0000E+00  0.0000E+00  0.7000E+02
  -2.670  0.0000E+00  0.0000E+00  0.7000E+02
  -2.660  0.0000E+00  0.0000E+00  0.7000E+02
  -2.650  0.0000E+00  0.0000E+00  0.7000E+02
  -2.640  0.0000E+00  0.0000E+00  0.7000E+02
  -2.630  0.0000E+00  0.0000E+00  0.7000E+02
  -2.620  0.0000E+00  0.0000E+00  0.7000E+02
  -2.610  0.0000E+00  0.0000E+00  0.7000E+02
  -2.600  0.0000E+00  0.0000E+00  0.7000E+02
  -2.590  0.0000E+00  0.0000E+00  0.7000E+02
  -2.580  0.0000E+00  0.0000E+00  0.7000E+02
  -2.570  0.0000E+00  0.0000E+00  0.7000E+02
  -2.560  0.0000E+00  0.0000E+00  0.7000E+02
  -2.550  0.0000E+00  0.0000E+00  0.7000E+02
  -2.540  0.0000E+00  0.0000E+00  0.7000E+02
  -2.530  0.0000E+00  0.0000E+00  0.7000E+02
  -2.520  0.0000E+00  0.0000E+00  0.7000E+02
  -2.510  0.0000E+00  0.0000E+00  0.7000E+02
  -2.500  0.0000E+00  0.0000E+00  0.7000E+02
  -2.490  0.0000E+00  0.0000E+00  0.7000E+02
  -2.480  0.0000E+00  0.0000E+00  0.7000E+02
  -2.470  0.0000E+00  0.0000E+00  0.7000E+02
  -2.460  0.0000E+00  0.0000E+00  0.7000E+02
  -2.450  0.0000E+00  0.0000E+00  0.7000E+02
  -2.440  0.0000E+00  0.0000E+00  0.7000E+02
  -2.430  0.0000E+00  0.0000E+00  0.7000E+02
  -2.420  0.0000E+00  0.0000E+00  0.7000E+02
  -2.410  0.0000E+00  0.0000E+00  0.7000E+02
  -2.400  0.0000E+00  0.0000E+00  0.7000E+02
  -2.390  0.0000E+00  0.0000E+00  0.7000E+02
  -2.380  0.0000E+00  0.0000E+00  0.7000E+02
  -2.370  0.0000E+00  0.0000E+00  0.7000E+02
  -2.360  0.0000E+00  0.0000E+00  0.7000E+02
  -2.350  0.0000E+00  0.0000E+00  0.7000E+02
  -2.340  0.0000E+00  0.0000E+00  0.7000E+02
  -2.330  0.0000E+00  0.0000E+00  0.7000E+02
  -2.320  0.0000E+00  0.0000E+00  0.7000E+02
  -2.310  0.0000E+00  0.0000E+00  0.7000E+02
  -2.300  0.0000E+00  0.0000E+00  0.7000E+02
  -2.290  0.0000E+00  0.0000E+00  0.7000E+02
  -2.280  0.0000E+00  0.0000E+00  0.7000E+02
  -2.270  0.0000E+00  0.0000E+00  0.7000E+02
  -2.260  0.0000E+00  0.0000E+00  0.7000E+02
  -2.250  0.0000E+00  0.0000E+00  0.7000E+02
  -2.240  0.0000E+00  0.0000E+00  0.7000E+02
  -2.230  0.0000E+00  0.0000E+00  0.7000E+02
  -2.220  0.0000E+00  0.0000E+00  0.7000E+02
  -2.210  0.0000E+00  0.0000E+00  0.7000E+02
  -2.200  0.0000E+00  0.0000E+00  0.7000E+02
  -2.190  0.0000E+00  0.0000E+00  0.7000E+02
  -2.180  0.0000E+00  0.0000E+00  0.7000E+02
  -2.170  0.0000E+00  0.0000E+00  0.7000E+02
  -2.160  0.0000E+00  0.0000E+00  0.7000E+02
  -2.150  0.0000E+00  0.0000E+00  0.7000E+02
  -2.140  0.0000E+00  0.0000E+00  0.7000E+02
  -2.130  0.0000E+00  0.0000E+00  0.7000E+02
  -2.120  0.0000E+00  0.0000E+00  0.7000E+02
  -2.110  0.0000E+00  0.0000E+00  0.7000E+02
  -2.100  0.0000E+00  0.0000E+00  0.7000E+02
  -2.090  0.0000E+00  0.0000E+00  0.7000E+02
  -2.080  0.0000E+00  0.0000E+00  0.7000E+02
  -2.070  0.0000E+00  0.0000E+00  0.7000E+02
  -2.060  0.0000E+00  0.0000E+00  0.7000E+02
  -2.050  0.0000E+00  0.0000E+00  0.7000E+02
  -2.040  0.0000E+00  0.0000E+00  0.7000E+02
  -2.030  0.0000E+00  0.0000E+00  0.7000E+02
  -2.020  0.0000E+00  0.0000E+00  0.7000E+02
  -2.010  0.0000E+00  0.0000E+00  0.7000E+02
  -2.000  0.0000E+00  0.0000E+00  0.7000E+02
  -1.990  0.0000E+00  0.0000E+00  0.7000E+02
  -1.980  0.0000E+00  0.0000E+00  0.7000E+02
  -1.970  0.0000E+00  0.0000E+00  0.7000E+02
  -1.960  0.0000E+00  0.0000E+00  0.7000E+02
  -1.950  0.0000E+00  0.0000E+00  0.7000E+02
  -1.940  0.0000E+00  0.0000E+00  0.7000E+02
  -1.930  0.0000E+00  0.0000E+00  0.7000E+02
  -1.920  0.0000E+00  0.0000E+00  0.7000E+02
  -1.910  0.0000E+00  0.0000E+00  0.7000E+02
  -1.900  0.0000E+00  0.0000E+00  0.7000E+02
  -1.890  0.0000E+00  0.0000E+00  0.7000E+02
  -1.880  0.0000E+00  0.0000E+00  0.7000E+02
  -1.870  0.0000E+00  0.0000E+00  0.7000E+02
  -1.860  0.0000E+00  0.0000E+00  0.7000E+02
  -1.850  0.0000E+00  0.0000E+00  0.7000E+02
  -1.840  0.0000E+00  0.0000E+00  0.7000E+02
  -1.830  0.0000E+00  0.0000E+00  0.7000E+02
  -1.820  0.0000E+00  0.0000E+00  0.7000E+02
  -1.810  0.0000E+00  0.0000E+00  0.7000E+02
  -1.800  0.0000E+00  0.0000E+00  0.7000E+02
  -1.790  0.0000E+00  0.0000E+00  0.7000E+02
  -1.780  0.0000E+00  0.0000E+00  0.7000E+02
  -1.770  0.0000E+00  0.0000E+00  0.7000E+02
  -1.760  0.0000E+00  0.0000E+00  0.7000E+02
  -1.750  0.0000E+00  0.0000E+00  0.7000E+02
  -1.740  0.0000E+00  0.0000E+00  0.7000E+02
  -1.730  0.0000E+00  0.0000E+00  0.7000E+02
  -1.720  0.0000E+00  0.0000E+00  0.7000E+02
  -1.710  0.0000E+00  0.0000E+00  0.7000E+02
  -1.700  0.0000E+00  0.0000E+00  0.7000E+02
  -1.690  0.0000E+00  0.0000E+00  0.7000E+02
  -1.680  0.0000E+00  0.0000E+00  0.7000E+02
  -1.670  0.0000E+00  0.0000E+00  0.7000E+02
  -1.660  0.0000E+00  0.0000E+00  0.7000E+02
  -1.650  0.0000E+00  0.0000E+00  0.7000E+02
  -1.640  0.0000E+00  0.0000E+00  0.7000E+02
  -1.630  0.0000E+00  0.0000E+00  0.7000E+02
  -1.620  0.0000E+00  0.0000E+00  0.7000E+02
  -1.610  0.0000E+00  0.0000E+00  0.7000E+02
  -1.600  0.0000E+00  0.0000E+00  0.7000E+02
  -1.590  0.0000E+00  0.0000E+00  0.7000E+02
  -1.580  0.0000E+00  0.0000E+00  0.7000E+02
  -1.570  0.0000E+00  0.0000E+00  0.7000E+02
  -1.560  0.0000E+00  0.0000E+00  0.7000E+02
  -1.550  0.0000E+00  0.0000E+00  0.7000E+02
  -1.540  0.0000E+00  0.0000E+00  0.7000E+02
  -1.530  0.0000E+00  0.0000E+00  0.7000E+02
  -1.520  0.0000E+00  0.0000E+00  0.7000E+02
  -1.510  0.0000E+00  0.0000E+00  0.7000E+02
  -1.500  0.0000E+00  0.0000E+00  0.7000E+02
  -1.490  0.0000E+00  0.0000E+00  0.7000E+02
  -1.480  0.0000E+00  0.0000E+00  0.7000E+02
  -1.470  0.0000E+00  0.0000E+00  0.7000E+02
  -1.460  0.0000E+00  0.0000E+00  0.7000E+02
  -1.450  0.0000E+00  0.0000E+00  0.7000E+02
  -1.440  0.0000E+00  0.0000E+00  0.7000E+02
  -1.430  0.0000E+00  0.0000E+00  0.7000E+02
  -1.420  0.0000E+00  0.0000E+00  0.7000E+02
  -1.410  0.0000E+00  0.0000E+00  0.7000E+02
  -1.400  0.0000E+00  0.0000E+00  0.7000E+02
  -1.390  0.0000E+00  0.0000E+00  0.7000E+02
  -1.380  0.0000E+00  0.0000E+00  0.7000E+02
  -1.370  0.0000E+00  0.0000E+00  0.7000E+02
  -1.360  0.0000E+00  0.0000E+00  0.7000E+02
  -1.350  0.0000E+00  0.0000E+00  0.7000E+02
  -1.340  0.0000E+00  0.0000E+00  0.7000E+02
  -1.330  0.0000E+00  0.0000E+00  0.7000E+02
  -1.320  0.0000E+00  0.0000E+00  0.7000E+02
  -1.310  0.0000E+00  0.0000E+00  0.7000E+02
  -1.300  0.0000E+00  0.0000E+00  0.7000E+02
  -1.290  0.0000E+00  0.0000E+00  0.7000E+02
  -1.280  0.0000E+00  0.0000E+00  0.7000E+02
  -1.270  0.0000E+00  0.0000E+00  0.7000E+02
  -1.260  0.0000E+00  0.0000E+00  0.7000E+02
  -1.250  0.0000E+00  0.0000E+00  0.7000E+02
  -1.240  0.0000E+00  0.0000E+00  0.7000E+02
  -1.230  0.0000E+00  0.0000E+00  0.7000E+02
  -1.220  0.0000E+00  0.0000E+00  0.7000E+02
  -1.210  0.0000E+00  0.0000E+00  0.7000E+02
  -1.200  0.0000E+00  0.0000E+00  0.7000E+02
  -1.190  0.0000E+00  0.0000E+00  0.7000E+02
  -1.180  0.0000E+00  0.0000E+00  0.7000E+02
  -1.170  0.0000E+00  0.0000E+00  0.7000E+02
  -1.160  0.0000E+00  0.0000E+00  0.7000E+02
  -1.150  0.0000E+00  0.0000E+00  0.7000E+02
  -1.140  0.0000E+00  0.0000E+00  0.7000E+02
  -1.130  0.0000E+00  0.0000E+00  0.7000E+02
  -1.120  0.0000E+00  0.0000E+00  0.7000E+02
  -1.110  0.0000E+00  0.0000E+00  0.7600E+02
  -1.100  0.0000E+00  0.0000E+00  0.7600E+02
  -1.090  0.4810E+03  0.4891E+03  0.8183E+02
  -1.080  0.2511E+03  0.2530E+03  0.8650E+02
  -1.070  0.0000E+00  0.0000E+00  0.8800E+02
  -1.060  0.0000E+00  0.0000E+00  0.8800E+02
  -1.050  0.0000E+00  0.0000E+00  0.8800E+02
  -1.040  0.0000E+00  0.0000E+00  0.8800E+02
  -1.030  0.0000E+00  0.0000E+00  0.8800E+02
  -1.020  0.0000E+00  0.0000E+00  0.8800E+02
  -1.010  0.0000E+00  0.0000E+00  0.8800E+02
  -1.000  0.1733E+02  0.1914E+02  0.8805E+02
  -0.990  0.7970E+02  0.7991E+02  0.8922E+02
  -0.980  0.2165E+03  0.2321E+03  0.9244E+02
  -0.970  0.2600E+03  0.2317E+03  0.9506E+02
  -0.960  0.1449E+03  0.1190E+03  0.9933E+02
  -0.950  0.0000E+00  0.0000E+00  0.1000E+03
  -0.940  0.0000E+00  0.0000E+00  0.1000E+03
  -0.930  0.0000E+00  0.0000E+00  0.1000E+03
  -0.920  0.0000E+00  0.0000E+00  0.1000E+03
  -0.910  0.0000E+00  0.0000E+00  0.1000E+03
  -0.900  0.0000E+00  0.0000E+00  0.1000E+03
  -0.890  0.0000E+00  0.0000E+00  0.1000E+03
  -0.880  0.0000E+00  0.0000E+00  0.1000E+03
  -0.870  0.0000E+00  0.0000E+00  0.1000E+03
  -0.860  0.0000E+00  0.0000E+00  0.1000E+03
  -0.850  0.0000E+00  0.0000E+00  0.1000E+03
  -0.840  0.2337E-02  0.1404E-03  0.1000E+03
  -0.830  0.1553E+02  0.1487E+02  0.1001E+03
  -0.820  0.4993E+02  0.4936E+02  0.1007E+03
  -0.810  0.8001E+02  0.7891E+02  0.1020E+03
  -0.800  0.7247E+02  0.7291E+02  0.1038E+03
  -0.790  0.8428E+02  0.7984E+02  0.1052E+03
  -0.780  0.1012E+03  0.9987E+02  0.1074E+03
  -0.770  0.1578E+03  0.1484E+03  0.1102E+03
  -0.760  0.2049E+03  0.2538E+03  0.1128E+03
  -0.750  0.1594E+03  0.1740E+03  0.1168E+03
  -0.740  0.1902E+03  0.1942E+03  0.1196E+03
  -0.730  0.2679E+03  0.2360E+03  0.1239E+03
  -0.720  0.2780E+03  0.3206E+03  0.1289E+03
  -0.710  0.2311E+03  0.2296E+03  0.1357E+03
  -0.700  0.2017E+03  0.2086E+03  0.1401E+03
  -0.690  0.2756E+03  0.2842E+03  0.1454E+03
  -0.680  0.1578E+03  0.1569E+03  0.1498E+03
  -0.670  0.2718E+03  0.2499E+03  0.1545E+03
  -0.660  0.2892E+03  0.3192E+03  0.1608E+03
  -0.650  0.2040E+03  0.1916E+03  0.1663E+03
  -0.640  0.2411E+03  0.2525E+03  0.1714E+03
  -0.630  0.2330E+03  0.1305E+03  0.1765E+03
  -0.620  0.2528E+03  0.2709E+03  0.1811E+03
  -0.610  0.1564E+03  0.1235E+03  0.1858E+03
  -0.600  0.8559E+02  0.1831E+03  0.1896E+03
  -0.590  0.8993E+02  0.1432E+03  0.1934E+03
  -0.580  0.2196E+03  0.2887E+03  0.1973E+03
  -0.570  0.2530E+03  0.2721E+03  0.2016E+03
  -0.560  0.2073E+03  0.2182E+03  0.2057E+03
  -0.550  0.1348E+03  0.1915E+03  0.2095E+03
  -0.540  0.1873E+03  0.2199E+03  0.2137E+03
  -0.530  0.1918E+03  0.1672E+03  0.2173E+03
  -0.520  0.1380E+03  0.1394E+03  0.2210E+03
  -0.510  0.1314E+03  0.1535E+03  0.2243E+03
  -0.500  0.1243E+03  0.1494E+03  0.2273E+03
  -0.490  0.1578E+03  0.1511E+03  0.2303E+03
  -0.480  0.1891E+03  0.1949E+03  0.2337E+03
  -0.470  0.9197E+02  0.8713E+02  0.2362E+03
  -0.460  0.1661E+03  0.1648E+03  0.2390E+03
  -0.450  0.9653E+02  0.1011E+03  0.2413E+03
  -0.440  0.8763E+02  0.7996E+02  0.2430E+03
  -0.430  0.7893E+02  0.7992E+02  0.2449E+03
  -0.420  0.1068E+03  0.1121E+03  0.2467E+03
  -0.410  0.1323E+03  0.1324E+03  0.2492E+03
  -0.400  0.1542E+03  0.1570E+03  0.2521E+03
  -0.390  0.1642E+03  0.1619E+03  0.2551E+03
  -0.380  0.1642E+03  0.1653E+03  0.2591E+03
  -0.370  0.1543E+03  0.1788E+03  0.2629E+03
  -0.360  0.2663E+03  0.2403E+03  0.2674E+03
  -0.350  0.2261E+03  0.2384E+03  0.2716E+03
  -0.340  0.2510E+03  0.2792E+03  0.2764E+03
  -0.330  0.2777E+03  0.2903E+03  0.2819E+03
  -0.320  0.2459E+03  0.2721E+03  0.2874E+03
  -0.310  0.3857E+03  0.4348E+03  0.2938E+03
  -0.300  0.2257E+03  0.2448E+03  0.3001E+03
  -0.290  0.1510E+03  0.1578E+03  0.3042E+03
  -0.280  0.2006E+03  0.2229E+03  0.3084E+03
  -0.270  0.2212E+03  0.2063E+03  0.3132E+03
  -0.260  0.2214E+03  0.2200E+03  0.3182E+03
  -0.250  0.2450E+03  0.2540E+03  0.3230E+03
  -0.240  0.2438E+03  0.2352E+03  0.3281E+03
  -0.230  0.2078E+03  0.2166E+03  0.3334E+03
  -0.220  0.1721E+03  0.1699E+03  0.3369E+03
  -0.210  0.1341E+03  0.1224E+03  0.3400E+03
  -0.200  0.1366E+03  0.1425E+03  0.3429E+03
  -0.190  0.2008E+03  0.1640E+03  0.3453E+03
  -0.180  0.1579E+03  0.1328E+03  0.3489E+03
  -0.170  0.1505E+03  0.1607E+03  0.3518E+03
  -0.160  0.1544E+03  0.1803E+03  0.3549E+03
  -0.150  0.4808E+02  0.5099E+02  0.3571E+03
  -0.140  0.7505E+02  0.7504E+02  0.3583E+03
  -0.130  0.8701E+02  0.8995E+02  0.3600E+03
  -0.120  0.6408E+02  0.5877E+02  0.3614E+03
  -0.110  0.5005E+02  0.4597E+02  0.3625E+03
  -0.100  0.7654E+02  0.9283E+02  0.3640E+03
  -0.090  0.7307E+02  0.6852E+02  0.3654E+03
  -0.080  0.4849E+02  0.4746E+02  0.3667E+03
  -0.070  0.4988E+02  0.5437E+02  0.3678E+03
  -0.060  0.4224E+02  0.4136E+02  0.3686E+03
  -0.050  0.5292E+02  0.5222E+02  0.3696E+03
  -0.040  0.6023E+02  0.5932E+02  0.3708E+03
  -0.030  0.6749E+02  0.6912E+02  0.3722E+03
  -0.020  0.5932E+02  0.6066E+02  0.3734E+03
  -0.010  0.5824E+02  0.5888E+02  0.3746E+03
   0.000  0.8480E+02  0.8057E+02  0.3759E+03
   0.010  0.5346E+02  0.5683E+02  0.3773E+03
   0.020  0.4348E+02  0.4441E+02  0.3783E+03
   0.030  0.3373E+02  0.3838E+02  0.3792E+03
   0.040  0.1704E+02  0.1812E+02  0.3797E+03
   0.050  0.4874E+01  0.5140E+01  0.3799E+03
   0.060  0.1962E+01  0.2119E+01  0.3800E+03
   0.070  0.3591E+00  0.4209E+00  0.3800E+03
   0.080  0.3224E-02  0.2165E-02  0.3800E+03
   0.090  0.8714E-02  0.5914E-02  0.3800E+03
   0.100  0.1725E-01  0.1318E-01  0.3800E+03
   0.110  0.2874E-01  0.2343E-01  0.3800E+03
   0.120  0.4320E-01  0.3665E-01  0.3800E+03
   0.130  0.6062E-01  0.5286E-01  0.3800E+03
   0.140  0.8100E-01  0.7204E-01  0.3800E+03
   0.150  0.1043E+00  0.9420E-01  0.3800E+03
   0.160  0.1306E+00  0.1193E+00  0.3800E+03
   0.170  0.1599E+00  0.1475E+00  0.3800E+03
   0.180  0.1921E+00  0.1786E+00  0.3800E+03
   0.190  0.2273E+00  0.2126E+00  0.3800E+03
   0.200  0.2655E+00  0.2497E+00  0.3800E+03
   0.210  0.3066E+00  0.2897E+00  0.3800E+03
   0.220  0.3507E+00  0.3327E+00  0.3800E+03
   0.230  0.3977E+00  0.3787E+00  0.3800E+03
   0.240  0.4477E+00  0.4277E+00  0.3801E+03
   0.250  0.5007E+00  0.4797E+00  0.3801E+03
   0.260  0.5570E+00  0.5346E+00  0.3801E+03
   0.270  0.8661E+00  0.6755E+00  0.3801E+03
   0.280  0.2471E+01  0.1608E+01  0.3801E+03
   0.290  0.2712E+01  0.3335E+01  0.3802E+03
   0.300  0.1360E+01  0.1707E+01  0.3802E+03
   0.310  0.1374E+01  0.1355E+01  0.3802E+03
   0.320  0.1464E+01  0.1434E+01  0.3803E+03
   0.330  0.1578E+01  0.1541E+01  0.3803E+03
   0.340  0.1716E+01  0.1671E+01  0.3803E+03
   0.350  0.1877E+01  0.1826E+01  0.3804E+03
   0.360  0.2062E+01  0.2004E+01  0.3804E+03
   0.370  0.2270E+01  0.2206E+01  0.3804E+03
   0.380  0.2502E+01  0.2432E+01  0.3805E+03
   0.390  0.2758E+01  0.2682E+01  0.3805E+03
   0.400  0.3037E+01  0.2955E+01  0.3806E+03
   0.410  0.3363E+01  0.3256E+01  0.3807E+03
   0.420  0.3912E+01  0.3725E+01  0.3807E+03
   0.430  0.4697E+01  0.4429E+01  0.3808E+03
   0.440  0.5537E+01  0.5301E+01  0.3809E+03
   0.450  0.6328E+01  0.6114E+01  0.3810E+03
   0.460  0.7095E+01  0.6901E+01  0.3812E+03
   0.470  0.7837E+01  0.7672E+01  0.3813E+03
   0.480  0.8544E+01  0.8372E+01  0.3815E+03
   0.490  0.8984E+01  0.8838E+01  0.3816E+03
   0.500  0.9388E+01  0.9343E+01  0.3818E+03
   0.510  0.9401E+01  0.9280E+01  0.3820E+03
   0.520  0.8907E+01  0.9089E+01  0.3822E+03
   0.530  0.8359E+01  0.8320E+01  0.3824E+03
   0.540  0.8424E+01  0.8269E+01  0.3825E+03
   0.550  0.8862E+01  0.8576E+01  0.3827E+03
   0.560  0.9681E+01  0.9233E+01  0.3829E+03
   0.570  0.1079E+02  0.1016E+02  0.3831E+03
   0.580  0.1149E+02  0.1114E+02  0.3833E+03
   0.590  0.1212E+02  0.1777E+02  0.3836E+03
   0.600  0.9125E+01  0.9410E+01  0.3838E+03
   0.610  0.8855E+01  0.8948E+01  0.3840E+03
   0.620  0.8889E+01  0.8895E+01  0.3841E+03
   0.630  0.9150E+01  0.9079E+01  0.3843E+03
   0.640  0.9614E+01  0.9458E+01  0.3845E+03
   0.650  0.1043E+02  0.1009E+02  0.3847E+03
   0.660  0.1171E+02  0.1127E+02  0.3849E+03
   0.670  0.1282E+02  0.1225E+02  0.3852E+03
   0.680  0.1424E+02  0.1368E+02  0.3854E+03
   0.690  0.1507E+02  0.1478E+02  0.3857E+03
   0.700  0.1560E+02  0.1539E+02  0.3860E+03
   0.710  0.1558E+02  0.1559E+02  0.3863E+03
   0.720  0.1573E+02  0.1793E+02  0.3867E+03
   0.730  0.1242E+02  0.1246E+02  0.3869E+03
   0.740  0.1350E+02  0.1300E+02  0.3872E+03
   0.750  0.1482E+02  0.1493E+02  0.3875E+03
   0.760  0.1562E+02  0.1493E+02  0.3878E+03
   0.770  0.1898E+02  0.1734E+02  0.3881E+03
   0.780  0.1980E+02  0.1850E+02  0.3885E+03
   0.790  0.2274E+02  0.2140E+02  0.3889E+03
   0.800  0.2237E+02  0.2282E+02  0.3894E+03
   0.810  0.2163E+02  0.2147E+02  0.3898E+03
   0.820  0.2502E+02  0.2429E+02  0.3902E+03
   0.830  0.2577E+02  0.2663E+02  0.3908E+03
   0.840  0.2352E+02  0.2512E+02  0.3913E+03
   0.850  0.2140E+02  0.2207E+02  0.3917E+03
   0.860  0.2057E+02  0.2108E+02  0.3922E+03
   0.870  0.2258E+02  0.2184E+02  0.3926E+03
   0.880  0.3302E+02  0.3075E+02  0.3931E+03
   0.890  0.3302E+02  0.3461E+02  0.3938E+03
   0.900  0.3260E+02  0.3253E+02  0.3944E+03
   0.910  0.2225E+02  0.2601E+02  0.3950E+03
   0.920  0.3736E+02  0.2192E+02  0.3955E+03
   0.930  0.5214E+02  0.5896E+02  0.3964E+03
   0.940  0.2289E+02  0.3173E+02  0.3974E+03
   0.950  0.3652E+02  0.2081E+02  0.3978E+03
   0.960  0.3762E+02  0.4048E+02  0.3986E+03
   0.970  0.4017E+02  0.3278E+02  0.3993E+03
   0.980  0.3863E+02  0.4693E+02  0.4002E+03
   0.990  0.3282E+02  0.3612E+02  0.4009E+03
   1.000  0.2212E+02  0.2718E+02  0.4015E+03
   1.010  0.3110E+02  0.2043E+02  0.4020E+03
   1.020  0.2945E+02  0.2875E+02  0.4026E+03
   1.030  0.3057E+02  0.2898E+02  0.4032E+03
   1.040  0.3062E+02  0.3010E+02  0.4038E+03
   1.050  0.2699E+02  0.2898E+02  0.4044E+03
   1.060  0.2427E+02  0.2570E+02  0.4049E+03
   1.070  0.2385E+02  0.2412E+02  0.4054E+03
   1.080  0.2468E+02  0.2423E+02  0.4059E+03
   1.090  0.2620E+02  0.2560E+02  0.4064E+03
   1.100  0.2633E+02  0.2653E+02  0.4069E+03
   1.110  0.2580E+02  0.2574E+02  0.4074E+03
   1.120  0.2503E+02  0.2478E+02  0.4079E+03
   1.130  0.2299E+02  0.2366E+02  0.4084E+03
   1.140  0.2171E+02  0.2164E+02  0.4089E+03
   1.150  0.2199E+02  0.2108E+02  0.4093E+03
   1.160  0.2399E+02  0.2213E+02  0.4097E+03
   1.170  0.2524E+02  0.2415E+02  0.4102E+03
   1.180  0.2008E+02  0.2278E+02  0.4107E+03
   1.190  0.1918E+02  0.1926E+02  0.4111E+03
   1.200  0.1889E+02  0.1874E+02  0.4115E+03
   1.210  0.1741E+02  0.1817E+02  0.4118E+03
   1.220  0.1505E+02  0.1609E+02  0.4122E+03
   1.230  0.1334E+02  0.1389E+02  0.4125E+03
   1.240  0.1238E+02  0.1229E+02  0.4127E+03
   1.250  0.1195E+02  0.1171E+02  0.4130E+03
   1.260  0.1155E+02  0.1129E+02  0.4132E+03
   1.270  0.1292E+02  0.1143E+02  0.4134E+03
   1.280  0.1192E+02  0.1370E+02  0.4137E+03
   1.290  0.1429E+02  0.1546E+02  0.4139E+03
   1.300  0.1705E+02  0.1632E+02  0.4143E+03
   1.310  0.1926E+02  0.1843E+02  0.4146E+03
   1.320  0.2047E+02  0.1985E+02  0.4150E+03
   1.330  0.2070E+02  0.2036E+02  0.4154E+03
   1.340  0.1972E+02  0.2005E+02  0.4158E+03
   1.350  0.1829E+02  0.1886E+02  0.4162E+03
   1.360  0.1694E+02  0.1713E+02  0.4166E+03
   1.370  0.1559E+02  0.1567E+02  0.4169E+03
   1.380  0.1445E+02  0.1453E+02  0.4172E+03
   1.390  0.1392E+02  0.1380E+02  0.4175E+03
   1.400  0.1505E+02  0.1358E+02  0.4178E+03
   1.410  0.1497E+02  0.1335E+02  0.4180E+03
   1.420  0.1469E+02  0.1327E+02  0.4183E+03
   1.430  0.1460E+02  0.1421E+02  0.4186E+03
   1.440  0.1463E+02  0.1469E+02  0.4189E+03
   1.450  0.1421E+02  0.1456E+02  0.4192E+03
   1.460  0.1370E+02  0.1429E+02  0.4195E+03
   1.470  0.1313E+02  0.1391E+02  0.4197E+03
   1.480  0.1233E+02  0.1342E+02  0.4200E+03
   1.490  0.1084E+02  0.1272E+02  0.4203E+03
   1.500  0.9747E+01  0.1141E+02  0.4205E+03
   1.510  0.1034E+02  0.1034E+02  0.4207E+03
   1.520  0.1138E+02  0.1063E+02  0.4209E+03
   1.530  0.1677E+02  0.1157E+02  0.4211E+03
   1.540  0.1301E+02  0.1662E+02  0.4214E+03
   1.550  0.1641E+02  0.1152E+02  0.4217E+03
   1.560  0.1649E+02  0.1408E+02  0.4220E+03
   1.570  0.1365E+02  0.1362E+02  0.4223E+03
   1.580  0.9388E+01  0.1244E+02  0.4225E+03
   1.590  0.7624E+01  0.1113E+02  0.4227E+03
   1.600  0.7783E+01  0.1045E+02  0.4229E+03
   1.610  0.9333E+01  0.7495E+01  0.4231E+03
   1.620  0.9353E+01  0.8298E+01  0.4233E+03
   1.630  0.8731E+01  0.8798E+01  0.4235E+03
   1.640  0.8611E+01  0.8885E+01  0.4236E+03
   1.650  0.7160E+01  0.8781E+01  0.4238E+03
   1.660  0.7338E+01  0.6919E+01  0.4239E+03
   1.670  0.8262E+01  0.6844E+01  0.4241E+03
   1.680  0.8450E+01  0.7009E+01  0.4242E+03
   1.690  0.7750E+01  0.7224E+01  0.4244E+03
   1.700  0.7072E+01  0.7402E+01  0.4245E+03
   1.710  0.7126E+01  0.7575E+01  0.4247E+03
   1.720  0.7217E+01  0.7767E+01  0.4248E+03
   1.730  0.7325E+01  0.7938E+01  0.4250E+03
   1.740  0.7458E+01  0.8099E+01  0.4251E+03
   1.750  0.7629E+01  0.7919E+01  0.4253E+03
   1.760  0.7817E+01  0.7793E+01  0.4255E+03
   1.770  0.8005E+01  0.7926E+01  0.4256E+03
   1.780  0.8195E+01  0.8062E+01  0.4258E+03
   1.790  0.8387E+01  0.8202E+01  0.4259E+03
   1.800  0.8574E+01  0.8341E+01  0.4261E+03
   1.810  0.8739E+01  0.8466E+01  0.4263E+03
   1.820  0.9246E+01  0.8577E+01  0.4265E+03
   1.830  0.9290E+01  0.8999E+01  0.4266E+03
   1.840  0.9507E+01  0.8837E+01  0.4268E+03
   1.850  0.9641E+01  0.8670E+01  0.4270E+03
   1.860  0.9700E+01  0.8641E+01  0.4272E+03
   1.870  0.9597E+01  0.9141E+01  0.4274E+03
   1.880  0.9397E+01  0.9416E+01  0.4276E+03
   1.890  0.9091E+01  0.9401E+01  0.4277E+03
   1.900  0.8802E+01  0.9116E+01  0.4279E+03
   1.910  0.9383E+01  0.8546E+01  0.4281E+03
   1.920  0.6219E+01  0.8558E+01  0.4283E+03
   1.930  0.6398E+01  0.8264E+01  0.4284E+03
   1.940  0.6641E+01  0.5885E+01  0.4286E+03
   1.950  0.7108E+01  0.5919E+01  0.4287E+03
   1.960  0.7869E+01  0.6006E+01  0.4288E+03
   1.970  0.9237E+01  0.6114E+01  0.4290E+03
   1.980  0.9579E+01  0.6261E+01  0.4291E+03
   1.990  0.9980E+01  0.6844E+01  0.4293E+03
   2.000  0.1072E+02  0.7575E+01  0.4295E+03
   2.010  0.1181E+02  0.9244E+01  0.4297E+03
   2.020  0.1185E+02  0.1136E+02  0.4299E+03
   2.030  0.1138E+02  0.1221E+02  0.4301E+03
   2.040  0.1060E+02  0.1214E+02  0.4303E+03
   2.050  0.9583E+01  0.1168E+02  0.4306E+03
   2.060  0.8530E+01  0.1090E+02  0.4308E+03
   2.070  0.7292E+01  0.1021E+02  0.4310E+03
   2.080  0.6108E+01  0.9187E+01  0.4311E+03
   2.090  0.5284E+01  0.7444E+01  0.4313E+03
   2.100  0.5220E+01  0.6241E+01  0.4314E+03
   2.110  0.5231E+01  0.5737E+01  0.4315E+03
   2.120  0.5293E+01  0.5377E+01  0.4316E+03
   2.130  0.5351E+01  0.5268E+01  0.4317E+03
   2.140  0.5402E+01  0.5218E+01  0.4318E+03
   2.150  0.5445E+01  0.5221E+01  0.4319E+03
   2.160  0.5481E+01  0.5193E+01  0.4320E+03
   2.170  0.5506E+01  0.5171E+01  0.4321E+03
   2.180  0.5522E+01  0.5149E+01  0.4322E+03
   2.190  0.5528E+01  0.5128E+01  0.4323E+03
   2.200  0.5522E+01  0.5107E+01  0.4324E+03
   2.210  0.5495E+01  0.5088E+01  0.4326E+03
   2.220  0.5476E+01  0.5069E+01  0.4327E+03
   2.230  0.5643E+01  0.5050E+01  0.4328E+03
   2.240  0.6062E+01  0.5027E+01  0.4329E+03
   2.250  0.6571E+01  0.5021E+01  0.4330E+03
   2.260  0.7036E+01  0.5122E+01  0.4331E+03
   2.270  0.7429E+01  0.5338E+01  0.4332E+03
   2.280  0.7757E+01  0.5891E+01  0.4334E+03
   2.290  0.8029E+01  0.6643E+01  0.4335E+03
   2.300  0.8217E+01  0.7335E+01  0.4337E+03
   2.310  0.8334E+01  0.7842E+01  0.4338E+03
   2.320  0.8289E+01  0.8166E+01  0.4340E+03
   2.330  0.9107E+01  0.8279E+01  0.4341E+03
   2.340  0.9244E+01  0.9348E+01  0.4343E+03
   2.350  0.9381E+01  0.9717E+01  0.4345E+03
   2.360  0.9554E+01  0.1009E+02  0.4347E+03
   2.370  0.9936E+01  0.1048E+02  0.4349E+03
   2.380  0.1023E+02  0.1091E+02  0.4351E+03
   2.390  0.1110E+02  0.1139E+02  0.4353E+03
   2.400  0.1220E+02  0.1171E+02  0.4356E+03
   2.410  0.1268E+02  0.1303E+02  0.4358E+03
   2.420  0.1340E+02  0.1352E+02  0.4361E+03
   2.430  0.1401E+02  0.1437E+02  0.4364E+03
   2.440  0.1431E+02  0.1530E+02  0.4366E+03
   2.450  0.1452E+02  0.1591E+02  0.4369E+03
   2.460  0.1457E+02  0.1627E+02  0.4372E+03
   2.470  0.1478E+02  0.1624E+02  0.4376E+03
   2.480  0.1545E+02  0.1617E+02  0.4379E+03
   2.490  0.1670E+02  0.1643E+02  0.4382E+03
   2.500  0.1744E+02  0.1715E+02  0.4385E+03
   2.510  0.1839E+02  0.1730E+02  0.4389E+03
   2.520  0.2068E+02  0.1773E+02  0.4393E+03
   2.530  0.2325E+02  0.1940E+02  0.4397E+03
   2.540  0.2509E+02  0.2084E+02  0.4401E+03
   2.550  0.2653E+02  0.2215E+02  0.4406E+03
   2.560  0.2930E+02  0.2453E+02  0.4411E+03
   2.570  0.3529E+02  0.2863E+02  0.4417E+03
   2.580  0.3939E+02  0.3241E+02  0.4424E+03
   2.590  0.3050E+02  0.3659E+02  0.4430E+03
   2.600  0.2463E+02  0.3281E+02  0.4436E+03
   2.610  0.2417E+02  0.2786E+02  0.4442E+03
   2.620  0.2536E+02  0.2342E+02  0.4447E+03
   2.630  0.1378E+02  0.2024E+02  0.4451E+03
   2.640  0.9216E+01  0.1452E+02  0.4454E+03
   2.650  0.1627E+02  0.1205E+02  0.4456E+03
   2.660  0.2209E+02  0.1719E+02  0.4460E+03
   2.670  0.2327E+02  0.1983E+02  0.4464E+03
   2.680  0.1524E+02  0.1906E+02  0.4468E+03
   2.690  0.1606E+02  0.1336E+02  0.4471E+03
   2.700  0.2010E+02  0.1197E+02  0.4474E+03
   2.710  0.2199E+02  0.1457E+02  0.4478E+03
   2.720  0.1924E+02  0.1830E+02  0.4481E+03
   2.730  0.1861E+02  0.2197E+02  0.4485E+03
   2.740  0.2129E+02  0.1726E+02  0.4489E+03
   2.750  0.2052E+02  0.1675E+02  0.4493E+03
   2.760  0.2281E+02  0.1938E+02  0.4497E+03
   2.770  0.2588E+02  0.2201E+02  0.4501E+03
   2.780  0.2507E+02  0.2526E+02  0.4506E+03
   2.790  0.1908E+02  0.2323E+02  0.4511E+03
   2.800  0.1796E+02  0.2090E+02  0.4515E+03
   2.810  0.1830E+02  0.1975E+02  0.4519E+03
   2.820  0.1964E+02  0.1881E+02  0.4523E+03
   2.830  0.1948E+02  0.1870E+02  0.4527E+03
   2.840  0.1825E+02  0.1987E+02  0.4530E+03
   2.850  0.1751E+02  0.1986E+02  0.4534E+03
   2.860  0.1822E+02  0.1942E+02  0.4538E+03
   2.870  0.2066E+02  0.1907E+02  0.4542E+03
   2.880  0.2291E+02  0.1963E+02  0.4546E+03
   2.890  0.2312E+02  0.2224E+02  0.4550E+03
   2.900  0.2312E+02  0.2457E+02  0.4555E+03
   2.910  0.2296E+02  0.2424E+02  0.4560E+03
   2.920  0.2167E+02  0.2375E+02  0.4564E+03
   2.930  0.2087E+02  0.2331E+02  0.4569E+03
   2.940  0.2580E+02  0.2284E+02  0.4573E+03
   2.950  0.2987E+02  0.2155E+02  0.4578E+03
   2.960  0.2582E+02  0.2156E+02  0.4583E+03
   2.970  0.2092E+02  0.3224E+02  0.4588E+03
   2.980  0.2866E+02  0.2772E+02  0.4594E+03
   2.990  0.3057E+02  0.2205E+02  0.4599E+03
   3.000  0.2202E+02  0.2956E+02  0.4604E+03
   3.010  0.1923E+02  0.2922E+02  0.4609E+03
   3.020  0.1740E+02  0.2424E+02  0.4614E+03
   3.030  0.1620E+02  0.2115E+02  0.4618E+03
   3.040  0.1964E+02  0.1857E+02  0.4621E+03
   3.050  0.2386E+02  0.1620E+02  0.4625E+03
   3.060  0.2476E+02  0.1659E+02  0.4630E+03
   3.070  0.2523E+02  0.2089E+02  0.4634E+03
   3.080  0.2565E+02  0.2438E+02  0.4639E+03
   3.090  0.2591E+02  0.3024E+02  0.4644E+03
   3.100  0.3716E+02  0.1978E+02  0.4650E+03
   3.110  0.2915E+02  0.1945E+02  0.4655E+03
   3.120  0.2681E+02  0.2163E+02  0.4660E+03
   3.130  0.2459E+02  0.2455E+02  0.4665E+03
   3.140  0.2387E+02  0.2436E+02  0.4670E+03
   3.150  0.2580E+02  0.2560E+02  0.4675E+03
   3.160  0.2581E+02  0.2618E+02  0.4680E+03
   3.170  0.2642E+02  0.2813E+02  0.4685E+03
   3.180  0.2730E+02  0.2629E+02  0.4691E+03
   3.190  0.2749E+02  0.2351E+02  0.4696E+03
   3.200  0.2756E+02  0.2415E+02  0.4701E+03
   3.210  0.2717E+02  0.2408E+02  0.4706E+03
   3.220  0.2717E+02  0.2546E+02  0.4711E+03
   3.230  0.2770E+02  0.2666E+02  0.4717E+03
   3.240  0.2831E+02  0.2626E+02  0.4722E+03
   3.250  0.2934E+02  0.2620E+02  0.4728E+03
   3.260  0.2833E+02  0.2697E+02  0.4733E+03
   3.270  0.2875E+02  0.2775E+02  0.4739E+03
   3.280  0.2950E+02  0.2833E+02  0.4745E+03
   3.290  0.2990E+02  0.2911E+02  0.4750E+03
   3.300  0.2848E+02  0.2989E+02  0.4756E+03
   3.310  0.2864E+02  0.3085E+02  0.4762E+03
   3.320  0.2873E+02  0.3158E+02  0.4768E+03
   3.330  0.2885E+02  0.3185E+02  0.4774E+03
   3.340  0.2973E+02  0.3173E+02  0.4780E+03
   3.350  0.3004E+02  0.3207E+02  0.4786E+03
   3.360  0.3035E+02  0.3258E+02  0.4793E+03
   3.370  0.3145E+02  0.3325E+02  0.4799E+03
   3.380  0.3214E+02  0.3496E+02  0.4806E+03
   3.390  0.3112E+02  0.3550E+02  0.4812E+03
   3.400  0.3074E+02  0.3474E+02  0.4819E+03
   3.410  0.2979E+02  0.3374E+02  0.4825E+03
   3.420  0.2962E+02  0.3304E+02  0.4832E+03
   3.430  0.2970E+02  0.3162E+02  0.4838E+03
   3.440  0.2879E+02  0.2951E+02  0.4844E+03
   3.450  0.2889E+02  0.2907E+02  0.4850E+03
   3.460  0.3092E+02  0.2823E+02  0.4856E+03
   3.470  0.3043E+02  0.2718E+02  0.4861E+03
   3.480  0.3005E+02  0.2647E+02  0.4867E+03
   3.490  0.2859E+02  0.2539E+02  0.4873E+03
   3.500  0.2680E+02  0.2556E+02  0.4878E+03
   3.510  0.2583E+02  0.2534E+02  0.4883E+03
   3.520  0.2476E+02  0.2733E+02  0.4888E+03
   3.530  0.2489E+02  0.3056E+02  0.4894E+03
   3.540  0.2556E+02  0.2473E+02  0.4899E+03
   3.550  0.2688E+02  0.2582E+02  0.4904E+03
   3.560  0.2904E+02  0.2618E+02  0.4910E+03
   3.570  0.3085E+02  0.2632E+02  0.4915E+03
   3.580  0.3198E+02  0.2796E+02  0.4921E+03
   3.590  0.2756E+02  0.2950E+02  0.4927E+03
   3.600  0.2683E+02  0.2702E+02  0.4933E+03
   3.610  0.2622E+02  0.2711E+02  0.4938E+03
   3.620  0.2654E+02  0.2940E+02  0.4944E+03
   3.630  0.2883E+02  0.2632E+02  0.4949E+03
   3.640  0.2954E+02  0.2412E+02  0.4955E+03
   3.650  0.2982E+02  0.2323E+02  0.4960E+03
   3.660  0.2620E+02  0.2757E+02  0.4965E+03
   3.670  0.2796E+02  0.3680E+02  0.4972E+03
   3.680  0.2656E+02  0.4091E+02  0.4979E+03
   3.690  0.3480E+02  0.3749E+02  0.4986E+03
   3.700  0.4514E+02  0.4237E+02  0.4993E+03
   3.710  0.4629E+02  0.3985E+02  0.5002E+03
   3.720  0.3728E+02  0.3901E+02  0.5011E+03
   3.730  0.3035E+02  0.3827E+02  0.5018E+03
   3.740  0.2486E+02  0.3298E+02  0.5024E+03
   3.750  0.2189E+02  0.2800E+02  0.5030E+03
   3.760  0.1932E+02  0.2513E+02  0.5034E+03
   3.770  0.2130E+02  0.2229E+02  0.5039E+03
   3.780  0.2555E+02  0.2200E+02  0.5043E+03
   3.790  0.3057E+02  0.2231E+02  0.5048E+03
   3.800  0.3083E+02  0.2310E+02  0.5054E+03
   3.810  0.2150E+02  0.2333E+02  0.5059E+03
   3.820  0.2265E+02  0.2536E+02  0.5063E+03
   3.830  0.2440E+02  0.2419E+02  0.5068E+03
   3.840  0.2618E+02  0.2464E+02  0.5073E+03
   3.850  0.2626E+02  0.2466E+02  0.5078E+03
   3.860  0.2613E+02  0.2427E+02  0.5083E+03
   3.870  0.2484E+02  0.2336E+02  0.5088E+03
   3.880  0.2320E+02  0.2268E+02  0.5093E+03
   3.890  0.2563E+02  0.2262E+02  0.5098E+03
   3.900  0.2749E+02  0.2352E+02  0.5102E+03
   3.910  0.2709E+02  0.2682E+02  0.5108E+03
   3.920  0.2871E+02  0.2507E+02  0.5113E+03
   3.930  0.2923E+02  0.2680E+02  0.5119E+03
   3.940  0.2932E+02  0.2816E+02  0.5124E+03
   3.950  0.2909E+02  0.2948E+02  0.5130E+03
   3.960  0.2953E+02  0.3087E+02  0.5136E+03
   3.970  0.3067E+02  0.3243E+02  0.5142E+03
   3.980  0.3210E+02  0.3375E+02  0.5149E+03
   3.990  0.3351E+02  0.3314E+02  0.5155E+03
   4.000  0.3432E+02  0.3611E+02  0.5162E+03
   4.010  0.3304E+02  0.3654E+02  0.5169E+03
   4.020  0.3336E+02  0.3376E+02  0.5176E+03
   4.030  0.3290E+02  0.3275E+02  0.5183E+03
   4.040  0.3260E+02  0.3328E+02  0.5189E+03
   4.050  0.3339E+02  0.3218E+02  0.5196E+03
   4.060  0.3256E+02  0.3171E+02  0.5202E+03
   4.070  0.3152E+02  0.3135E+02  0.5209E+03
   4.080  0.3142E+02  0.3136E+02  0.5215E+03
   4.090  0.3020E+02  0.3355E+02  0.5221E+03
   4.100  0.2924E+02  0.3222E+02  0.5227E+03
   4.110  0.2860E+02  0.3064E+02  0.5233E+03
   4.120  0.2764E+02  0.2897E+02  0.5239E+03
   4.130  0.2687E+02  0.2852E+02  0.5245E+03
   4.140  0.2728E+02  0.2913E+02  0.5250E+03
   4.150  0.3010E+02  0.2953E+02  0.5256E+03
   4.160  0.3051E+02  0.3009E+02  0.5262E+03
   4.170  0.3278E+02  0.3308E+02  0.5269E+03
   4.180  0.3166E+02  0.3451E+02  0.5275E+03
   4.190  0.2955E+02  0.3456E+02  0.5282E+03
   4.200  0.2717E+02  0.3234E+02  0.5288E+03
   4.210  0.2531E+02  0.2864E+02  0.5294E+03
   4.220  0.2453E+02  0.2558E+02  0.5299E+03
   4.230  0.2605E+02  0.2348E+02  0.5304E+03
   4.240  0.2760E+02  0.2462E+02  0.5309E+03
   4.250  0.2811E+02  0.2355E+02  0.5314E+03
   4.260  0.2837E+02  0.2616E+02  0.5319E+03
   4.270  0.3104E+02  0.2603E+02  0.5325E+03
   4.280  0.3314E+02  0.2610E+02  0.5331E+03
   4.290  0.3488E+02  0.2626E+02  0.5337E+03
   4.300  0.3440E+02  0.2791E+02  0.5343E+03
   4.310  0.2816E+02  0.2894E+02  0.5349E+03
   4.320  0.2594E+02  0.2831E+02  0.5354E+03
   4.330  0.2394E+02  0.2756E+02  0.5360E+03
   4.340  0.2231E+02  0.2698E+02  0.5365E+03
   4.350  0.2111E+02  0.2702E+02  0.5370E+03
   4.360  0.2425E+02  0.2762E+02  0.5375E+03
   4.370  0.2466E+02  0.2812E+02  0.5380E+03
   4.380  0.2675E+02  0.2871E+02  0.5386E+03
   4.390  0.2611E+02  0.3044E+02  0.5391E+03
   4.400  0.2644E+02  0.3081E+02  0.5397E+03
   4.410  0.2656E+02  0.2763E+02  0.5403E+03
   4.420  0.2451E+02  0.2706E+02  0.5408E+03
   4.430  0.2450E+02  0.2642E+02  0.5413E+03
   4.440  0.2367E+02  0.2422E+02  0.5418E+03
   4.450  0.2127E+02  0.2236E+02  0.5422E+03
   4.460  0.2241E+02  0.2202E+02  0.5427E+03
   4.470  0.2309E+02  0.2241E+02  0.5431E+03
   4.480  0.2350E+02  0.2335E+02  0.5436E+03
   4.490  0.2461E+02  0.2444E+02  0.5441E+03
   4.500  0.2520E+02  0.2435E+02  0.5446E+03
   4.510  0.2325E+02  0.2482E+02  0.5451E+03
   4.520  0.2379E+02  0.2521E+02  0.5455E+03
   4.530  0.2421E+02  0.2523E+02  0.5460E+03
   4.540  0.2471E+02  0.2557E+02  0.5465E+03
   4.550  0.2406E+02  0.2567E+02  0.5470E+03
   4.560  0.2550E+02  0.2382E+02  0.5475E+03
   4.570  0.3424E+02  0.2718E+02  0.5481E+03
   4.580  0.3813E+02  0.3619E+02  0.5487E+03
   4.590  0.2957E+02  0.3637E+02  0.5495E+03
   4.600  0.2846E+02  0.3068E+02  0.5501E+03
   4.610  0.2400E+02  0.2493E+02  0.5506E+03
   4.620  0.2373E+02  0.2624E+02  0.5511E+03
   4.630  0.2071E+02  0.2203E+02  0.5516E+03
   4.640  0.1936E+02  0.2037E+02  0.5520E+03
   4.650  0.1835E+02  0.1905E+02  0.5524E+03
   4.660  0.1762E+02  0.1804E+02  0.5527E+03
   4.670  0.1711E+02  0.1729E+02  0.5531E+03
   4.680  0.1680E+02  0.1676E+02  0.5534E+03
   4.690  0.1655E+02  0.1637E+02  0.5538E+03
   4.700  0.1629E+02  0.1604E+02  0.5541E+03
   4.710  0.1605E+02  0.1573E+02  0.5544E+03
   4.720  0.1603E+02  0.1542E+02  0.5547E+03
   4.730  0.1579E+02  0.1514E+02  0.5550E+03
   4.740  0.1513E+02  0.1493E+02  0.5553E+03
   4.750  0.1471E+02  0.1901E+02  0.5557E+03
   4.760  0.1563E+02  0.1400E+02  0.5559E+03
   4.770  0.1342E+02  0.1387E+02  0.5562E+03
   4.780  0.1317E+02  0.1585E+02  0.5565E+03
   4.790  0.1327E+02  0.1414E+02  0.5568E+03
   4.800  0.1479E+02  0.1442E+02  0.5571E+03
   4.810  0.1480E+02  0.1537E+02  0.5574E+03
   4.820  0.1435E+02  0.1505E+02  0.5577E+03
   4.830  0.1367E+02  0.1435E+02  0.5580E+03
   4.840  0.1328E+02  0.1395E+02  0.5582E+03
   4.850  0.1308E+02  0.1350E+02  0.5585E+03
   4.860  0.1474E+02  0.1470E+02  0.5588E+03
   4.870  0.1735E+02  0.1479E+02  0.5591E+03
   4.880  0.1446E+02  0.1700E+02  0.5594E+03
   4.890  0.1340E+02  0.1481E+02  0.5597E+03
   4.900  0.1260E+02  0.1230E+02  0.5600E+03
   4.910  0.1182E+02  0.1150E+02  0.5602E+03
   4.920  0.1100E+02  0.1083E+02  0.5604E+03
   4.930  0.1011E+02  0.1019E+02  0.5606E+03
   4.940  0.8599E+01  0.9588E+01  0.5608E+03
   4.950  0.8347E+01  0.9026E+01  0.5610E+03
   4.960  0.9176E+01  0.8439E+01  0.5612E+03
   4.970  0.4796E+01  0.8028E+01  0.5614E+03
   4.980  0.5729E+01  0.7878E+01  0.5615E+03
   4.990  0.7763E+01  0.7688E+01  0.5616E+03
   5.000  0.1025E+02  0.7631E+01  0.5618E+03
   5.010  0.1327E+02  0.7930E+01  0.5620E+03
   5.020  0.1219E+02  0.8781E+01  0.5622E+03
   5.030  0.1264E+02  0.9103E+01  0.5624E+03
   5.040  0.1352E+02  0.9505E+01  0.5626E+03
   5.050  0.1467E+02  0.1291E+02  0.5629E+03
   5.060  0.1535E+02  0.1386E+02  0.5632E+03
   5.070  0.1532E+02  0.1373E+02  0.5635E+03
   5.080  0.1442E+02  0.1374E+02  0.5638E+03
   5.090  0.1271E+02  0.1389E+02  0.5640E+03
   5.100  0.1084E+02  0.1387E+02  0.5643E+03
   5.110  0.9116E+01  0.1284E+02  0.5645E+03
   5.120  0.7588E+01  0.1147E+02  0.5647E+03
   5.130  0.6414E+01  0.1017E+02  0.5649E+03
   5.140  0.5570E+01  0.8947E+01  0.5651E+03
   5.150  0.4689E+01  0.7764E+01  0.5652E+03
   5.160  0.3871E+01  0.6774E+01  0.5653E+03
   5.170  0.3263E+01  0.5893E+01  0.5654E+03
   5.180  0.3267E+01  0.5104E+01  0.5655E+03
   5.190  0.2871E+01  0.4420E+01  0.5656E+03
   5.200  0.2273E+01  0.3858E+01  0.5656E+03
   5.210  0.2153E+01  0.3277E+01  0.5657E+03
   5.220  0.1998E+01  0.2948E+01  0.5657E+03
   5.230  0.1780E+01  0.3517E+01  0.5658E+03
   5.240  0.1499E+01  0.3649E+01  0.5659E+03
   5.250  0.1144E+01  0.2679E+01  0.5659E+03
   5.260  0.7158E+00  0.2113E+01  0.5659E+03
   5.270  0.4190E+00  0.1667E+01  0.5660E+03
   5.280  0.3014E+00  0.1204E+01  0.5660E+03
   5.290  0.2032E+00  0.7275E+00  0.5660E+03
   5.300  0.1243E+00  0.3758E+00  0.5660E+03
   5.310  0.6475E-01  0.2349E+00  0.5660E+03
   5.320  0.2454E-01  0.1311E+00  0.5660E+03
   5.330  0.3669E-02  0.5749E-01  0.5660E+03
   5.340  0.0000E+00  0.1408E-01  0.5660E+03
   5.350  0.0000E+00  0.2789E-03  0.5660E+03
   5.360  0.0000E+00  0.0000E+00  0.5660E+03
   5.370  0.0000E+00  0.0000E+00  0.5660E+03
   5.380  0.0000E+00  0.0000E+00  0.5660E+03
   5.390  0.0000E+00  0.0000E+00  0.5660E+03
   5.400  0.0000E+00  0.0000E+00  0.5660E+03
   5.410  0.0000E+00  0.0000E+00  0.5660E+03
   5.420  0.0000E+00  0.0000E+00  0.5660E+03
   5.430  0.0000E+00  0.0000E+00  0.5660E+03
   5.440  0.0000E+00  0.0000E+00  0.5660E+03
   5.450  0.0000E+00  0.0000E+00  0.5660E+03
   5.460  0.0000E+00  0.0000E+00  0.5660E+03
   5.470  0.0000E+00  0.0000E+00  0.5660E+03
   5.480  0.0000E+00  0.0000E+00  0.5660E+03
   5.490  0.0000E+00  0.0000E+00  0.5660E+03
   5.500  0.0000E+00  0.0000E+00  0.5660E+03
   5.510  0.0000E+00  0.0000E+00  0.5660E+03
   5.520  0.0000E+00  0.0000E+00  0.5660E+03
   5.530  0.0000E+00  0.0000E+00  0.5660E+03
   5.540  0.0000E+00  0.0000E+00  0.5660E+03
   5.550  0.0000E+00  0.0000E+00  0.5660E+03
   5.560  0.0000E+00  0.0000E+00  0.5660E+03
   5.570  0.0000E+00  0.0000E+00  0.5660E+03
   5.580  0.0000E+00  0.0000E+00  0.5660E+03
   5.590  0.0000E+00  0.0000E+00  0.5660E+03
   5.600  0.0000E+00  0.0000E+00  0.5660E+03
   5.610  0.0000E+00  0.0000E+00  0.5660E+03
   5.620  0.0000E+00  0.0000E+00  0.5660E+03
   5.630  0.0000E+00  0.0000E+00  0.5660E+03
   5.640  0.0000E+00  0.0000E+00  0.5660E+03
   5.650  0.0000E+00  0.0000E+00  0.5660E+03
   5.660  0.6832E+01  0.0000E+00  0.5660E+03
   5.670  0.3151E+02  0.0000E+00  0.5662E+03
   5.680  0.2937E+02  0.0000E+00  0.5666E+03
   5.690  0.1661E+02  0.0000E+00  0.5668E+03
   5.700  0.8485E+01  0.0000E+00  0.5669E+03
   5.710  0.3823E+02  0.0000E+00  0.5670E+03
   5.720  0.4642E+02  0.0000E+00  0.5678E+03
   5.730  0.2934E+00  0.0000E+00  0.5680E+03
   5.740  0.0000E+00  0.0000E+00  0.5680E+03
   5.750  0.0000E+00  0.0000E+00  0.5680E+03
   5.760  0.0000E+00  0.0000E+00  0.5680E+03
   5.770  0.0000E+00  0.0000E+00  0.5680E+03
   5.780  0.0000E+00  0.0000E+00  0.5680E+03
   5.790  0.0000E+00  0.0000E+00  0.5680E+03
   5.800  0.0000E+00  0.0000E+00  0.5680E+03
   5.810  0.0000E+00  0.0000E+00  0.5680E+03
   5.820  0.0000E+00  0.0000E+00  0.5680E+03
   5.830  0.0000E+00  0.0000E+00  0.5680E+03
   5.840  0.0000E+00  0.0000E+00  0.5680E+03
   5.850  0.0000E+00  0.0000E+00  0.5680E+03
   5.860  0.0000E+00  0.0000E+00  0.5680E+03
   5.870  0.0000E+00  0.0000E+00  0.5680E+03
   5.880  0.0000E+00  0.0000E+00  0.5680E+03
   5.890  0.0000E+00  0.0000E+00  0.5680E+03
   5.900  0.0000E+00  0.0000E+00  0.5680E+03
   5.910  0.0000E+00  0.0000E+00  0.5680E+03
   5.920  0.1023E+01  0.0000E+00  0.5680E+03
   5.930  0.8658E+02  0.0000E+00  0.5683E+03
   5.940  0.0000E+00  0.0000E+00  0.5690E+03
   5.950  0.0000E+00  0.0000E+00  0.5690E+03
   5.960  0.0000E+00  0.0000E+00  0.5690E+03
   5.970  0.0000E+00  0.0000E+00  0.5690E+03
   5.980  0.0000E+00  0.0000E+00  0.5690E+03
   5.990  0.0000E+00  0.0000E+00  0.5690E+03
   6.000  0.0000E+00  0.0000E+00  0.5690E+03
   6.010  0.0000E+00  0.0000E+00  0.5690E+03
   6.020  0.0000E+00  0.0000E+00  0.5690E+03
   6.030  0.0000E+00  0.0000E+00  0.5690E+03
   6.040  0.0000E+00  0.0000E+00  0.5690E+03
   6.050  0.0000E+00  0.0000E+00  0.5690E+03
   6.060  0.0000E+00  0.0000E+00  0.5690E+03
   6.070  0.0000E+00  0.0000E+00  0.5690E+03
   6.080  0.0000E+00  0.0000E+00  0.5690E+03
   6.090  0.0000E+00  0.0000E+00  0.5690E+03
   6.100  0.0000E+00  0.0000E+00  0.5690E+03
   6.110  0.1101E-01  0.0000E+00  0.5690E+03
   6.120  0.3745E+01  0.0000E+00  0.5690E+03
   6.130  0.2480E+02  0.0000E+00  0.5692E+03
   6.140  0.3000E+02  0.0000E+00  0.5695E+03
   6.150  0.1885E+02  0.0000E+00  0.5697E+03
   6.160  0.1369E+02  0.0000E+00  0.5699E+03
   6.170  0.7255E+01  0.0000E+00  0.5699E+03
   6.180  0.5303E+02  0.0000E+00  0.5703E+03
   6.190  0.4196E+02  0.0000E+00  0.5708E+03
   6.200  0.6165E+00  0.0000E+00  0.5710E+03
   6.210  0.1444E-03  0.0000E+00  0.5710E+03
   6.220  0.0000E+00  0.0000E+00  0.5710E+03
   6.230  0.0000E+00  0.0000E+00  0.5710E+03
   6.240  0.0000E+00  0.0000E+00  0.5710E+03
   6.250  0.0000E+00  0.0000E+00  0.5710E+03
   6.260  0.0000E+00  0.0000E+00  0.5710E+03
   6.270  0.0000E+00  0.0000E+00  0.5710E+03
   6.280  0.0000E+00  0.0000E+00  0.5710E+03
   6.290  0.0000E+00  0.0000E+00  0.5710E+03
   6.300  0.0000E+00  0.0000E+00  0.5710E+03
   6.310  0.0000E+00  0.0000E+00  0.5710E+03
   6.320  0.0000E+00  0.0000E+00  0.5710E+03
   6.330  0.0000E+00  0.0000E+00  0.5710E+03
   6.340  0.0000E+00  0.0000E+00  0.5710E+03
   6.350  0.0000E+00  0.0000E+00  0.5710E+03
   6.360  0.0000E+00  0.0000E+00  0.5710E+03
   6.370  0.0000E+00  0.0000E+00  0.5710E+03
   6.380  0.0000E+00  0.0000E+00  0.5710E+03
   6.390  0.0000E+00  0.0000E+00  0.5710E+03
   6.400  0.0000E+00  0.0000E+00  0.5710E+03
   6.410  0.0000E+00  0.0000E+00  0.5710E+03
   6.420  0.0000E+00  0.0000E+00  0.5710E+03
   6.430  0.0000E+00  0.0000E+00  0.5710E+03
   6.440  0.0000E+00  0.0000E+00  0.5710E+03
   6.450  0.0000E+00  0.0000E+00  0.5710E+03
   6.460  0.0000E+00  0.0000E+00  0.5710E+03
   6.470  0.0000E+00  0.0000E+00  0.5710E+03
   6.480  0.0000E+00  0.0000E+00  0.5710E+03
   6.490  0.0000E+00  0.0000E+00  0.5710E+03
   6.500  0.0000E+00  0.0000E+00  0.5710E+03
   6.510  0.0000E+00  0.0000E+00  0.5710E+03
   6.520  0.0000E+00  0.0000E+00  0.5710E+03
   6.530  0.0000E+00  0.0000E+00  0.5710E+03
   6.540  0.0000E+00  0.0000E+00  0.5710E+03
   6.550  0.0000E+00  0.0000E+00  0.5710E+03
   6.560  0.0000E+00  0.0000E+00  0.5710E+03
   6.570  0.0000E+00  0.0000E+00  0.5710E+03
   6.580  0.0000E+00  0.0000E+00  0.5710E+03
   6.590  0.0000E+00  0.0000E+00  0.5710E+03
   6.600  0.0000E+00  0.0000E+00  0.5710E+03
   6.610  0.0000E+00  0.0000E+00  0.5710E+03
   6.620  0.0000E+00  0.0000E+00  0.5710E+03
   6.630  0.0000E+00  0.0000E+00  0.5710E+03
   6.640  0.0000E+00  0.0000E+00  0.5710E+03
   6.650  0.0000E+00  0.0000E+00  0.5710E+03
   6.660  0.0000E+00  0.0000E+00  0.5710E+03
   6.670  0.0000E+00  0.0000E+00  0.5710E+03
   6.680  0.0000E+00  0.0000E+00  0.5710E+03
   6.690  0.0000E+00  0.0000E+00  0.5710E+03
   6.700  0.0000E+00  0.0000E+00  0.5710E+03
   6.710  0.0000E+00  0.0000E+00  0.5710E+03
   6.720  0.0000E+00  0.0000E+00  0.5710E+03
   6.730  0.0000E+00  0.0000E+00  0.5710E+03
   6.740  0.0000E+00  0.0000E+00  0.5710E+03
   6.750  0.0000E+00  0.0000E+00  0.5710E+03
   6.760  0.0000E+00  0.0000E+00  0.5710E+03
   6.770  0.0000E+00  0.0000E+00  0.5710E+03
   6.780  0.0000E+00  0.0000E+00  0.5710E+03
   6.790  0.0000E+00  0.0000E+00  0.5710E+03
   6.800  0.0000E+00  0.0000E+00  0.5710E+03
   6.810  0.0000E+00  0.0000E+00  0.5710E+03
   6.820  0.0000E+00  0.4250E+01  0.5710E+03
   6.830  0.0000E+00  0.3713E+02  0.5720E+03
   6.840  0.0000E+00  0.5890E+02  0.5722E+03
   6.850  0.0000E+00  0.1367E+01  0.5730E+03
   6.860  0.0000E+00  0.4249E+01  0.5730E+03
   6.870  0.0000E+00  0.3759E+02  0.5732E+03
   6.880  0.0000E+00  0.4511E+02  0.5740E+03
   6.890  0.0000E+00  0.0000E+00  0.5740E+03
   6.900  0.0000E+00  0.0000E+00  0.5740E+03
   6.910  0.0000E+00  0.0000E+00  0.5740E+03
   6.920  0.0000E+00  0.0000E+00  0.5740E+03
   6.930  0.0000E+00  0.0000E+00  0.5740E+03
   6.940  0.0000E+00  0.0000E+00  0.5740E+03
   6.950  0.0000E+00  0.0000E+00  0.5740E+03
   6.960  0.0000E+00  0.0000E+00  0.5740E+03
   6.970  0.0000E+00  0.0000E+00  0.5740E+03
   6.980  0.0000E+00  0.0000E+00  0.5740E+03
   6.990  0.0000E+00  0.0000E+00  0.5740E+03
   7.000  0.0000E+00  0.0000E+00  0.5740E+03
   7.010  0.0000E+00  0.0000E+00  0.5740E+03
   7.020  0.0000E+00  0.0000E+00  0.5740E+03
   7.030  0.0000E+00  0.0000E+00  0.5740E+03
   7.040  0.0000E+00  0.0000E+00  0.5740E+03
   7.050  0.0000E+00  0.0000E+00  0.5740E+03
   7.060  0.0000E+00  0.0000E+00  0.5740E+03
   7.070  0.0000E+00  0.0000E+00  0.5740E+03
   7.080  0.0000E+00  0.0000E+00  0.5740E+03
   7.090  0.0000E+00  0.0000E+00  0.5740E+03
   7.100  0.0000E+00  0.0000E+00  0.5740E+03
   7.110  0.0000E+00  0.0000E+00  0.5740E+03
   7.120  0.0000E+00  0.0000E+00  0.5740E+03
   7.130  0.0000E+00  0.0000E+00  0.5740E+03
   7.140  0.0000E+00  0.0000E+00  0.5740E+03
   7.150  0.0000E+00  0.0000E+00  0.5740E+03
   7.160  0.0000E+00  0.0000E+00  0.5740E+03
   7.170  0.0000E+00  0.0000E+00  0.5740E+03
   7.180  0.0000E+00  0.0000E+00  0.5740E+03
   7.190  0.0000E+00  0.0000E+00  0.5740E+03
   7.200  0.0000E+00  0.0000E+00  0.5740E+03
   7.210  0.0000E+00  0.0000E+00  0.5740E+03
   7.220  0.7166E-06  0.0000E+00  0.5740E+03
   7.230  0.6604E-04  0.0000E+00  0.5740E+03
   7.240  0.3846E-03  0.0000E+00  0.5740E+03
   7.250  0.1029E-02  0.0000E+00  0.5740E+03
   7.260  0.2000E-02  0.0000E+00  0.5740E+03
   7.270  0.3296E-02  0.0000E+00  0.5740E+03
   7.280  0.4919E-02  0.0000E+00  0.5740E+03
   7.290  0.6867E-02  0.0000E+00  0.5740E+03
   7.300  0.9142E-02  0.0000E+00  0.5740E+03
   7.310  0.1174E-01  0.0000E+00  0.5740E+03
   7.320  0.1467E-01  0.0000E+00  0.5740E+03
   7.330  0.1792E-01  0.2683E-04  0.5740E+03
   7.340  0.2150E-01  0.3545E-03  0.5740E+03
   7.350  0.2540E-01  0.1191E-02  0.5740E+03
   7.360  0.2963E-01  0.2539E-02  0.5740E+03
   7.370  0.3419E-01  0.4398E-02  0.5740E+03
   7.380  0.3907E-01  0.6767E-02  0.5740E+03
   7.390  0.4428E-01  0.9648E-02  0.5740E+03
   7.400  0.4981E-01  0.1304E-01  0.5740E+03
   7.410  0.5567E-01  0.1694E-01  0.5740E+03
   7.420  0.6186E-01  0.2135E-01  0.5740E+03
   7.430  0.6837E-01  0.2628E-01  0.5740E+03
   7.440  0.7521E-01  0.3171E-01  0.5740E+03
   7.450  0.8237E-01  0.3766E-01  0.5740E+03
   7.460  0.8986E-01  0.4412E-01  0.5740E+03
   7.470  0.9768E-01  0.5108E-01  0.5740E+03
   7.480  0.1058E+00  0.5856E-01  0.5740E+03
   7.490  0.1143E+00  0.6655E-01  0.5740E+03
   7.500  0.1231E+00  0.7505E-01  0.5740E+03
   7.510  0.1322E+00  0.8407E-01  0.5740E+03
   7.520  0.1416E+00  0.9359E-01  0.5740E+03
   7.530  0.1514E+00  0.1036E+00  0.5740E+03
   7.540  0.1615E+00  0.1142E+00  0.5740E+03
   7.550  0.1719E+00  0.1252E+00  0.5740E+03
   7.560  0.1827E+00  0.1368E+00  0.5740E+03
   7.570  0.1938E+00  0.1489E+00  0.5740E+03
   7.580  0.2052E+00  0.1615E+00  0.5740E+03
   7.590  0.2167E+00  0.1746E+00  0.5740E+03
   7.600  0.2239E+00  0.1882E+00  0.5740E+03
   7.610  0.2396E+00  0.2023E+00  0.5740E+03
   7.620  0.2599E+00  0.2169E+00  0.5741E+03
   7.630  0.2792E+00  0.2321E+00  0.5741E+03
   7.640  0.2980E+00  0.2477E+00  0.5741E+03
   7.650  0.3165E+00  0.2639E+00  0.5741E+03
   7.660  0.3350E+00  0.2806E+00  0.5741E+03
   7.670  0.3539E+00  0.2885E+00  0.5741E+03
   7.680  0.3734E+00  0.3243E+00  0.5741E+03
   7.690  0.3936E+00  0.3623E+00  0.5741E+03
   7.700  0.4144E+00  0.4040E+00  0.5741E+03
   7.710  0.4359E+00  0.4532E+00  0.5741E+03
   7.720  0.4581E+00  0.5114E+00  0.5741E+03
   7.730  0.4809E+00  0.5787E+00  0.5741E+03
   7.740  0.5045E+00  0.6550E+00  0.5741E+03
   7.750  0.5286E+00  0.7404E+00  0.5742E+03
   7.760  0.5535E+00  0.8348E+00  0.5742E+03
   7.770  0.5791E+00  0.9382E+00  0.5742E+03
   7.780  0.6053E+00  0.1051E+01  0.5742E+03
   7.790  0.6322E+00  0.1172E+01  0.5742E+03
   7.800  0.6597E+00  0.1303E+01  0.5742E+03
   7.810  0.6879E+00  0.1443E+01  0.5743E+03
   7.820  0.7168E+00  0.1591E+01  0.5743E+03
   7.830  0.7464E+00  0.1749E+01  0.5743E+03
   7.840  0.7769E+00  0.1916E+01  0.5743E+03
   7.850  0.7974E+00  0.2070E+01  0.5744E+03
   7.860  0.8073E+00  0.2263E+01  0.5744E+03
   7.870  0.8242E+00  0.2744E+01  0.5744E+03
   7.880  0.8478E+00  0.3928E+01  0.5745E+03
   7.890  0.8727E+00  0.5941E+01  0.5745E+03
   7.900  0.9010E+00  0.8337E+01  0.5746E+03
   7.910  0.9341E+00  0.9816E+01  0.5747E+03
   7.920  0.9743E+00  0.1092E+02  0.5748E+03
   7.930  0.1024E+01  0.1666E+02  0.5750E+03
   7.940  0.1086E+01  0.1600E+02  0.5751E+03
   7.950  0.1160E+01  0.3269E+02  0.5753E+03
   7.960  0.1246E+01  0.3799E+02  0.5757E+03
   7.970  0.1344E+01  0.2723E+02  0.5761E+03
   7.980  0.1454E+01  0.1435E+02  0.5763E+03
   7.990  0.1578E+01  0.5659E+01  0.5764E+03
   8.000  0.1714E+01  0.2071E+01  0.5765E+03
   8.010  0.1861E+01  0.2014E+01  0.5765E+03
   8.020  0.2037E+01  0.2065E+01  0.5765E+03
   8.030  0.2267E+01  0.2158E+01  0.5766E+03
   8.040  0.2563E+01  0.2304E+01  0.5766E+03
   8.050  0.2923E+01  0.2529E+01  0.5767E+03
   8.060  0.3335E+01  0.2820E+01  0.5767E+03
   8.070  0.3719E+01  0.3175E+01  0.5768E+03
   8.080  0.4064E+01  0.3556E+01  0.5769E+03
   8.090  0.4366E+01  0.3928E+01  0.5770E+03
   8.100  0.4653E+01  0.4293E+01  0.5770E+03
   8.110  0.4991E+01  0.4650E+01  0.5771E+03
   8.120  0.5363E+01  0.5003E+01  0.5772E+03
   8.130  0.5664E+01  0.5340E+01  0.5773E+03
   8.140  0.5809E+01  0.5774E+01  0.5775E+03
   8.150  0.5836E+01  0.6126E+01  0.5776E+03
   8.160  0.5670E+01  0.6372E+01  0.5777E+03
   8.170  0.4746E+01  0.6518E+01  0.5778E+03
   8.180  0.3231E+01  0.6565E+01  0.5779E+03
   8.190  0.2504E+01  0.6385E+01  0.5780E+03
   8.200  0.2224E+01  0.5140E+01  0.5781E+03
   8.210  0.2119E+01  0.3603E+01  0.5782E+03
   8.220  0.2140E+01  0.2902E+01  0.5782E+03
   8.230  0.1344E+01  0.2632E+01  0.5783E+03
   8.240  0.1098E+01  0.2297E+01  0.5783E+03
   8.250  0.1089E+01  0.1295E+01  0.5783E+03
   8.260  0.1084E+01  0.1107E+01  0.5783E+03
   8.270  0.1105E+01  0.1097E+01  0.5784E+03
   8.280  0.1139E+01  0.1114E+01  0.5784E+03
   8.290  0.1180E+01  0.1143E+01  0.5784E+03
   8.300  0.1229E+01  0.1183E+01  0.5784E+03
   8.310  0.1281E+01  0.1232E+01  0.5785E+03
   8.320  0.1335E+01  0.1284E+01  0.5785E+03
   8.330  0.1389E+01  0.1339E+01  0.5785E+03
   8.340  0.1444E+01  0.1394E+01  0.5785E+03
   8.350  0.1502E+01  0.1450E+01  0.5786E+03
   8.360  0.1563E+01  0.1508E+01  0.5786E+03
   8.370  0.1628E+01  0.1570E+01  0.5786E+03
   8.380  0.1696E+01  0.1635E+01  0.5787E+03
   8.390  0.1767E+01  0.1703E+01  0.5787E+03
   8.400  0.1841E+01  0.1774E+01  0.5787E+03
   8.410  0.1911E+01  0.1849E+01  0.5788E+03
   8.420  0.1975E+01  0.1925E+01  0.5788E+03
   8.430  0.2030E+01  0.1998E+01  0.5789E+03
   8.440  0.2075E+01  0.2062E+01  0.5789E+03
   8.450  0.2108E+01  0.2117E+01  0.5789E+03
   8.460  0.2130E+01  0.2159E+01  0.5790E+03
   8.470  0.2141E+01  0.2189E+01  0.5790E+03
   8.480  0.2141E+01  0.2206E+01  0.5791E+03
   8.490  0.2131E+01  0.2211E+01  0.5791E+03
   8.500  0.2109E+01  0.2204E+01  0.5792E+03
   8.510  0.2077E+01  0.2184E+01  0.5792E+03
   8.520  0.2034E+01  0.2153E+01  0.5792E+03
   8.530  0.1974E+01  0.2109E+01  0.5793E+03
   8.540  0.1895E+01  0.2051E+01  0.5793E+03
   8.550  0.1824E+01  0.1963E+01  0.5794E+03
   8.560  0.1799E+01  0.1884E+01  0.5794E+03
   8.570  0.1850E+01  0.1837E+01  0.5794E+03
   8.580  0.2011E+01  0.1883E+01  0.5795E+03
   8.590  0.2100E+01  0.2084E+01  0.5795E+03
   8.600  0.2293E+01  0.2154E+01  0.5796E+03
   8.610  0.2528E+01  0.2401E+01  0.5796E+03
   8.620  0.2837E+01  0.2668E+01  0.5797E+03
   8.630  0.3456E+01  0.3006E+01  0.5797E+03
   8.640  0.4532E+01  0.3734E+01  0.5798E+03
   8.650  0.6230E+01  0.4806E+01  0.5799E+03
   8.660  0.7766E+01  0.6213E+01  0.5800E+03
   8.670  0.8275E+01  0.7409E+01  0.5802E+03
   8.680  0.8410E+01  0.8385E+01  0.5803E+03
   8.690  0.8264E+01  0.8674E+01  0.5805E+03
   8.700  0.7857E+01  0.8482E+01  0.5807E+03
   8.710  0.7199E+01  0.7834E+01  0.5808E+03
   8.720  0.6528E+01  0.6958E+01  0.5810E+03
   8.730  0.6154E+01  0.6429E+01  0.5811E+03
   8.740  0.5910E+01  0.6144E+01  0.5812E+03
   8.750  0.5741E+01  0.5945E+01  0.5813E+03
   8.760  0.5602E+01  0.5791E+01  0.5814E+03
   8.770  0.5452E+01  0.5634E+01  0.5816E+03
   8.780  0.5345E+01  0.5475E+01  0.5817E+03
   8.790  0.5134E+01  0.5352E+01  0.5818E+03
   8.800  0.4870E+01  0.5115E+01  0.5819E+03
   8.810  0.4988E+01  0.5098E+01  0.5820E+03
   8.820  0.4448E+01  0.4558E+01  0.5821E+03
   8.830  0.4151E+01  0.4049E+01  0.5822E+03
   8.840  0.4570E+01  0.4030E+01  0.5822E+03
   8.850  0.5338E+01  0.4425E+01  0.5823E+03
   8.860  0.6453E+01  0.5128E+01  0.5824E+03
   8.870  0.7914E+01  0.6139E+01  0.5826E+03
   8.880  0.9198E+01  0.7456E+01  0.5827E+03
   8.890  0.9121E+01  0.8769E+01  0.5829E+03
   8.900  0.9148E+01  0.9102E+01  0.5831E+03
   8.910  0.9280E+01  0.9283E+01  0.5833E+03
   8.920  0.9186E+01  0.9519E+01  0.5834E+03
   8.930  0.9069E+01  0.9424E+01  0.5836E+03
   8.940  0.9001E+01  0.9294E+01  0.5838E+03
   8.950  0.9065E+01  0.9250E+01  0.5840E+03
   8.960  0.9273E+01  0.9348E+01  0.5842E+03
   8.970  0.9608E+01  0.9644E+01  0.5844E+03
   8.980  0.9545E+01  0.9973E+01  0.5846E+03
   8.990  0.9356E+01  0.1003E+02  0.5848E+03
   9.000  0.9829E+01  0.9795E+01  0.5850E+03
   9.010  0.1065E+02  0.1019E+02  0.5852E+03
   9.020  0.1151E+02  0.1085E+02  0.5854E+03
   9.030  0.1300E+02  0.1173E+02  0.5856E+03
   9.040  0.1463E+02  0.1262E+02  0.5859E+03
   9.050  0.1584E+02  0.1363E+02  0.5861E+03
   9.060  0.1628E+02  0.1449E+02  0.5864E+03
   9.070  0.1601E+02  0.1466E+02  0.5868E+03
   9.080  0.1533E+02  0.1426E+02  0.5871E+03
   9.090  0.1441E+02  0.1360E+02  0.5873E+03
   9.100  0.1339E+02  0.1285E+02  0.5876E+03
   9.110  0.1244E+02  0.1221E+02  0.5879E+03
   9.120  0.1155E+02  0.1179E+02  0.5881E+03
   9.130  0.1047E+02  0.1143E+02  0.5883E+03
   9.140  0.9508E+01  0.1077E+02  0.5885E+03
   9.150  0.8279E+01  0.9869E+01  0.5887E+03
   9.160  0.7707E+01  0.9244E+01  0.5889E+03
   9.170  0.7821E+01  0.8709E+01  0.5891E+03
   9.180  0.8537E+01  0.8396E+01  0.5892E+03
   9.190  0.9328E+01  0.8560E+01  0.5894E+03
   9.200  0.1007E+02  0.8790E+01  0.5896E+03
   9.210  0.1104E+02  0.9563E+01  0.5898E+03
   9.220  0.1202E+02  0.1058E+02  0.5900E+03
   9.230  0.1282E+02  0.1165E+02  0.5903E+03
   9.240  0.1356E+02  0.1266E+02  0.5905E+03
   9.250  0.1415E+02  0.1353E+02  0.5908E+03
   9.260  0.1453E+02  0.1445E+02  0.5911E+03
   9.270  0.1475E+02  0.1533E+02  0.5914E+03
   9.280  0.1588E+02  0.1571E+02  0.5917E+03
   9.290  0.1882E+02  0.1585E+02  0.5920E+03
   9.300  0.2296E+02  0.1727E+02  0.5924E+03
   9.310  0.2404E+02  0.1919E+02  0.5928E+03
   9.320  0.2387E+02  0.2211E+02  0.5932E+03
   9.330  0.2481E+02  0.2391E+02  0.5937E+03
   9.340  0.2362E+02  0.2766E+02  0.5942E+03
   9.350  0.2372E+02  0.2246E+02  0.5947E+03
   9.360  0.2397E+02  0.2199E+02  0.5951E+03
   9.370  0.1895E+02  0.2272E+02  0.5956E+03
   9.380  0.1764E+02  0.2213E+02  0.5960E+03
   9.390  0.1586E+02  0.1791E+02  0.5963E+03
   9.400  0.1378E+02  0.1615E+02  0.5967E+03
   9.410  0.1150E+02  0.1467E+02  0.5969E+03
   9.420  0.9691E+01  0.1309E+02  0.5972E+03
   9.430  0.1084E+02  0.1153E+02  0.5974E+03
   9.440  0.1767E+02  0.1164E+02  0.5977E+03
   9.450  0.1787E+02  0.1525E+02  0.5980E+03
   9.460  0.2215E+02  0.1716E+02  0.5983E+03
   9.470  0.2002E+02  0.1689E+02  0.5987E+03
   9.480  0.2104E+02  0.1915E+02  0.5991E+03
   9.490  0.2280E+02  0.2294E+02  0.5995E+03
   9.500  0.2043E+02  0.2530E+02  0.6000E+03
   9.510  0.1904E+02  0.2332E+02  0.6004E+03
   9.520  0.1819E+02  0.2187E+02  0.6008E+03
   9.530  0.1756E+02  0.2033E+02  0.6012E+03
   9.540  0.1711E+02  0.1813E+02  0.6016E+03
   9.550  0.1853E+02  0.1669E+02  0.6019E+03
   9.560  0.1708E+02  0.1803E+02  0.6023E+03
   9.570  0.1556E+02  0.1579E+02  0.6026E+03
   9.580  0.1895E+02  0.1447E+02  0.6029E+03
   9.590  0.2054E+02  0.1493E+02  0.6033E+03
   9.600  0.2311E+02  0.2020E+02  0.6037E+03
   9.610  0.2453E+02  0.2153E+02  0.6041E+03
   9.620  0.2259E+02  0.2351E+02  0.6046E+03
   9.630  0.1912E+02  0.2344E+02  0.6050E+03
   9.640  0.1894E+02  0.2084E+02  0.6054E+03
   9.650  0.1883E+02  0.2037E+02  0.6058E+03
   9.660  0.1853E+02  0.1999E+02  0.6062E+03
   9.670  0.1856E+02  0.1936E+02  0.6066E+03
   9.680  0.1923E+02  0.1878E+02  0.6070E+03
   9.690  0.1906E+02  0.1714E+02  0.6074E+03
   9.700  0.1986E+02  0.1889E+02  0.6077E+03
   9.710  0.1696E+02  0.2102E+02  0.6081E+03
   9.720  0.1952E+02  0.2199E+02  0.6085E+03
   9.730  0.2563E+02  0.1970E+02  0.6089E+03
   9.740  0.3377E+02  0.2646E+02  0.6095E+03
   9.750  0.3340E+02  0.3189E+02  0.6101E+03
   9.760  0.3387E+02  0.2634E+02  0.6107E+03
   9.770  0.3271E+02  0.3049E+02  0.6114E+03
   9.780  0.3394E+02  0.3079E+02  0.6120E+03
   9.790  0.3712E+02  0.4082E+02  0.6127E+03
   9.800  0.3384E+02  0.3203E+02  0.6134E+03
   9.810  0.3165E+02  0.3636E+02  0.6141E+03
   9.820  0.2463E+02  0.2912E+02  0.6147E+03
   9.830  0.2423E+02  0.2722E+02  0.6152E+03
   9.840  0.2822E+02  0.2725E+02  0.6158E+03
   9.850  0.2843E+02  0.2864E+02  0.6163E+03
   9.860  0.2657E+02  0.2739E+02  0.6169E+03
   9.870  0.2611E+02  0.2555E+02  0.6174E+03
   9.880  0.2596E+02  0.2579E+02  0.6179E+03
   9.890  0.2601E+02  0.2555E+02  0.6184E+03
   9.900  0.2580E+02  0.2565E+02  0.6190E+03
   9.910  0.2577E+02  0.2522E+02  0.6195E+03
   9.920  0.2686E+02  0.2485E+02  0.6200E+03
   9.930  0.2701E+02  0.2522E+02  0.6205E+03
   9.940  0.2672E+02  0.2668E+02  0.6210E+03
   9.950  0.2658E+02  0.2683E+02  0.6216E+03
   9.960  0.2716E+02  0.2686E+02  0.6221E+03
   9.970  0.2765E+02  0.2699E+02  0.6226E+03
   9.980  0.2720E+02  0.2820E+02  0.6232E+03
   9.990  0.2706E+02  0.2724E+02  0.6237E+03
  10.000  0.2647E+02  0.2585E+02  0.6243E+03
  10.010  0.2786E+02  0.2490E+02  0.6248E+03
  10.020  0.2699E+02  0.2564E+02  0.6253E+03
  10.030  0.2486E+02  0.2723E+02  0.6259E+03
  10.040  0.2323E+02  0.2614E+02  0.6264E+03
  10.050  0.2258E+02  0.2376E+02  0.6268E+03
  10.060  0.2096E+02  0.2335E+02  0.6273E+03
  10.070  0.1888E+02  0.2212E+02  0.6277E+03
  10.080  0.1770E+02  0.1987E+02  0.6281E+03
  10.090  0.2363E+02  0.1762E+02  0.6285E+03
  10.100  0.2309E+02  0.1807E+02  0.6289E+03
  10.110  0.2354E+02  0.2237E+02  0.6294E+03
  10.120  0.1883E+02  0.2275E+02  0.6298E+03
  10.130  0.1713E+02  0.2037E+02  0.6302E+03
  10.140  0.1697E+02  0.1837E+02  0.6306E+03
  10.150  0.2067E+02  0.1703E+02  0.6309E+03
  10.160  0.2662E+02  0.1617E+02  0.6313E+03
  10.170  0.2722E+02  0.2014E+02  0.6318E+03
  10.180  0.2634E+02  0.2808E+02  0.6323E+03
  10.190  0.1978E+02  0.3331E+02  0.6328E+03
  10.200  0.2095E+02  0.2673E+02  0.6334E+03
  10.210  0.2313E+02  0.2040E+02  0.6338E+03
  10.220  0.2643E+02  0.2306E+02  0.6342E+03
  10.230  0.2656E+02  0.2503E+02  0.6348E+03
  10.240  0.2656E+02  0.2717E+02  0.6353E+03
  10.250  0.2131E+02  0.2700E+02  0.6358E+03
  10.260  0.2045E+02  0.1984E+02  0.6363E+03
  10.270  0.1925E+02  0.1769E+02  0.6366E+03
  10.280  0.1773E+02  0.1738E+02  0.6370E+03
  10.290  0.1657E+02  0.1796E+02  0.6373E+03
  10.300  0.1646E+02  0.1876E+02  0.6377E+03
  10.310  0.1611E+02  0.1801E+02  0.6380E+03
  10.320  0.1573E+02  0.1690E+02  0.6384E+03
  10.330  0.1566E+02  0.1631E+02  0.6387E+03
  10.340  0.1585E+02  0.1612E+02  0.6390E+03
  10.350  0.1613E+02  0.1610E+02  0.6393E+03
  10.360  0.1611E+02  0.1605E+02  0.6397E+03
  10.370  0.1621E+02  0.1584E+02  0.6400E+03
  10.380  0.1641E+02  0.1586E+02  0.6403E+03
  10.390  0.1687E+02  0.1599E+02  0.6406E+03
  10.400  0.1750E+02  0.1627E+02  0.6410E+03
  10.410  0.1818E+02  0.1678E+02  0.6413E+03
  10.420  0.1886E+02  0.1731E+02  0.6417E+03
  10.430  0.1845E+02  0.1788E+02  0.6420E+03
  10.440  0.1845E+02  0.1818E+02  0.6424E+03
  10.450  0.1918E+02  0.1822E+02  0.6428E+03
  10.460  0.1930E+02  0.1842E+02  0.6431E+03
  10.470  0.1911E+02  0.1831E+02  0.6435E+03
  10.480  0.1755E+02  0.1775E+02  0.6439E+03
  10.490  0.1608E+02  0.1759E+02  0.6442E+03
  10.500  0.1491E+02  0.1695E+02  0.6445E+03
  10.510  0.1421E+02  0.1591E+02  0.6449E+03
  10.520  0.1414E+02  0.1500E+02  0.6452E+03
  10.530  0.1633E+02  0.1460E+02  0.6454E+03
  10.540  0.1632E+02  0.1516E+02  0.6458E+03
  10.550  0.1507E+02  0.1646E+02  0.6461E+03
  10.560  0.1571E+02  0.1638E+02  0.6464E+03
  10.570  0.1677E+02  0.1459E+02  0.6467E+03
  10.580  0.1393E+02  0.1546E+02  0.6470E+03
  10.590  0.1490E+02  0.1359E+02  0.6473E+03
  10.600  0.1346E+02  0.1347E+02  0.6476E+03
  10.610  0.1310E+02  0.1282E+02  0.6479E+03
  10.620  0.1226E+02  0.1321E+02  0.6481E+03
  10.630  0.1299E+02  0.1260E+02  0.6484E+03
  10.640  0.1577E+02  0.1149E+02  0.6487E+03
  10.650  0.1388E+02  0.1339E+02  0.6489E+03
  10.660  0.1289E+02  0.1535E+02  0.6492E+03
  10.670  0.1237E+02  0.1609E+02  0.6495E+03
  10.680  0.1481E+02  0.1283E+02  0.6498E+03
  10.690  0.1656E+02  0.1356E+02  0.6501E+03
  10.700  0.1485E+02  0.1416E+02  0.6504E+03
  10.710  0.1415E+02  0.1545E+02  0.6507E+03
  10.720  0.1378E+02  0.1562E+02  0.6509E+03
  10.730  0.1330E+02  0.1674E+02  0.6512E+03
  10.740  0.1306E+02  0.1548E+02  0.6515E+03
  10.750  0.1271E+02  0.1489E+02  0.6518E+03
  10.760  0.1279E+02  0.1346E+02  0.6521E+03
  10.770  0.1289E+02  0.1278E+02  0.6524E+03
  10.780  0.1320E+02  0.1229E+02  0.6526E+03
  10.790  0.1569E+02  0.1207E+02  0.6529E+03
  10.800  0.1656E+02  0.1423E+02  0.6532E+03
  10.810  0.1391E+02  0.1498E+02  0.6535E+03
  10.820  0.1401E+02  0.1307E+02  0.6537E+03
  10.830  0.1568E+02  0.1296E+02  0.6540E+03
  10.840  0.1591E+02  0.1475E+02  0.6543E+03
  10.850  0.1646E+02  0.1719E+02  0.6546E+03
  10.860  0.1663E+02  0.1717E+02  0.6550E+03
  10.870  0.1658E+02  0.1657E+02  0.6553E+03
  10.880  0.1640E+02  0.1572E+02  0.6556E+03
  10.890  0.1610E+02  0.1564E+02  0.6560E+03
  10.900  0.1380E+02  0.1572E+02  0.6563E+03
  10.910  0.1218E+02  0.1692E+02  0.6566E+03
  10.920  0.1191E+02  0.1394E+02  0.6568E+03
  10.930  0.1357E+02  0.1352E+02  0.6571E+03
  10.940  0.1732E+02  0.1374E+02  0.6574E+03
  10.950  0.1812E+02  0.1427E+02  0.6577E+03
  10.960  0.1666E+02  0.1512E+02  0.6580E+03
  10.970  0.1526E+02  0.1808E+02  0.6583E+03
  10.980  0.1441E+02  0.1526E+02  0.6587E+03
  10.990  0.1374E+02  0.1355E+02  0.6589E+03
  11.000  0.1335E+02  0.1248E+02  0.6592E+03
  11.010  0.1320E+02  0.1184E+02  0.6595E+03
  11.020  0.1306E+02  0.1174E+02  0.6597E+03
  11.030  0.1261E+02  0.1178E+02  0.6600E+03
  11.040  0.1237E+02  0.1189E+02  0.6602E+03
  11.050  0.1208E+02  0.1241E+02  0.6605E+03
  11.060  0.1181E+02  0.1253E+02  0.6607E+03
  11.070  0.1157E+02  0.1267E+02  0.6609E+03
  11.080  0.1176E+02  0.1289E+02  0.6612E+03
  11.090  0.1275E+02  0.1318E+02  0.6614E+03
  11.100  0.1498E+02  0.1332E+02  0.6617E+03
  11.110  0.1441E+02  0.1395E+02  0.6620E+03
  11.120  0.1348E+02  0.1590E+02  0.6623E+03
  11.130  0.1341E+02  0.1555E+02  0.6626E+03
  11.140  0.1339E+02  0.1506E+02  0.6629E+03
  11.150  0.1329E+02  0.1428E+02  0.6631E+03
  11.160  0.1295E+02  0.1402E+02  0.6634E+03
  11.170  0.1229E+02  0.1374E+02  0.6637E+03
  11.180  0.1193E+02  0.1273E+02  0.6639E+03
  11.190  0.1163E+02  0.1217E+02  0.6642E+03
  11.200  0.1143E+02  0.1188E+02  0.6644E+03
  11.210  0.1107E+02  0.1170E+02  0.6646E+03
  11.220  0.1062E+02  0.1137E+02  0.6649E+03
  11.230  0.1166E+02  0.1129E+02  0.6651E+03
  11.240  0.1235E+02  0.1208E+02  0.6653E+03
  11.250  0.1299E+02  0.1270E+02  0.6656E+03
  11.260  0.1377E+02  0.1321E+02  0.6658E+03
  11.270  0.1498E+02  0.1381E+02  0.6661E+03
  11.280  0.1679E+02  0.1463E+02  0.6664E+03
  11.290  0.1819E+02  0.1619E+02  0.6667E+03
  11.300  0.1937E+02  0.1803E+02  0.6671E+03
  11.310  0.2067E+02  0.1952E+02  0.6675E+03
  11.320  0.2148E+02  0.2111E+02  0.6679E+03
  11.330  0.2198E+02  0.2216E+02  0.6683E+03
  11.340  0.2231E+02  0.2227E+02  0.6688E+03
  11.350  0.2375E+02  0.2243E+02  0.6692E+03
  11.360  0.2659E+02  0.2376E+02  0.6697E+03
  11.370  0.2784E+02  0.2660E+02  0.6702E+03
  11.380  0.2696E+02  0.2765E+02  0.6708E+03
  11.390  0.2472E+02  0.2910E+02  0.6713E+03
  11.400  0.2340E+02  0.2320E+02  0.6718E+03
  11.410  0.2422E+02  0.2314E+02  0.6723E+03
  11.420  0.2422E+02  0.2414E+02  0.6728E+03
  11.430  0.2364E+02  0.2340E+02  0.6733E+03
  11.440  0.2331E+02  0.2282E+02  0.6737E+03
  11.450  0.2268E+02  0.2216E+02  0.6742E+03
  11.460  0.2238E+02  0.2131E+02  0.6746E+03
  11.470  0.2302E+02  0.2155E+02  0.6751E+03
  11.480  0.2376E+02  0.2244E+02  0.6755E+03
  11.490  0.2362E+02  0.2340E+02  0.6760E+03
  11.500  0.2371E+02  0.2370E+02  0.6765E+03
  11.510  0.2175E+02  0.2242E+02  0.6769E+03
  11.520  0.2270E+02  0.2154E+02  0.6774E+03
  11.530  0.2141E+02  0.2327E+02  0.6778E+03
  11.540  0.2028E+02  0.2282E+02  0.6782E+03
  11.550  0.1765E+02  0.1952E+02  0.6787E+03
  11.560  0.1852E+02  0.1775E+02  0.6790E+03
  11.570  0.2038E+02  0.1859E+02  0.6794E+03
  11.580  0.2500E+02  0.1999E+02  0.6798E+03
  11.590  0.2573E+02  0.2393E+02  0.6803E+03
  11.600  0.2687E+02  0.2337E+02  0.6808E+03
  11.610  0.2220E+02  0.2158E+02  0.6813E+03
  11.620  0.2100E+02  0.2278E+02  0.6817E+03
  11.630  0.2048E+02  0.2320E+02  0.6821E+03
  11.640  0.2029E+02  0.2153E+02  0.6826E+03
  11.650  0.1969E+02  0.2141E+02  0.6830E+03
  11.660  0.1923E+02  0.2068E+02  0.6834E+03
  11.670  0.1879E+02  0.2010E+02  0.6838E+03
  11.680  0.1836E+02  0.1963E+02  0.6842E+03
  11.690  0.1771E+02  0.1912E+02  0.6845E+03
  11.700  0.1724E+02  0.1843E+02  0.6849E+03
  11.710  0.1660E+02  0.1783E+02  0.6853E+03
  11.720  0.1535E+02  0.1718E+02  0.6856E+03
  11.730  0.1381E+02  0.1635E+02  0.6859E+03
  11.740  0.1288E+02  0.1433E+02  0.6862E+03
  11.750  0.1142E+02  0.1341E+02  0.6864E+03
  11.760  0.9530E+01  0.1221E+02  0.6867E+03
  11.770  0.8024E+01  0.1049E+02  0.6869E+03
  11.780  0.6748E+01  0.8984E+01  0.6871E+03
  11.790  0.6209E+01  0.7580E+01  0.6872E+03
  11.800  0.5675E+01  0.6533E+01  0.6873E+03
  11.810  0.5099E+01  0.5847E+01  0.6874E+03
  11.820  0.4020E+01  0.5222E+01  0.6875E+03
  11.830  0.3407E+01  0.4043E+01  0.6876E+03
  11.840  0.2944E+01  0.3454E+01  0.6877E+03
  11.850  0.2479E+01  0.3008E+01  0.6878E+03
  11.860  0.2005E+01  0.2581E+01  0.6878E+03
  11.870  0.1564E+01  0.1989E+01  0.6878E+03
  11.880  0.1295E+01  0.1569E+01  0.6879E+03
  11.890  0.1065E+01  0.1256E+01  0.6879E+03
  11.900  0.8727E+00  0.1006E+01  0.6879E+03
  11.910  0.7144E+00  0.8202E+00  0.6879E+03
  11.920  0.5758E+00  0.6702E+00  0.6880E+03
  11.930  0.4534E+00  0.5385E+00  0.6880E+03
  11.940  0.3472E+00  0.4235E+00  0.6880E+03
  11.950  0.2570E+00  0.3252E+00  0.6880E+03
  11.960  0.1829E+00  0.2436E+00  0.6880E+03
  11.970  0.1249E+00  0.1786E+00  0.6880E+03
  11.980  0.8036E-01  0.1278E+00  0.6880E+03
  11.990  0.4575E-01  0.8574E-01  0.6880E+03
  12.000  0.2087E-01  0.5203E-01  0.6880E+03
  12.010  0.5711E-02  0.2672E-01  0.6880E+03
  12.020  0.2264E-03  0.9793E-02  0.6880E+03
  12.030  0.0000E+00  0.1264E-02  0.6880E+03
  12.040  0.0000E+00  0.0000E+00  0.6880E+03
  12.050  0.0000E+00  0.0000E+00  0.6880E+03
  12.060  0.0000E+00  0.0000E+00  0.6880E+03
  12.070  0.0000E+00  0.0000E+00  0.6880E+03
  12.080  0.0000E+00  0.0000E+00  0.6880E+03
  12.090  0.0000E+00  0.0000E+00  0.6880E+03
  12.100  0.0000E+00  0.0000E+00  0.6880E+03
  12.110  0.0000E+00  0.0000E+00  0.6880E+03
  12.120  0.0000E+00  0.0000E+00  0.6880E+03
  12.130  0.0000E+00  0.0000E+00  0.6880E+03
  12.140  0.0000E+00  0.0000E+00  0.6880E+03
  12.150  0.0000E+00  0.0000E+00  0.6880E+03
  12.160  0.0000E+00  0.0000E+00  0.6880E+03
  12.170  0.0000E+00  0.0000E+00  0.6880E+03
  12.180  0.0000E+00  0.0000E+00  0.6880E+03
  12.190  0.0000E+00  0.0000E+00  0.6880E+03
  12.200  0.0000E+00  0.0000E+00  0.6880E+03
  12.210  0.0000E+00  0.0000E+00  0.6880E+03
  12.220  0.0000E+00  0.0000E+00  0.6880E+03
  12.230  0.0000E+00  0.0000E+00  0.6880E+03
  12.240  0.0000E+00  0.0000E+00  0.6880E+03
  12.250  0.0000E+00  0.0000E+00  0.6880E+03
  12.260  0.0000E+00  0.0000E+00  0.6880E+03
  12.270  0.0000E+00  0.0000E+00  0.6880E+03
  12.280  0.0000E+00  0.0000E+00  0.6880E+03
  12.290  0.0000E+00  0.0000E+00  0.6880E+03
  12.300  0.0000E+00  0.0000E+00  0.6880E+03
  12.310  0.0000E+00  0.0000E+00  0.6880E+03
  12.320  0.0000E+00  0.0000E+00  0.6880E+03
  12.330  0.0000E+00  0.0000E+00  0.6880E+03
  12.340  0.0000E+00  0.0000E+00  0.6880E+03
  12.350  0.0000E+00  0.0000E+00  0.6880E+03
  12.360  0.0000E+00  0.0000E+00  0.6880E+03
  12.370  0.0000E+00  0.0000E+00  0.6880E+03
  12.380  0.0000E+00  0.0000E+00  0.6880E+03
  12.390  0.0000E+00  0.0000E+00  0.6880E+03
  12.400  0.0000E+00  0.0000E+00  0.6880E+03
  12.410  0.0000E+00  0.0000E+00  0.6880E+03
  12.420  0.0000E+00  0.0000E+00  0.6880E+03
  12.430  0.0000E+00  0.0000E+00  0.6880E+03
  12.440  0.0000E+00  0.0000E+00  0.6880E+03
  12.450  0.0000E+00  0.0000E+00  0.6880E+03
  12.460  0.0000E+00  0.0000E+00  0.6880E+03
  12.470  0.0000E+00  0.0000E+00  0.6880E+03
  12.480  0.0000E+00  0.0000E+00  0.6880E+03
  12.490  0.0000E+00  0.0000E+00  0.6880E+03
  12.500  0.0000E+00  0.0000E+00  0.6880E+03
  12.510  0.0000E+00  0.0000E+00  0.6880E+03
  12.520  0.0000E+00  0.0000E+00  0.6880E+03
  12.530  0.0000E+00  0.0000E+00  0.6880E+03
  12.540  0.0000E+00  0.0000E+00  0.6880E+03
  12.550  0.0000E+00  0.0000E+00  0.6880E+03
  12.560  0.0000E+00  0.0000E+00  0.6880E+03
  12.570  0.0000E+00  0.0000E+00  0.6880E+03
  12.580  0.0000E+00  0.0000E+00  0.6880E+03
  12.590  0.0000E+00  0.0000E+00  0.6880E+03
  12.600  0.0000E+00  0.0000E+00  0.6880E+03
  12.610  0.0000E+00  0.0000E+00  0.6880E+03
  12.620  0.0000E+00  0.0000E+00  0.6880E+03
  12.630  0.0000E+00  0.0000E+00  0.6880E+03
  12.640  0.0000E+00  0.0000E+00  0.6880E+03
  12.650  0.0000E+00  0.0000E+00  0.6880E+03
  12.660  0.0000E+00  0.0000E+00  0.6880E+03
  12.670  0.0000E+00  0.0000E+00  0.6880E+03
  12.680  0.0000E+00  0.0000E+00  0.6880E+03
  12.690  0.0000E+00  0.0000E+00  0.6880E+03
  12.700  0.0000E+00  0.0000E+00  0.6880E+03
  12.710  0.0000E+00  0.0000E+00  0.6880E+03
  12.720  0.0000E+00  0.0000E+00  0.6880E+03
  12.730  0.0000E+00  0.0000E+00  0.6880E+03
  12.740  0.0000E+00  0.0000E+00  0.6880E+03
  12.750  0.0000E+00  0.0000E+00  0.6880E+03
  12.760  0.0000E+00  0.0000E+00  0.6880E+03
  12.770  0.0000E+00  0.0000E+00  0.6880E+03
  12.780  0.0000E+00  0.0000E+00  0.6880E+03
  12.790  0.0000E+00  0.0000E+00  0.6880E+03
  12.800  0.0000E+00  0.0000E+00  0.6880E+03
  12.810  0.0000E+00  0.0000E+00  0.6880E+03
  12.820  0.0000E+00  0.0000E+00  0.6880E+03
  12.830  0.0000E+00  0.0000E+00  0.6880E+03
  12.840  0.0000E+00  0.0000E+00  0.6880E+03
  12.850  0.0000E+00  0.0000E+00  0.6880E+03
  12.860  0.0000E+00  0.0000E+00  0.6880E+03
  12.870  0.0000E+00  0.0000E+00  0.6880E+03
  12.880  0.0000E+00  0.0000E+00  0.6880E+03
  12.890  0.0000E+00  0.0000E+00  0.6880E+03
  12.900  0.0000E+00  0.0000E+00  0.6880E+03
  12.910  0.0000E+00  0.0000E+00  0.6880E+03
  12.920  0.0000E+00  0.0000E+00  0.6880E+03
  12.930  0.0000E+00  0.0000E+00  0.6880E+03
  12.940  0.0000E+00  0.0000E+00  0.6880E+03
  12.950  0.0000E+00  0.0000E+00  0.6880E+03
  12.960  0.0000E+00  0.0000E+00  0.6880E+03
  12.970  0.0000E+00  0.0000E+00  0.6880E+03
  12.980  0.0000E+00  0.0000E+00  0.6880E+03
  12.990  0.0000E+00  0.0000E+00  0.6880E+03
  13.000  0.0000E+00  0.0000E+00  0.6880E+03
  13.010  0.0000E+00  0.0000E+00  0.6880E+03
  13.020  0.0000E+00  0.0000E+00  0.6880E+03
  13.030  0.0000E+00  0.0000E+00  0.6880E+03
  13.040  0.0000E+00  0.0000E+00  0.6880E+03
  13.050  0.0000E+00  0.0000E+00  0.6880E+03
  13.060  0.0000E+00  0.0000E+00  0.6880E+03
  13.070  0.0000E+00  0.0000E+00  0.6880E+03
  13.080  0.0000E+00  0.0000E+00  0.6880E+03
  13.090  0.0000E+00  0.0000E+00  0.6880E+03
  13.100  0.0000E+00  0.0000E+00  0.6880E+03
  13.110  0.0000E+00  0.0000E+00  0.6880E+03
  13.120  0.0000E+00  0.0000E+00  0.6880E+03
  13.130  0.0000E+00  0.0000E+00  0.6880E+03
  13.140  0.0000E+00  0.0000E+00  0.6880E+03
  13.150  0.0000E+00  0.0000E+00  0.6880E+03
  13.160  0.0000E+00  0.0000E+00  0.6880E+03
  13.170  0.0000E+00  0.0000E+00  0.6880E+03
  13.180  0.0000E+00  0.0000E+00  0.6880E+03
  13.190  0.0000E+00  0.0000E+00  0.6880E+03
  13.200  0.0000E+00  0.0000E+00  0.6880E+03
  13.210  0.0000E+00  0.0000E+00  0.6880E+03
  13.220  0.0000E+00  0.0000E+00  0.6880E+03
  13.230  0.0000E+00  0.0000E+00  0.6880E+03
  13.240  0.0000E+00  0.0000E+00  0.6880E+03
  13.250  0.0000E+00  0.0000E+00  0.6880E+03
  13.260  0.0000E+00  0.0000E+00  0.6880E+03
  13.270  0.0000E+00  0.0000E+00  0.6880E+03
  13.280  0.0000E+00  0.0000E+00  0.6880E+03
  13.290  0.0000E+00  0.0000E+00  0.6880E+03
  13.300  0.0000E+00  0.0000E+00  0.6880E+03
  13.310  0.0000E+00  0.0000E+00  0.6880E+03
  13.320  0.0000E+00  0.0000E+00  0.6880E+03
  13.330  0.0000E+00  0.0000E+00  0.6880E+03
  13.340  0.0000E+00  0.0000E+00  0.6880E+03
  13.350  0.0000E+00  0.0000E+00  0.6880E+03
  13.360  0.0000E+00  0.0000E+00  0.6880E+03
  13.370  0.0000E+00  0.0000E+00  0.6880E+03
  13.380  0.0000E+00  0.0000E+00  0.6880E+03
  13.390  0.0000E+00  0.0000E+00  0.6880E+03
  13.400  0.0000E+00  0.0000E+00  0.6880E+03
  13.410  0.0000E+00  0.0000E+00  0.6880E+03
  13.420  0.0000E+00  0.0000E+00  0.6880E+03
  13.430  0.0000E+00  0.0000E+00  0.6880E+03
  13.440  0.0000E+00  0.0000E+00  0.6880E+03
  13.450  0.0000E+00  0.0000E+00  0.6880E+03
  13.460  0.0000E+00  0.0000E+00  0.6880E+03
  13.470  0.0000E+00  0.0000E+00  0.6880E+03
  13.480  0.0000E+00  0.0000E+00  0.6880E+03
  13.490  0.0000E+00  0.0000E+00  0.6880E+03
  13.500  0.0000E+00  0.0000E+00  0.6880E+03
  13.510  0.0000E+00  0.0000E+00  0.6880E+03
  13.520  0.0000E+00  0.0000E+00  0.6880E+03
  13.530  0.0000E+00  0.0000E+00  0.6880E+03
  13.540  0.0000E+00  0.0000E+00  0.6880E+03
  13.550  0.0000E+00  0.0000E+00  0.6880E+03
  13.560  0.0000E+00  0.0000E+00  0.6880E+03
  13.570  0.0000E+00  0.0000E+00  0.6880E+03
  13.580  0.0000E+00  0.0000E+00  0.6880E+03
  13.590  0.0000E+00  0.0000E+00  0.6880E+03
  13.600  0.0000E+00  0.0000E+00  0.6880E+03
  13.610  0.0000E+00  0.0000E+00  0.6880E+03
  13.620  0.0000E+00  0.0000E+00  0.6880E+03
  13.630  0.0000E+00  0.0000E+00  0.6880E+03
  13.640  0.0000E+00  0.0000E+00  0.6880E+03
  13.650  0.0000E+00  0.0000E+00  0.6880E+03
  13.660  0.0000E+00  0.0000E+00  0.6880E+03
  13.670  0.0000E+00  0.0000E+00  0.6880E+03
  13.680  0.0000E+00  0.0000E+00  0.6880E+03
  13.690  0.0000E+00  0.0000E+00  0.6880E+03
  13.700  0.0000E+00  0.0000E+00  0.6880E+03
  13.710  0.0000E+00  0.0000E+00  0.6880E+03
  13.720  0.0000E+00  0.0000E+00  0.6880E+03
  13.730  0.0000E+00  0.0000E+00  0.6880E+03
  13.740  0.0000E+00  0.0000E+00  0.6880E+03
  13.750  0.0000E+00  0.0000E+00  0.6880E+03
  13.760  0.0000E+00  0.0000E+00  0.6880E+03
  13.770  0.0000E+00  0.0000E+00  0.6880E+03
  13.780  0.0000E+00  0.0000E+00  0.6880E+03
  13.790  0.0000E+00  0.0000E+00  0.6880E+03
  13.800  0.0000E+00  0.0000E+00  0.6880E+03
  13.810  0.0000E+00  0.0000E+00  0.6880E+03
  13.820  0.0000E+00  0.0000E+00  0.6880E+03
  13.830  0.0000E+00  0.0000E+00  0.6880E+03
  13.840  0.0000E+00  0.0000E+00  0.6880E+03
  13.850  0.0000E+00  0.0000E+00  0.6880E+03
  13.860  0.0000E+00  0.0000E+00  0.6880E+03
  13.870  0.0000E+00  0.0000E+00  0.6880E+03
  13.880  0.0000E+00  0.0000E+00  0.6880E+03
  13.890  0.0000E+00  0.0000E+00  0.6880E+03
  13.900  0.0000E+00  0.0000E+00  0.6880E+03
  13.910  0.0000E+00  0.0000E+00  0.6880E+03
  13.920  0.0000E+00  0.0000E+00  0.6880E+03
  13.930  0.0000E+00  0.0000E+00  0.6880E+03
  13.940  0.0000E+00  0.0000E+00  0.6880E+03
  13.950  0.0000E+00  0.0000E+00  0.6880E+03
  13.960  0.0000E+00  0.0000E+00  0.6880E+03
  13.970  0.0000E+00  0.0000E+00  0.6880E+03
  13.980  0.0000E+00  0.0000E+00  0.6880E+03
  13.990  0.0000E+00  0.0000E+00  0.6880E+03
  14.000  0.0000E+00  0.0000E+00  0.6880E+03
  14.010  0.0000E+00  0.0000E+00  0.6880E+03
  14.020  0.0000E+00  0.0000E+00  0.6880E+03
  14.030  0.0000E+00  0.0000E+00  0.6880E+03
  14.040  0.0000E+00  0.0000E+00  0.6880E+03
  14.050  0.0000E+00  0.0000E+00  0.6880E+03
  14.060  0.0000E+00  0.0000E+00  0.6880E+03
  14.070  0.0000E+00  0.0000E+00  0.6880E+03
  14.080  0.0000E+00  0.0000E+00  0.6880E+03
  14.090  0.0000E+00  0.0000E+00  0.6880E+03
  14.100  0.0000E+00  0.0000E+00  0.6880E+03
  14.110  0.0000E+00  0.0000E+00  0.6880E+03
  14.120  0.0000E+00  0.0000E+00  0.6880E+03
  14.130  0.0000E+00  0.0000E+00  0.6880E+03
  14.140  0.0000E+00  0.0000E+00  0.6880E+03
  14.150  0.0000E+00  0.0000E+00  0.6880E+03
  14.160  0.0000E+00  0.0000E+00  0.6880E+03
  14.170  0.0000E+00  0.0000E+00  0.6880E+03
  14.180  0.0000E+00  0.0000E+00  0.6880E+03
  14.190  0.0000E+00  0.0000E+00  0.6880E+03
  14.200  0.0000E+00  0.0000E+00  0.6880E+03
  14.210  0.0000E+00  0.0000E+00  0.6880E+03
  14.220  0.0000E+00  0.0000E+00  0.6880E+03
  14.230  0.0000E+00  0.0000E+00  0.6880E+03
  14.240  0.0000E+00  0.0000E+00  0.6880E+03
  14.250  0.0000E+00  0.0000E+00  0.6880E+03
  14.260  0.0000E+00  0.0000E+00  0.6880E+03
  14.270  0.0000E+00  0.0000E+00  0.6880E+03
  14.280  0.0000E+00  0.0000E+00  0.6880E+03
  14.290  0.0000E+00  0.0000E+00  0.6880E+03
  14.300  0.0000E+00  0.0000E+00  0.6880E+03
  14.310  0.0000E+00  0.0000E+00  0.6880E+03
  14.320  0.0000E+00  0.0000E+00  0.6880E+03
  14.330  0.0000E+00  0.0000E+00  0.6880E+03
  14.340  0.0000E+00  0.0000E+00  0.6880E+03
  14.350  0.0000E+00  0.0000E+00  0.6880E+03
  14.360  0.0000E+00  0.0000E+00  0.6880E+03
  14.370  0.0000E+00  0.0000E+00  0.6880E+03
  14.380  0.0000E+00  0.0000E+00  0.6880E+03
  14.390  0.0000E+00  0.0000E+00  0.6880E+03
  14.400  0.0000E+00  0.0000E+00  0.6880E+03
  14.410  0.0000E+00  0.0000E+00  0.6880E+03
  14.420  0.0000E+00  0.0000E+00  0.6880E+03
  14.430  0.0000E+00  0.0000E+00  0.6880E+03
  14.440  0.0000E+00  0.0000E+00  0.6880E+03
  14.450  0.0000E+00  0.0000E+00  0.6880E+03
  14.460  0.0000E+00  0.0000E+00  0.6880E+03
  14.470  0.0000E+00  0.0000E+00  0.6880E+03
  14.480  0.0000E+00  0.0000E+00  0.6880E+03
  14.490  0.0000E+00  0.0000E+00  0.6880E+03
  14.500  0.0000E+00  0.0000E+00  0.6880E+03
  14.510  0.0000E+00  0.0000E+00  0.6880E+03
  14.520  0.0000E+00  0.0000E+00  0.6880E+03
  14.530  0.0000E+00  0.0000E+00  0.6880E+03
  14.540  0.0000E+00  0.0000E+00  0.6880E+03
  14.550  0.0000E+00  0.0000E+00  0.6880E+03
  14.560  0.0000E+00  0.0000E+00  0.6880E+03
  14.570  0.0000E+00  0.0000E+00  0.6880E+03
  14.580  0.0000E+00  0.0000E+00  0.6880E+03
  14.590  0.0000E+00  0.0000E+00  0.6880E+03
  14.600  0.0000E+00  0.0000E+00  0.6880E+03
  14.610  0.0000E+00  0.0000E+00  0.6880E+03
  14.620  0.0000E+00  0.0000E+00  0.6880E+03
  14.630  0.0000E+00  0.0000E+00  0.6880E+03
  14.640  0.0000E+00  0.0000E+00  0.6880E+03
  14.650  0.0000E+00  0.0000E+00  0.6880E+03
  14.660  0.0000E+00  0.0000E+00  0.6880E+03
  14.670  0.0000E+00  0.0000E+00  0.6880E+03
  14.680  0.0000E+00  0.0000E+00  0.6880E+03
  14.690  0.0000E+00  0.0000E+00  0.6880E+03
  14.700  0.0000E+00  0.0000E+00  0.6880E+03
  14.710  0.0000E+00  0.0000E+00  0.6880E+03
  14.720  0.0000E+00  0.0000E+00  0.6880E+03
  14.730  0.0000E+00  0.0000E+00  0.6880E+03
  14.740  0.0000E+00  0.0000E+00  0.6880E+03
  14.750  0.0000E+00  0.0000E+00  0.6880E+03
  14.760  0.0000E+00  0.0000E+00  0.6880E+03
  14.770  0.0000E+00  0.0000E+00  0.6880E+03
  14.780  0.0000E+00  0.0000E+00  0.6880E+03
  14.790  0.0000E+00  0.0000E+00  0.6880E+03
  14.800  0.0000E+00  0.0000E+00  0.6880E+03
  14.810  0.0000E+00  0.0000E+00  0.6880E+03
  14.820  0.0000E+00  0.0000E+00  0.6880E+03
  14.830  0.0000E+00  0.0000E+00  0.6880E+03
  14.840  0.0000E+00  0.0000E+00  0.6880E+03
  14.850  0.0000E+00  0.0000E+00  0.6880E+03
  14.860  0.0000E+00  0.0000E+00  0.6880E+03
  14.870  0.0000E+00  0.0000E+00  0.6880E+03
  14.880  0.0000E+00  0.0000E+00  0.6880E+03
  14.890  0.0000E+00  0.0000E+00  0.6880E+03
  14.900  0.0000E+00  0.0000E+00  0.6880E+03
  14.910  0.0000E+00  0.0000E+00  0.6880E+03
  14.920  0.0000E+00  0.0000E+00  0.6880E+03
  14.930  0.0000E+00  0.0000E+00  0.6880E+03
  14.940  0.0000E+00  0.0000E+00  0.6880E+03
  14.950  0.0000E+00  0.0000E+00  0.6880E+03
  14.960  0.0000E+00  0.0000E+00  0.6880E+03
  14.970  0.0000E+00  0.0000E+00  0.6880E+03
  14.980  0.0000E+00  0.0000E+00  0.6880E+03
  14.990  0.0000E+00  0.0000E+00  0.6880E+03
  15.000  0.0000E+00  0.0000E+00  0.6880E+03
