# E (eV)   ldos(E)   pdos(E)    pdos(E)    pdos(E)   
   0.000  0.595E-01  0.198E-01  0.198E-01  0.198E-01
   0.010  0.499E-01  0.166E-01  0.166E-01  0.166E-01
   0.020  0.497E-01  0.166E-01  0.166E-01  0.166E-01
   0.030  0.166E+00  0.554E-01  0.554E-01  0.554E-01
   0.040  0.143E+00  0.478E-01  0.478E-01  0.478E-01
   0.050  0.129E+00  0.429E-01  0.429E-01  0.429E-01
   0.060  0.618E-01  0.206E-01  0.206E-01  0.206E-01
   0.070  0.292E-01  0.975E-02  0.975E-02  0.975E-02
   0.080  0.265E-01  0.882E-02  0.882E-02  0.882E-02
   0.090  0.446E-01  0.149E-01  0.149E-01  0.149E-01
   0.100  0.538E-01  0.179E-01  0.179E-01  0.179E-01
   0.110  0.110E+00  0.367E-01  0.367E-01  0.367E-01
   0.120  0.918E-01  0.306E-01  0.306E-01  0.306E-01
   0.130  0.595E-01  0.198E-01  0.198E-01  0.198E-01
   0.140  0.378E-01  0.126E-01  0.126E-01  0.126E-01
   0.150  0.234E-01  0.780E-02  0.780E-02  0.780E-02
   0.160  0.174E-01  0.580E-02  0.580E-02  0.580E-02
   0.170  0.105E-01  0.351E-02  0.351E-02  0.351E-02
   0.180  0.277E-02  0.924E-03  0.924E-03  0.924E-03
   0.190  0.363E-03  0.121E-03  0.121E-03  0.121E-03
   0.200  0.140E-05  0.466E-06  0.466E-06  0.466E-06
   0.210  0.000E+00  0.000E+00  0.000E+00  0.000E+00
   0.220  0.000E+00  0.000E+00  0.000E+00  0.000E+00
   0.230  0.000E+00  0.000E+00  0.000E+00  0.000E+00
   0.240  0.000E+00  0.000E+00  0.000E+00  0.000E+00
   0.250  0.000E+00  0.000E+00  0.000E+00  0.000E+00
   0.260  0.000E+00  0.000E+00  0.000E+00  0.000E+00
   0.270  0.000E+00  0.000E+00  0.000E+00  0.000E+00
   0.280  0.000E+00  0.000E+00  0.000E+00  0.000E+00
   0.290  0.000E+00  0.000E+00  0.000E+00  0.000E+00
   0.300  0.000E+00  0.000E+00  0.000E+00  0.000E+00
   0.310  0.000E+00  0.000E+00  0.000E+00  0.000E+00
   0.320  0.197E-07  0.657E-08  0.657E-08  0.657E-08
   0.330  0.646E-05  0.215E-05  0.215E-05  0.215E-05
   0.340  0.547E-04  0.182E-04  0.182E-04  0.182E-04
   0.350  0.187E-03  0.622E-04  0.622E-04  0.622E-04
   0.360  0.414E-03  0.138E-03  0.138E-03  0.138E-03
   0.370  0.738E-03  0.246E-03  0.246E-03  0.246E-03
   0.380  0.116E-02  0.387E-03  0.387E-03  0.387E-03
   0.390  0.168E-02  0.560E-03  0.560E-03  0.560E-03
   0.400  0.230E-02  0.767E-03  0.767E-03  0.767E-03
   0.410  0.302E-02  0.101E-02  0.101E-02  0.101E-02
   0.420  0.385E-02  0.128E-02  0.128E-02  0.128E-02
   0.430  0.478E-02  0.159E-02  0.159E-02  0.159E-02
   0.440  0.581E-02  0.194E-02  0.194E-02  0.194E-02
   0.450  0.695E-02  0.232E-02  0.232E-02  0.232E-02
   0.460  0.844E-02  0.281E-02  0.281E-02  0.281E-02
   0.470  0.126E-01  0.421E-02  0.421E-02  0.421E-02
   0.480  0.198E-01  0.658E-02  0.658E-02  0.658E-02
   0.490  0.255E-01  0.849E-02  0.849E-02  0.849E-02
   0.500  0.297E-01  0.989E-02  0.989E-02  0.989E-02
   0.510  0.326E-01  0.109E-01  0.109E-01  0.109E-01
   0.520  0.344E-01  0.115E-01  0.115E-01  0.115E-01
   0.530  0.352E-01  0.117E-01  0.117E-01  0.117E-01
   0.540  0.351E-01  0.117E-01  0.117E-01  0.117E-01
   0.550  0.341E-01  0.114E-01  0.114E-01  0.114E-01
   0.560  0.329E-01  0.110E-01  0.110E-01  0.110E-01
   0.570  0.333E-01  0.111E-01  0.111E-01  0.111E-01
   0.580  0.352E-01  0.117E-01  0.117E-01  0.117E-01
   0.590  0.371E-01  0.124E-01  0.124E-01  0.124E-01
   0.600  0.392E-01  0.131E-01  0.131E-01  0.131E-01
   0.610  0.413E-01  0.138E-01  0.138E-01  0.138E-01
   0.620  0.434E-01  0.145E-01  0.145E-01  0.145E-01
   0.630  0.456E-01  0.152E-01  0.152E-01  0.152E-01
   0.640  0.478E-01  0.159E-01  0.159E-01  0.159E-01
   0.650  0.500E-01  0.167E-01  0.167E-01  0.167E-01
   0.660  0.522E-01  0.174E-01  0.174E-01  0.174E-01
   0.670  0.542E-01  0.181E-01  0.181E-01  0.181E-01
   0.680  0.570E-01  0.190E-01  0.190E-01  0.190E-01
   0.690  0.663E-01  0.221E-01  0.221E-01  0.221E-01
   0.700  0.825E-01  0.275E-01  0.275E-01  0.275E-01
   0.710  0.918E-01  0.306E-01  0.306E-01  0.306E-01
   0.720  0.896E-01  0.299E-01  0.299E-01  0.299E-01
   0.730  0.872E-01  0.291E-01  0.291E-01  0.291E-01
   0.740  0.850E-01  0.283E-01  0.283E-01  0.283E-01
   0.750  0.844E-01  0.281E-01  0.281E-01  0.281E-01
   0.760  0.914E-01  0.305E-01  0.305E-01  0.305E-01
   0.770  0.958E-01  0.319E-01  0.319E-01  0.319E-01
   0.780  0.915E-01  0.305E-01  0.305E-01  0.305E-01
   0.790  0.938E-01  0.313E-01  0.313E-01  0.313E-01
   0.800  0.961E-01  0.320E-01  0.320E-01  0.320E-01
   0.810  0.979E-01  0.326E-01  0.326E-01  0.326E-01
   0.820  0.992E-01  0.331E-01  0.331E-01  0.331E-01
   0.830  0.100E+00  0.334E-01  0.334E-01  0.334E-01
   0.840  0.101E+00  0.336E-01  0.336E-01  0.336E-01
   0.850  0.101E+00  0.336E-01  0.336E-01  0.336E-01
   0.860  0.101E+00  0.336E-01  0.336E-01  0.336E-01
   0.870  0.100E+00  0.334E-01  0.334E-01  0.334E-01
   0.880  0.103E+00  0.345E-01  0.345E-01  0.345E-01
   0.890  0.111E+00  0.369E-01  0.369E-01  0.369E-01
   0.900  0.116E+00  0.387E-01  0.387E-01  0.387E-01
   0.910  0.120E+00  0.400E-01  0.400E-01  0.400E-01
   0.920  0.124E+00  0.415E-01  0.415E-01  0.415E-01
   0.930  0.126E+00  0.421E-01  0.421E-01  0.421E-01
   0.940  0.126E+00  0.419E-01  0.419E-01  0.419E-01
   0.950  0.124E+00  0.412E-01  0.412E-01  0.412E-01
   0.960  0.119E+00  0.395E-01  0.395E-01  0.395E-01
   0.970  0.104E+00  0.347E-01  0.347E-01  0.347E-01
   0.980  0.111E+00  0.369E-01  0.369E-01  0.369E-01
   0.990  0.135E+00  0.450E-01  0.450E-01  0.450E-01
   1.000  0.160E+00  0.533E-01  0.533E-01  0.533E-01
   1.010  0.175E+00  0.582E-01  0.582E-01  0.582E-01
   1.020  0.132E+00  0.440E-01  0.440E-01  0.440E-01
   1.030  0.261E+00  0.869E-01  0.869E-01  0.869E-01
   1.040  0.306E+00  0.102E+00  0.102E+00  0.102E+00
   1.050  0.193E+00  0.645E-01  0.645E-01  0.645E-01
   1.060  0.104E+00  0.347E-01  0.347E-01  0.347E-01
   1.070  0.813E-01  0.271E-01  0.271E-01  0.271E-01
   1.080  0.643E-01  0.214E-01  0.214E-01  0.214E-01
   1.090  0.626E-01  0.209E-01  0.209E-01  0.209E-01
   1.100  0.588E-01  0.196E-01  0.196E-01  0.196E-01
   1.110  0.525E-01  0.175E-01  0.175E-01  0.175E-01
   1.120  0.435E-01  0.145E-01  0.145E-01  0.145E-01
   1.130  0.319E-01  0.106E-01  0.106E-01  0.106E-01
   1.140  0.297E-01  0.991E-02  0.991E-02  0.991E-02
   1.150  0.641E-01  0.214E-01  0.214E-01  0.214E-01
   1.160  0.888E-01  0.296E-01  0.296E-01  0.296E-01
   1.170  0.919E-01  0.306E-01  0.306E-01  0.306E-01
   1.180  0.860E-01  0.287E-01  0.287E-01  0.287E-01
   1.190  0.841E-01  0.280E-01  0.280E-01  0.280E-01
   1.200  0.873E-01  0.291E-01  0.291E-01  0.291E-01
   1.210  0.899E-01  0.300E-01  0.300E-01  0.300E-01
   1.220  0.928E-01  0.309E-01  0.309E-01  0.309E-01
   1.230  0.963E-01  0.321E-01  0.321E-01  0.321E-01
   1.240  0.100E+00  0.333E-01  0.333E-01  0.333E-01
   1.250  0.104E+00  0.346E-01  0.346E-01  0.346E-01
   1.260  0.107E+00  0.358E-01  0.358E-01  0.358E-01
   1.270  0.110E+00  0.368E-01  0.368E-01  0.368E-01
   1.280  0.112E+00  0.374E-01  0.374E-01  0.374E-01
   1.290  0.113E+00  0.375E-01  0.375E-01  0.375E-01
   1.300  0.111E+00  0.370E-01  0.370E-01  0.370E-01
   1.310  0.107E+00  0.356E-01  0.356E-01  0.356E-01
   1.320  0.994E-01  0.331E-01  0.331E-01  0.331E-01
   1.330  0.889E-01  0.296E-01  0.296E-01  0.296E-01
   1.340  0.823E-01  0.274E-01  0.274E-01  0.274E-01
   1.350  0.766E-01  0.255E-01  0.255E-01  0.255E-01
   1.360  0.723E-01  0.241E-01  0.241E-01  0.241E-01
   1.370  0.686E-01  0.229E-01  0.229E-01  0.229E-01
   1.380  0.651E-01  0.217E-01  0.217E-01  0.217E-01
   1.390  0.612E-01  0.204E-01  0.204E-01  0.204E-01
   1.400  0.571E-01  0.190E-01  0.190E-01  0.190E-01
   1.410  0.530E-01  0.177E-01  0.177E-01  0.177E-01
   1.420  0.493E-01  0.164E-01  0.164E-01  0.164E-01
   1.430  0.468E-01  0.156E-01  0.156E-01  0.156E-01
   1.440  0.469E-01  0.156E-01  0.156E-01  0.156E-01
   1.450  0.478E-01  0.159E-01  0.159E-01  0.159E-01
   1.460  0.484E-01  0.161E-01  0.161E-01  0.161E-01
   1.470  0.486E-01  0.162E-01  0.162E-01  0.162E-01
   1.480  0.486E-01  0.162E-01  0.162E-01  0.162E-01
   1.490  0.483E-01  0.161E-01  0.161E-01  0.161E-01
   1.500  0.478E-01  0.159E-01  0.159E-01  0.159E-01
   1.510  0.471E-01  0.157E-01  0.157E-01  0.157E-01
   1.520  0.462E-01  0.154E-01  0.154E-01  0.154E-01
   1.530  0.452E-01  0.151E-01  0.151E-01  0.151E-01
   1.540  0.440E-01  0.147E-01  0.147E-01  0.147E-01
   1.550  0.428E-01  0.143E-01  0.143E-01  0.143E-01
   1.560  0.414E-01  0.138E-01  0.138E-01  0.138E-01
   1.570  0.400E-01  0.133E-01  0.133E-01  0.133E-01
   1.580  0.385E-01  0.128E-01  0.128E-01  0.128E-01
   1.590  0.369E-01  0.123E-01  0.123E-01  0.123E-01
   1.600  0.353E-01  0.118E-01  0.118E-01  0.118E-01
   1.610  0.336E-01  0.112E-01  0.112E-01  0.112E-01
   1.620  0.319E-01  0.106E-01  0.106E-01  0.106E-01
   1.630  0.303E-01  0.101E-01  0.101E-01  0.101E-01
   1.640  0.288E-01  0.960E-02  0.960E-02  0.960E-02
   1.650  0.274E-01  0.912E-02  0.912E-02  0.912E-02
   1.660  0.261E-01  0.870E-02  0.870E-02  0.870E-02
   1.670  0.252E-01  0.841E-02  0.841E-02  0.841E-02
   1.680  0.252E-01  0.841E-02  0.841E-02  0.841E-02
   1.690  0.255E-01  0.848E-02  0.848E-02  0.848E-02
   1.700  0.258E-01  0.861E-02  0.861E-02  0.861E-02
   1.710  0.271E-01  0.902E-02  0.902E-02  0.902E-02
   1.720  0.290E-01  0.966E-02  0.966E-02  0.966E-02
   1.730  0.305E-01  0.102E-01  0.102E-01  0.102E-01
   1.740  0.305E-01  0.102E-01  0.102E-01  0.102E-01
   1.750  0.279E-01  0.931E-02  0.931E-02  0.931E-02
   1.760  0.241E-01  0.803E-02  0.803E-02  0.803E-02
   1.770  0.202E-01  0.675E-02  0.675E-02  0.675E-02
   1.780  0.186E-01  0.622E-02  0.622E-02  0.622E-02
   1.790  0.205E-01  0.685E-02  0.685E-02  0.685E-02
   1.800  0.237E-01  0.791E-02  0.791E-02  0.791E-02
   1.810  0.273E-01  0.909E-02  0.909E-02  0.909E-02
   1.820  0.309E-01  0.103E-01  0.103E-01  0.103E-01
   1.830  0.340E-01  0.113E-01  0.113E-01  0.113E-01
   1.840  0.366E-01  0.122E-01  0.122E-01  0.122E-01
   1.850  0.387E-01  0.129E-01  0.129E-01  0.129E-01
   1.860  0.403E-01  0.134E-01  0.134E-01  0.134E-01
   1.870  0.414E-01  0.138E-01  0.138E-01  0.138E-01
   1.880  0.422E-01  0.141E-01  0.141E-01  0.141E-01
   1.890  0.425E-01  0.142E-01  0.142E-01  0.142E-01
   1.900  0.425E-01  0.142E-01  0.142E-01  0.142E-01
   1.910  0.421E-01  0.140E-01  0.140E-01  0.140E-01
   1.920  0.415E-01  0.138E-01  0.138E-01  0.138E-01
   1.930  0.405E-01  0.135E-01  0.135E-01  0.135E-01
   1.940  0.394E-01  0.131E-01  0.131E-01  0.131E-01
   1.950  0.381E-01  0.127E-01  0.127E-01  0.127E-01
   1.960  0.366E-01  0.122E-01  0.122E-01  0.122E-01
   1.970  0.351E-01  0.117E-01  0.117E-01  0.117E-01
   1.980  0.338E-01  0.113E-01  0.113E-01  0.113E-01
   1.990  0.325E-01  0.108E-01  0.108E-01  0.108E-01
   2.000  0.312E-01  0.104E-01  0.104E-01  0.104E-01
   2.010  0.298E-01  0.994E-02  0.994E-02  0.994E-02
   2.020  0.286E-01  0.952E-02  0.952E-02  0.952E-02
   2.030  0.273E-01  0.910E-02  0.910E-02  0.910E-02
   2.040  0.260E-01  0.867E-02  0.867E-02  0.867E-02
   2.050  0.247E-01  0.825E-02  0.825E-02  0.825E-02
   2.060  0.236E-01  0.787E-02  0.787E-02  0.787E-02
   2.070  0.228E-01  0.759E-02  0.759E-02  0.759E-02
   2.080  0.222E-01  0.739E-02  0.739E-02  0.739E-02
   2.090  0.217E-01  0.725E-02  0.725E-02  0.725E-02
   2.100  0.214E-01  0.713E-02  0.713E-02  0.713E-02
   2.110  0.212E-01  0.705E-02  0.705E-02  0.705E-02
   2.120  0.211E-01  0.702E-02  0.702E-02  0.702E-02
   2.130  0.210E-01  0.701E-02  0.701E-02  0.701E-02
   2.140  0.210E-01  0.701E-02  0.701E-02  0.701E-02
   2.150  0.210E-01  0.701E-02  0.701E-02  0.701E-02
   2.160  0.211E-01  0.702E-02  0.702E-02  0.702E-02
   2.170  0.211E-01  0.704E-02  0.704E-02  0.704E-02
   2.180  0.212E-01  0.707E-02  0.707E-02  0.707E-02
   2.190  0.213E-01  0.711E-02  0.711E-02  0.711E-02
   2.200  0.215E-01  0.717E-02  0.717E-02  0.717E-02
   2.210  0.217E-01  0.723E-02  0.723E-02  0.723E-02
   2.220  0.218E-01  0.725E-02  0.725E-02  0.725E-02
   2.230  0.210E-01  0.699E-02  0.699E-02  0.699E-02
   2.240  0.242E-01  0.805E-02  0.805E-02  0.805E-02
   2.250  0.272E-01  0.908E-02  0.908E-02  0.908E-02
   2.260  0.261E-01  0.868E-02  0.868E-02  0.868E-02
   2.270  0.235E-01  0.782E-02  0.782E-02  0.782E-02
   2.280  0.236E-01  0.785E-02  0.785E-02  0.785E-02
   2.290  0.240E-01  0.800E-02  0.800E-02  0.800E-02
   2.300  0.246E-01  0.819E-02  0.819E-02  0.819E-02
   2.310  0.253E-01  0.842E-02  0.842E-02  0.842E-02
   2.320  0.262E-01  0.872E-02  0.872E-02  0.872E-02
   2.330  0.271E-01  0.904E-02  0.904E-02  0.904E-02
   2.340  0.279E-01  0.929E-02  0.929E-02  0.929E-02
   2.350  0.284E-01  0.947E-02  0.947E-02  0.947E-02
   2.360  0.289E-01  0.962E-02  0.962E-02  0.962E-02
   2.370  0.293E-01  0.975E-02  0.975E-02  0.975E-02
   2.380  0.296E-01  0.988E-02  0.988E-02  0.988E-02
   2.390  0.300E-01  0.100E-01  0.100E-01  0.100E-01
   2.400  0.303E-01  0.101E-01  0.101E-01  0.101E-01
   2.410  0.307E-01  0.102E-01  0.102E-01  0.102E-01
   2.420  0.311E-01  0.104E-01  0.104E-01  0.104E-01
   2.430  0.315E-01  0.105E-01  0.105E-01  0.105E-01
   2.440  0.320E-01  0.107E-01  0.107E-01  0.107E-01
   2.450  0.327E-01  0.109E-01  0.109E-01  0.109E-01
   2.460  0.364E-01  0.121E-01  0.121E-01  0.121E-01
   2.470  0.478E-01  0.159E-01  0.159E-01  0.159E-01
   2.480  0.530E-01  0.177E-01  0.177E-01  0.177E-01
   2.490  0.615E-01  0.205E-01  0.205E-01  0.205E-01
   2.500  0.700E-01  0.233E-01  0.233E-01  0.233E-01
   2.510  0.805E-01  0.268E-01  0.268E-01  0.268E-01
   2.520  0.930E-01  0.310E-01  0.310E-01  0.310E-01
   2.530  0.105E+00  0.349E-01  0.349E-01  0.349E-01
   2.540  0.115E+00  0.383E-01  0.383E-01  0.383E-01
   2.550  0.124E+00  0.414E-01  0.414E-01  0.414E-01
   2.560  0.133E+00  0.442E-01  0.442E-01  0.442E-01
   2.570  0.140E+00  0.468E-01  0.468E-01  0.468E-01
   2.580  0.147E+00  0.489E-01  0.489E-01  0.489E-01
   2.590  0.153E+00  0.511E-01  0.511E-01  0.511E-01
   2.600  0.159E+00  0.530E-01  0.530E-01  0.530E-01
   2.610  0.164E+00  0.546E-01  0.546E-01  0.546E-01
   2.620  0.170E+00  0.567E-01  0.567E-01  0.567E-01
   2.630  0.186E+00  0.621E-01  0.621E-01  0.621E-01
   2.640  0.203E+00  0.678E-01  0.678E-01  0.678E-01
   2.650  0.224E+00  0.746E-01  0.746E-01  0.746E-01
   2.660  0.243E+00  0.809E-01  0.809E-01  0.809E-01
   2.670  0.260E+00  0.866E-01  0.866E-01  0.866E-01
   2.680  0.276E+00  0.920E-01  0.920E-01  0.920E-01
   2.690  0.302E+00  0.101E+00  0.101E+00  0.101E+00
   2.700  0.333E+00  0.111E+00  0.111E+00  0.111E+00
   2.710  0.386E+00  0.129E+00  0.129E+00  0.129E+00
   2.720  0.465E+00  0.155E+00  0.155E+00  0.155E+00
   2.730  0.614E+00  0.205E+00  0.205E+00  0.205E+00
   2.740  0.742E+00  0.247E+00  0.247E+00  0.247E+00
   2.750  0.811E+00  0.270E+00  0.270E+00  0.270E+00
   2.760  0.476E+00  0.159E+00  0.159E+00  0.159E+00
   2.770  0.265E+00  0.884E-01  0.884E-01  0.884E-01
   2.780  0.227E+00  0.756E-01  0.756E-01  0.756E-01
   2.790  0.203E+00  0.677E-01  0.677E-01  0.677E-01
   2.800  0.181E+00  0.604E-01  0.604E-01  0.604E-01
   2.810  0.162E+00  0.541E-01  0.541E-01  0.541E-01
   2.820  0.148E+00  0.493E-01  0.493E-01  0.493E-01
   2.830  0.181E+00  0.602E-01  0.602E-01  0.602E-01
   2.840  0.262E+00  0.874E-01  0.874E-01  0.874E-01
   2.850  0.454E+00  0.151E+00  0.151E+00  0.151E+00
   2.860  0.269E+00  0.896E-01  0.896E-01  0.896E-01
   2.870  0.214E+00  0.712E-01  0.712E-01  0.712E-01
   2.880  0.161E+00  0.536E-01  0.536E-01  0.536E-01
   2.890  0.146E+00  0.488E-01  0.488E-01  0.488E-01
   2.900  0.153E+00  0.510E-01  0.510E-01  0.510E-01
   2.910  0.155E+00  0.516E-01  0.516E-01  0.516E-01
   2.920  0.158E+00  0.525E-01  0.525E-01  0.525E-01
   2.930  0.158E+00  0.528E-01  0.528E-01  0.528E-01
   2.940  0.153E+00  0.511E-01  0.511E-01  0.511E-01
   2.950  0.151E+00  0.504E-01  0.504E-01  0.504E-01
   2.960  0.161E+00  0.538E-01  0.538E-01  0.538E-01
   2.970  0.177E+00  0.590E-01  0.590E-01  0.590E-01
   2.980  0.188E+00  0.625E-01  0.625E-01  0.625E-01
   2.990  0.196E+00  0.655E-01  0.655E-01  0.655E-01
   3.000  0.207E+00  0.691E-01  0.691E-01  0.691E-01
   3.010  0.224E+00  0.747E-01  0.747E-01  0.747E-01
   3.020  0.245E+00  0.817E-01  0.817E-01  0.817E-01
   3.030  0.268E+00  0.892E-01  0.892E-01  0.892E-01
   3.040  0.289E+00  0.964E-01  0.964E-01  0.964E-01
   3.050  0.310E+00  0.103E+00  0.103E+00  0.103E+00
   3.060  0.329E+00  0.110E+00  0.110E+00  0.110E+00
   3.070  0.347E+00  0.116E+00  0.116E+00  0.116E+00
   3.080  0.361E+00  0.120E+00  0.120E+00  0.120E+00
   3.090  0.371E+00  0.124E+00  0.124E+00  0.124E+00
   3.100  0.376E+00  0.125E+00  0.125E+00  0.125E+00
   3.110  0.386E+00  0.129E+00  0.129E+00  0.129E+00
   3.120  0.366E+00  0.122E+00  0.122E+00  0.122E+00
   3.130  0.323E+00  0.108E+00  0.108E+00  0.108E+00
   3.140  0.285E+00  0.949E-01  0.949E-01  0.949E-01
   3.150  0.261E+00  0.869E-01  0.869E-01  0.869E-01
   3.160  0.243E+00  0.809E-01  0.809E-01  0.809E-01
   3.170  0.229E+00  0.763E-01  0.763E-01  0.763E-01
   3.180  0.212E+00  0.707E-01  0.707E-01  0.707E-01
   3.190  0.195E+00  0.651E-01  0.651E-01  0.651E-01
   3.200  0.183E+00  0.610E-01  0.610E-01  0.610E-01
   3.210  0.183E+00  0.611E-01  0.611E-01  0.611E-01
   3.220  0.191E+00  0.638E-01  0.638E-01  0.638E-01
   3.230  0.188E+00  0.627E-01  0.627E-01  0.627E-01
   3.240  0.187E+00  0.622E-01  0.622E-01  0.622E-01
   3.250  0.184E+00  0.614E-01  0.614E-01  0.614E-01
   3.260  0.186E+00  0.621E-01  0.621E-01  0.621E-01
   3.270  0.210E+00  0.699E-01  0.699E-01  0.699E-01
   3.280  0.258E+00  0.859E-01  0.859E-01  0.859E-01
   3.290  0.297E+00  0.990E-01  0.990E-01  0.990E-01
   3.300  0.327E+00  0.109E+00  0.109E+00  0.109E+00
   3.310  0.357E+00  0.119E+00  0.119E+00  0.119E+00
   3.320  0.398E+00  0.133E+00  0.133E+00  0.133E+00
   3.330  0.434E+00  0.145E+00  0.145E+00  0.145E+00
   3.340  0.437E+00  0.146E+00  0.146E+00  0.146E+00
   3.350  0.429E+00  0.143E+00  0.143E+00  0.143E+00
   3.360  0.414E+00  0.138E+00  0.138E+00  0.138E+00
   3.370  0.401E+00  0.134E+00  0.134E+00  0.134E+00
   3.380  0.386E+00  0.129E+00  0.129E+00  0.129E+00
   3.390  0.367E+00  0.122E+00  0.122E+00  0.122E+00
   3.400  0.364E+00  0.121E+00  0.121E+00  0.121E+00
   3.410  0.331E+00  0.110E+00  0.110E+00  0.110E+00
   3.420  0.314E+00  0.105E+00  0.105E+00  0.105E+00
   3.430  0.300E+00  0.100E+00  0.100E+00  0.100E+00
   3.440  0.301E+00  0.100E+00  0.100E+00  0.100E+00
   3.450  0.316E+00  0.105E+00  0.105E+00  0.105E+00
   3.460  0.332E+00  0.111E+00  0.111E+00  0.111E+00
   3.470  0.332E+00  0.111E+00  0.111E+00  0.111E+00
   3.480  0.322E+00  0.107E+00  0.107E+00  0.107E+00
   3.490  0.313E+00  0.104E+00  0.104E+00  0.104E+00
   3.500  0.309E+00  0.103E+00  0.103E+00  0.103E+00
   3.510  0.307E+00  0.102E+00  0.102E+00  0.102E+00
   3.520  0.309E+00  0.103E+00  0.103E+00  0.103E+00
   3.530  0.314E+00  0.105E+00  0.105E+00  0.105E+00
   3.540  0.322E+00  0.107E+00  0.107E+00  0.107E+00
   3.550  0.326E+00  0.109E+00  0.109E+00  0.109E+00
   3.560  0.335E+00  0.112E+00  0.112E+00  0.112E+00
   3.570  0.349E+00  0.116E+00  0.116E+00  0.116E+00
   3.580  0.346E+00  0.115E+00  0.115E+00  0.115E+00
   3.590  0.312E+00  0.104E+00  0.104E+00  0.104E+00
   3.600  0.284E+00  0.947E-01  0.947E-01  0.947E-01
   3.610  0.271E+00  0.905E-01  0.905E-01  0.905E-01
   3.620  0.268E+00  0.894E-01  0.894E-01  0.894E-01
   3.630  0.272E+00  0.907E-01  0.907E-01  0.907E-01
   3.640  0.279E+00  0.930E-01  0.930E-01  0.930E-01
   3.650  0.271E+00  0.904E-01  0.904E-01  0.904E-01
   3.660  0.273E+00  0.910E-01  0.910E-01  0.910E-01
   3.670  0.308E+00  0.103E+00  0.103E+00  0.103E+00
   3.680  0.277E+00  0.925E-01  0.925E-01  0.925E-01
   3.690  0.251E+00  0.838E-01  0.838E-01  0.838E-01
   3.700  0.245E+00  0.816E-01  0.816E-01  0.816E-01
   3.710  0.238E+00  0.795E-01  0.795E-01  0.795E-01
   3.720  0.235E+00  0.784E-01  0.784E-01  0.784E-01
   3.730  0.235E+00  0.783E-01  0.783E-01  0.783E-01
   3.740  0.238E+00  0.792E-01  0.792E-01  0.792E-01
   3.750  0.243E+00  0.810E-01  0.810E-01  0.810E-01
   3.760  0.255E+00  0.849E-01  0.849E-01  0.849E-01
   3.770  0.292E+00  0.973E-01  0.973E-01  0.973E-01
   3.780  0.289E+00  0.964E-01  0.964E-01  0.964E-01
   3.790  0.370E+00  0.123E+00  0.123E+00  0.123E+00
   3.800  0.299E+00  0.997E-01  0.997E-01  0.997E-01
   3.810  0.424E+00  0.141E+00  0.141E+00  0.141E+00
   3.820  0.552E+00  0.184E+00  0.184E+00  0.184E+00
   3.830  0.475E+00  0.158E+00  0.158E+00  0.158E+00
   3.840  0.431E+00  0.144E+00  0.144E+00  0.144E+00
   3.850  0.350E+00  0.117E+00  0.117E+00  0.117E+00
   3.860  0.327E+00  0.109E+00  0.109E+00  0.109E+00
   3.870  0.306E+00  0.102E+00  0.102E+00  0.102E+00
   3.880  0.293E+00  0.977E-01  0.977E-01  0.977E-01
   3.890  0.291E+00  0.969E-01  0.969E-01  0.969E-01
   3.900  0.311E+00  0.104E+00  0.104E+00  0.104E+00
   3.910  0.357E+00  0.119E+00  0.119E+00  0.119E+00
   3.920  0.340E+00  0.113E+00  0.113E+00  0.113E+00
   3.930  0.275E+00  0.917E-01  0.917E-01  0.917E-01
   3.940  0.226E+00  0.752E-01  0.752E-01  0.752E-01
   3.950  0.204E+00  0.679E-01  0.679E-01  0.679E-01
   3.960  0.190E+00  0.634E-01  0.634E-01  0.634E-01
   3.970  0.180E+00  0.600E-01  0.600E-01  0.600E-01
   3.980  0.174E+00  0.580E-01  0.580E-01  0.580E-01
   3.990  0.170E+00  0.567E-01  0.567E-01  0.567E-01
   4.000  0.170E+00  0.566E-01  0.566E-01  0.566E-01
   4.010  0.174E+00  0.579E-01  0.579E-01  0.579E-01
   4.020  0.181E+00  0.602E-01  0.602E-01  0.602E-01
   4.030  0.191E+00  0.635E-01  0.635E-01  0.635E-01
   4.040  0.202E+00  0.675E-01  0.675E-01  0.675E-01
   4.050  0.215E+00  0.716E-01  0.716E-01  0.716E-01
   4.060  0.231E+00  0.769E-01  0.769E-01  0.769E-01
   4.070  0.244E+00  0.812E-01  0.812E-01  0.812E-01
   4.080  0.252E+00  0.840E-01  0.840E-01  0.840E-01
   4.090  0.258E+00  0.861E-01  0.861E-01  0.861E-01
   4.100  0.270E+00  0.900E-01  0.900E-01  0.900E-01
   4.110  0.277E+00  0.924E-01  0.924E-01  0.924E-01
   4.120  0.292E+00  0.973E-01  0.973E-01  0.973E-01
   4.130  0.303E+00  0.101E+00  0.101E+00  0.101E+00
   4.140  0.326E+00  0.109E+00  0.109E+00  0.109E+00
   4.150  0.355E+00  0.118E+00  0.118E+00  0.118E+00
   4.160  0.318E+00  0.106E+00  0.106E+00  0.106E+00
   4.170  0.299E+00  0.997E-01  0.997E-01  0.997E-01
   4.180  0.292E+00  0.974E-01  0.974E-01  0.974E-01
   4.190  0.281E+00  0.935E-01  0.935E-01  0.935E-01
   4.200  0.269E+00  0.896E-01  0.896E-01  0.896E-01
   4.210  0.262E+00  0.873E-01  0.873E-01  0.873E-01
   4.220  0.263E+00  0.876E-01  0.876E-01  0.876E-01
   4.230  0.256E+00  0.855E-01  0.855E-01  0.855E-01
   4.240  0.238E+00  0.793E-01  0.793E-01  0.793E-01
   4.250  0.239E+00  0.798E-01  0.798E-01  0.798E-01
   4.260  0.244E+00  0.812E-01  0.812E-01  0.812E-01
   4.270  0.252E+00  0.839E-01  0.839E-01  0.839E-01
   4.280  0.267E+00  0.889E-01  0.889E-01  0.889E-01
   4.290  0.281E+00  0.936E-01  0.936E-01  0.936E-01
   4.300  0.295E+00  0.984E-01  0.984E-01  0.984E-01
   4.310  0.308E+00  0.103E+00  0.103E+00  0.103E+00
   4.320  0.329E+00  0.110E+00  0.110E+00  0.110E+00
   4.330  0.337E+00  0.112E+00  0.112E+00  0.112E+00
   4.340  0.337E+00  0.112E+00  0.112E+00  0.112E+00
   4.350  0.333E+00  0.111E+00  0.111E+00  0.111E+00
   4.360  0.290E+00  0.966E-01  0.966E-01  0.966E-01
   4.370  0.235E+00  0.782E-01  0.782E-01  0.782E-01
   4.380  0.194E+00  0.647E-01  0.647E-01  0.647E-01
   4.390  0.175E+00  0.584E-01  0.584E-01  0.584E-01
   4.400  0.169E+00  0.564E-01  0.564E-01  0.564E-01
   4.410  0.166E+00  0.555E-01  0.555E-01  0.555E-01
   4.420  0.159E+00  0.530E-01  0.530E-01  0.530E-01
   4.430  0.150E+00  0.501E-01  0.501E-01  0.501E-01
   4.440  0.141E+00  0.469E-01  0.469E-01  0.469E-01
   4.450  0.144E+00  0.480E-01  0.480E-01  0.480E-01
   4.460  0.149E+00  0.498E-01  0.498E-01  0.498E-01
   4.470  0.155E+00  0.518E-01  0.518E-01  0.518E-01
   4.480  0.162E+00  0.539E-01  0.539E-01  0.539E-01
   4.490  0.167E+00  0.556E-01  0.556E-01  0.556E-01
   4.500  0.172E+00  0.574E-01  0.574E-01  0.574E-01
   4.510  0.178E+00  0.592E-01  0.592E-01  0.592E-01
   4.520  0.178E+00  0.595E-01  0.595E-01  0.595E-01
   4.530  0.179E+00  0.597E-01  0.597E-01  0.597E-01
   4.540  0.180E+00  0.601E-01  0.601E-01  0.601E-01
   4.550  0.180E+00  0.600E-01  0.600E-01  0.600E-01
   4.560  0.179E+00  0.596E-01  0.596E-01  0.596E-01
   4.570  0.177E+00  0.591E-01  0.591E-01  0.591E-01
   4.580  0.176E+00  0.586E-01  0.586E-01  0.586E-01
   4.590  0.181E+00  0.602E-01  0.602E-01  0.602E-01
   4.600  0.211E+00  0.703E-01  0.703E-01  0.703E-01
   4.610  0.221E+00  0.736E-01  0.736E-01  0.736E-01
   4.620  0.234E+00  0.781E-01  0.781E-01  0.781E-01
   4.630  0.225E+00  0.750E-01  0.750E-01  0.750E-01
   4.640  0.226E+00  0.752E-01  0.752E-01  0.752E-01
   4.650  0.239E+00  0.797E-01  0.797E-01  0.797E-01
   4.660  0.234E+00  0.779E-01  0.779E-01  0.779E-01
   4.670  0.219E+00  0.730E-01  0.730E-01  0.730E-01
   4.680  0.201E+00  0.669E-01  0.669E-01  0.669E-01
   4.690  0.194E+00  0.647E-01  0.647E-01  0.647E-01
   4.700  0.163E+00  0.543E-01  0.543E-01  0.543E-01
   4.710  0.146E+00  0.486E-01  0.486E-01  0.486E-01
   4.720  0.175E+00  0.583E-01  0.583E-01  0.583E-01
   4.730  0.217E+00  0.724E-01  0.724E-01  0.724E-01
   4.740  0.244E+00  0.813E-01  0.813E-01  0.813E-01
   4.750  0.263E+00  0.877E-01  0.877E-01  0.877E-01
   4.760  0.238E+00  0.794E-01  0.794E-01  0.794E-01
   4.770  0.187E+00  0.623E-01  0.623E-01  0.623E-01
   4.780  0.150E+00  0.500E-01  0.500E-01  0.500E-01
   4.790  0.131E+00  0.435E-01  0.435E-01  0.435E-01
   4.800  0.120E+00  0.399E-01  0.399E-01  0.399E-01
   4.810  0.113E+00  0.375E-01  0.375E-01  0.375E-01
   4.820  0.107E+00  0.358E-01  0.358E-01  0.358E-01
   4.830  0.104E+00  0.345E-01  0.345E-01  0.345E-01
   4.840  0.101E+00  0.336E-01  0.336E-01  0.336E-01
   4.850  0.984E-01  0.328E-01  0.328E-01  0.328E-01
   4.860  0.964E-01  0.321E-01  0.321E-01  0.321E-01
   4.870  0.941E-01  0.314E-01  0.314E-01  0.314E-01
   4.880  0.918E-01  0.306E-01  0.306E-01  0.306E-01
   4.890  0.895E-01  0.298E-01  0.298E-01  0.298E-01
   4.900  0.871E-01  0.290E-01  0.290E-01  0.290E-01
   4.910  0.848E-01  0.283E-01  0.283E-01  0.283E-01
   4.920  0.828E-01  0.276E-01  0.276E-01  0.276E-01
   4.930  0.825E-01  0.275E-01  0.275E-01  0.275E-01
   4.940  0.881E-01  0.294E-01  0.294E-01  0.294E-01
   4.950  0.967E-01  0.322E-01  0.322E-01  0.322E-01
   4.960  0.960E-01  0.320E-01  0.320E-01  0.320E-01
   4.970  0.860E-01  0.287E-01  0.287E-01  0.287E-01
   4.980  0.752E-01  0.251E-01  0.251E-01  0.251E-01
   4.990  0.724E-01  0.241E-01  0.241E-01  0.241E-01
   5.000  0.696E-01  0.232E-01  0.232E-01  0.232E-01
   5.010  0.665E-01  0.222E-01  0.222E-01  0.222E-01
   5.020  0.632E-01  0.211E-01  0.211E-01  0.211E-01
   5.030  0.595E-01  0.198E-01  0.198E-01  0.198E-01
   5.040  0.559E-01  0.186E-01  0.186E-01  0.186E-01
   5.050  0.539E-01  0.180E-01  0.180E-01  0.180E-01
   5.060  0.480E-01  0.160E-01  0.160E-01  0.160E-01
   5.070  0.380E-01  0.127E-01  0.127E-01  0.127E-01
   5.080  0.436E-01  0.145E-01  0.145E-01  0.145E-01
   5.090  0.595E-01  0.198E-01  0.198E-01  0.198E-01
   5.100  0.577E-01  0.192E-01  0.192E-01  0.192E-01
   5.110  0.536E-01  0.179E-01  0.179E-01  0.179E-01
   5.120  0.490E-01  0.163E-01  0.163E-01  0.163E-01
   5.130  0.439E-01  0.146E-01  0.146E-01  0.146E-01
   5.140  0.378E-01  0.126E-01  0.126E-01  0.126E-01
   5.150  0.306E-01  0.102E-01  0.102E-01  0.102E-01
   5.160  0.252E-01  0.839E-02  0.839E-02  0.839E-02
   5.170  0.231E-01  0.771E-02  0.771E-02  0.771E-02
   5.180  0.222E-01  0.740E-02  0.740E-02  0.740E-02
   5.190  0.216E-01  0.720E-02  0.720E-02  0.720E-02
   5.200  0.210E-01  0.699E-02  0.699E-02  0.699E-02
   5.210  0.204E-01  0.680E-02  0.680E-02  0.680E-02
   5.220  0.198E-01  0.662E-02  0.662E-02  0.662E-02
   5.230  0.201E-01  0.671E-02  0.671E-02  0.671E-02
   5.240  0.221E-01  0.737E-02  0.737E-02  0.737E-02
   5.250  0.276E-01  0.919E-02  0.919E-02  0.919E-02
   5.260  0.362E-01  0.121E-01  0.121E-01  0.121E-01
   5.270  0.402E-01  0.134E-01  0.134E-01  0.134E-01
   5.280  0.388E-01  0.129E-01  0.129E-01  0.129E-01
   5.290  0.442E-01  0.147E-01  0.147E-01  0.147E-01
   5.300  0.470E-01  0.157E-01  0.157E-01  0.157E-01
   5.310  0.446E-01  0.149E-01  0.149E-01  0.149E-01
   5.320  0.367E-01  0.122E-01  0.122E-01  0.122E-01
   5.330  0.342E-01  0.114E-01  0.114E-01  0.114E-01
   5.340  0.294E-01  0.981E-02  0.981E-02  0.981E-02
   5.350  0.248E-01  0.826E-02  0.826E-02  0.826E-02
   5.360  0.206E-01  0.686E-02  0.686E-02  0.686E-02
   5.370  0.171E-01  0.570E-02  0.570E-02  0.570E-02
   5.380  0.143E-01  0.476E-02  0.476E-02  0.476E-02
   5.390  0.121E-01  0.403E-02  0.403E-02  0.403E-02
   5.400  0.105E-01  0.349E-02  0.349E-02  0.349E-02
   5.410  0.922E-02  0.307E-02  0.307E-02  0.307E-02
   5.420  0.809E-02  0.270E-02  0.270E-02  0.270E-02
   5.430  0.712E-02  0.237E-02  0.237E-02  0.237E-02
   5.440  0.637E-02  0.212E-02  0.212E-02  0.212E-02
   5.450  0.605E-02  0.202E-02  0.202E-02  0.202E-02
   5.460  0.650E-02  0.217E-02  0.217E-02  0.217E-02
   5.470  0.674E-02  0.225E-02  0.225E-02  0.225E-02
   5.480  0.654E-02  0.218E-02  0.218E-02  0.218E-02
   5.490  0.596E-02  0.199E-02  0.199E-02  0.199E-02
   5.500  0.504E-02  0.168E-02  0.168E-02  0.168E-02
   5.510  0.382E-02  0.127E-02  0.127E-02  0.127E-02
   5.520  0.237E-02  0.791E-03  0.791E-03  0.791E-03
   5.530  0.101E-02  0.336E-03  0.336E-03  0.336E-03
   5.540  0.473E-03  0.158E-03  0.158E-03  0.158E-03
   5.550  0.218E-03  0.727E-04  0.727E-04  0.727E-04
   5.560  0.674E-04  0.225E-04  0.225E-04  0.225E-04
   5.570  0.789E-05  0.263E-05  0.263E-05  0.263E-05
   5.580  0.571E-06  0.190E-06  0.190E-06  0.190E-06
   5.590  0.732E-07  0.244E-07  0.244E-07  0.244E-07
   5.600  0.000E+00  0.000E+00  0.000E+00  0.000E+00
   5.610  0.000E+00  0.000E+00  0.000E+00  0.000E+00
   5.620  0.000E+00  0.000E+00  0.000E+00  0.000E+00
   5.630  0.000E+00  0.000E+00  0.000E+00  0.000E+00
   5.640  0.000E+00  0.000E+00  0.000E+00  0.000E+00
   5.650  0.000E+00  0.000E+00  0.000E+00  0.000E+00
   5.660  0.000E+00  0.000E+00  0.000E+00  0.000E+00
   5.670  0.000E+00  0.000E+00  0.000E+00  0.000E+00
   5.680  0.000E+00  0.000E+00  0.000E+00  0.000E+00
   5.690  0.000E+00  0.000E+00  0.000E+00  0.000E+00
   5.700  0.000E+00  0.000E+00  0.000E+00  0.000E+00
   5.710  0.000E+00  0.000E+00  0.000E+00  0.000E+00
   5.720  0.000E+00  0.000E+00  0.000E+00  0.000E+00
   5.730  0.000E+00  0.000E+00  0.000E+00  0.000E+00
   5.740  0.000E+00  0.000E+00  0.000E+00  0.000E+00
   5.750  0.000E+00  0.000E+00  0.000E+00  0.000E+00
   5.760  0.000E+00  0.000E+00  0.000E+00  0.000E+00
   5.770  0.000E+00  0.000E+00  0.000E+00  0.000E+00
   5.780  0.000E+00  0.000E+00  0.000E+00  0.000E+00
   5.790  0.000E+00  0.000E+00  0.000E+00  0.000E+00
   5.800  0.000E+00  0.000E+00  0.000E+00  0.000E+00
   5.810  0.000E+00  0.000E+00  0.000E+00  0.000E+00
   5.820  0.000E+00  0.000E+00  0.000E+00  0.000E+00
   5.830  0.000E+00  0.000E+00  0.000E+00  0.000E+00
   5.840  0.000E+00  0.000E+00  0.000E+00  0.000E+00
   5.850  0.000E+00  0.000E+00  0.000E+00  0.000E+00
   5.860  0.000E+00  0.000E+00  0.000E+00  0.000E+00
   5.870  0.000E+00  0.000E+00  0.000E+00  0.000E+00
   5.880  0.000E+00  0.000E+00  0.000E+00  0.000E+00
   5.890  0.000E+00  0.000E+00  0.000E+00  0.000E+00
   5.900  0.000E+00  0.000E+00  0.000E+00  0.000E+00
   5.910  0.000E+00  0.000E+00  0.000E+00  0.000E+00
   5.920  0.000E+00  0.000E+00  0.000E+00  0.000E+00
   5.930  0.000E+00  0.000E+00  0.000E+00  0.000E+00
   5.940  0.000E+00  0.000E+00  0.000E+00  0.000E+00
   5.950  0.000E+00  0.000E+00  0.000E+00  0.000E+00
   5.960  0.000E+00  0.000E+00  0.000E+00  0.000E+00
   5.970  0.000E+00  0.000E+00  0.000E+00  0.000E+00
   5.980  0.000E+00  0.000E+00  0.000E+00  0.000E+00
   5.990  0.000E+00  0.000E+00  0.000E+00  0.000E+00
   6.000  0.000E+00  0.000E+00  0.000E+00  0.000E+00
   6.010  0.000E+00  0.000E+00  0.000E+00  0.000E+00
   6.020  0.000E+00  0.000E+00  0.000E+00  0.000E+00
   6.030  0.000E+00  0.000E+00  0.000E+00  0.000E+00
   6.040  0.000E+00  0.000E+00  0.000E+00  0.000E+00
   6.050  0.000E+00  0.000E+00  0.000E+00  0.000E+00
   6.060  0.000E+00  0.000E+00  0.000E+00  0.000E+00
   6.070  0.000E+00  0.000E+00  0.000E+00  0.000E+00
   6.080  0.000E+00  0.000E+00  0.000E+00  0.000E+00
   6.090  0.000E+00  0.000E+00  0.000E+00  0.000E+00
   6.100  0.000E+00  0.000E+00  0.000E+00  0.000E+00
   6.110  0.000E+00  0.000E+00  0.000E+00  0.000E+00
   6.120  0.000E+00  0.000E+00  0.000E+00  0.000E+00
   6.130  0.000E+00  0.000E+00  0.000E+00  0.000E+00
   6.140  0.000E+00  0.000E+00  0.000E+00  0.000E+00
   6.150  0.000E+00  0.000E+00  0.000E+00  0.000E+00
   6.160  0.000E+00  0.000E+00  0.000E+00  0.000E+00
   6.170  0.000E+00  0.000E+00  0.000E+00  0.000E+00
   6.180  0.000E+00  0.000E+00  0.000E+00  0.000E+00
   6.190  0.000E+00  0.000E+00  0.000E+00  0.000E+00
   6.200  0.000E+00  0.000E+00  0.000E+00  0.000E+00
   6.210  0.000E+00  0.000E+00  0.000E+00  0.000E+00
   6.220  0.000E+00  0.000E+00  0.000E+00  0.000E+00
   6.230  0.000E+00  0.000E+00  0.000E+00  0.000E+00
   6.240  0.000E+00  0.000E+00  0.000E+00  0.000E+00
   6.250  0.000E+00  0.000E+00  0.000E+00  0.000E+00
   6.260  0.000E+00  0.000E+00  0.000E+00  0.000E+00
   6.270  0.000E+00  0.000E+00  0.000E+00  0.000E+00
   6.280  0.000E+00  0.000E+00  0.000E+00  0.000E+00
   6.290  0.000E+00  0.000E+00  0.000E+00  0.000E+00
   6.300  0.000E+00  0.000E+00  0.000E+00  0.000E+00
   6.310  0.000E+00  0.000E+00  0.000E+00  0.000E+00
   6.320  0.000E+00  0.000E+00  0.000E+00  0.000E+00
   6.330  0.000E+00  0.000E+00  0.000E+00  0.000E+00
   6.340  0.000E+00  0.000E+00  0.000E+00  0.000E+00
   6.350  0.000E+00  0.000E+00  0.000E+00  0.000E+00
   6.360  0.000E+00  0.000E+00  0.000E+00  0.000E+00
   6.370  0.000E+00  0.000E+00  0.000E+00  0.000E+00
   6.380  0.000E+00  0.000E+00  0.000E+00  0.000E+00
   6.390  0.000E+00  0.000E+00  0.000E+00  0.000E+00
   6.400  0.000E+00  0.000E+00  0.000E+00  0.000E+00
   6.410  0.000E+00  0.000E+00  0.000E+00  0.000E+00
   6.420  0.000E+00  0.000E+00  0.000E+00  0.000E+00
   6.430  0.000E+00  0.000E+00  0.000E+00  0.000E+00
   6.440  0.000E+00  0.000E+00  0.000E+00  0.000E+00
   6.450  0.000E+00  0.000E+00  0.000E+00  0.000E+00
   6.460  0.000E+00  0.000E+00  0.000E+00  0.000E+00
   6.470  0.000E+00  0.000E+00  0.000E+00  0.000E+00
   6.480  0.000E+00  0.000E+00  0.000E+00  0.000E+00
   6.490  0.000E+00  0.000E+00  0.000E+00  0.000E+00
   6.500  0.000E+00  0.000E+00  0.000E+00  0.000E+00
   6.510  0.000E+00  0.000E+00  0.000E+00  0.000E+00
   6.520  0.000E+00  0.000E+00  0.000E+00  0.000E+00
   6.530  0.000E+00  0.000E+00  0.000E+00  0.000E+00
   6.540  0.000E+00  0.000E+00  0.000E+00  0.000E+00
   6.550  0.000E+00  0.000E+00  0.000E+00  0.000E+00
   6.560  0.000E+00  0.000E+00  0.000E+00  0.000E+00
   6.570  0.000E+00  0.000E+00  0.000E+00  0.000E+00
   6.580  0.000E+00  0.000E+00  0.000E+00  0.000E+00
   6.590  0.000E+00  0.000E+00  0.000E+00  0.000E+00
   6.600  0.000E+00  0.000E+00  0.000E+00  0.000E+00
   6.610  0.000E+00  0.000E+00  0.000E+00  0.000E+00
   6.620  0.000E+00  0.000E+00  0.000E+00  0.000E+00
   6.630  0.000E+00  0.000E+00  0.000E+00  0.000E+00
   6.640  0.000E+00  0.000E+00  0.000E+00  0.000E+00
   6.650  0.000E+00  0.000E+00  0.000E+00  0.000E+00
   6.660  0.000E+00  0.000E+00  0.000E+00  0.000E+00
   6.670  0.000E+00  0.000E+00  0.000E+00  0.000E+00
   6.680  0.000E+00  0.000E+00  0.000E+00  0.000E+00
   6.690  0.000E+00  0.000E+00  0.000E+00  0.000E+00
   6.700  0.000E+00  0.000E+00  0.000E+00  0.000E+00
   6.710  0.000E+00  0.000E+00  0.000E+00  0.000E+00
   6.720  0.000E+00  0.000E+00  0.000E+00  0.000E+00
   6.730  0.000E+00  0.000E+00  0.000E+00  0.000E+00
   6.740  0.000E+00  0.000E+00  0.000E+00  0.000E+00
   6.750  0.000E+00  0.000E+00  0.000E+00  0.000E+00
   6.760  0.000E+00  0.000E+00  0.000E+00  0.000E+00
   6.770  0.000E+00  0.000E+00  0.000E+00  0.000E+00
   6.780  0.000E+00  0.000E+00  0.000E+00  0.000E+00
   6.790  0.000E+00  0.000E+00  0.000E+00  0.000E+00
   6.800  0.000E+00  0.000E+00  0.000E+00  0.000E+00
   6.810  0.000E+00  0.000E+00  0.000E+00  0.000E+00
   6.820  0.000E+00  0.000E+00  0.000E+00  0.000E+00
   6.830  0.000E+00  0.000E+00  0.000E+00  0.000E+00
   6.840  0.000E+00  0.000E+00  0.000E+00  0.000E+00
   6.850  0.000E+00  0.000E+00  0.000E+00  0.000E+00
   6.860  0.000E+00  0.000E+00  0.000E+00  0.000E+00
   6.870  0.000E+00  0.000E+00  0.000E+00  0.000E+00
   6.880  0.000E+00  0.000E+00  0.000E+00  0.000E+00
   6.890  0.000E+00  0.000E+00  0.000E+00  0.000E+00
   6.900  0.000E+00  0.000E+00  0.000E+00  0.000E+00
   6.910  0.000E+00  0.000E+00  0.000E+00  0.000E+00
   6.920  0.000E+00  0.000E+00  0.000E+00  0.000E+00
   6.930  0.000E+00  0.000E+00  0.000E+00  0.000E+00
   6.940  0.000E+00  0.000E+00  0.000E+00  0.000E+00
   6.950  0.000E+00  0.000E+00  0.000E+00  0.000E+00
   6.960  0.000E+00  0.000E+00  0.000E+00  0.000E+00
   6.970  0.000E+00  0.000E+00  0.000E+00  0.000E+00
   6.980  0.000E+00  0.000E+00  0.000E+00  0.000E+00
   6.990  0.000E+00  0.000E+00  0.000E+00  0.000E+00
   7.000  0.000E+00  0.000E+00  0.000E+00  0.000E+00
   7.010  0.000E+00  0.000E+00  0.000E+00  0.000E+00
   7.020  0.000E+00  0.000E+00  0.000E+00  0.000E+00
   7.030  0.000E+00  0.000E+00  0.000E+00  0.000E+00
   7.040  0.000E+00  0.000E+00  0.000E+00  0.000E+00
   7.050  0.000E+00  0.000E+00  0.000E+00  0.000E+00
   7.060  0.000E+00  0.000E+00  0.000E+00  0.000E+00
   7.070  0.000E+00  0.000E+00  0.000E+00  0.000E+00
   7.080  0.000E+00  0.000E+00  0.000E+00  0.000E+00
   7.090  0.000E+00  0.000E+00  0.000E+00  0.000E+00
   7.100  0.000E+00  0.000E+00  0.000E+00  0.000E+00
   7.110  0.000E+00  0.000E+00  0.000E+00  0.000E+00
   7.120  0.000E+00  0.000E+00  0.000E+00  0.000E+00
   7.130  0.000E+00  0.000E+00  0.000E+00  0.000E+00
   7.140  0.000E+00  0.000E+00  0.000E+00  0.000E+00
   7.150  0.000E+00  0.000E+00  0.000E+00  0.000E+00
   7.160  0.000E+00  0.000E+00  0.000E+00  0.000E+00
   7.170  0.000E+00  0.000E+00  0.000E+00  0.000E+00
   7.180  0.000E+00  0.000E+00  0.000E+00  0.000E+00
   7.190  0.000E+00  0.000E+00  0.000E+00  0.000E+00
   7.200  0.000E+00  0.000E+00  0.000E+00  0.000E+00
   7.210  0.000E+00  0.000E+00  0.000E+00  0.000E+00
   7.220  0.000E+00  0.000E+00  0.000E+00  0.000E+00
   7.230  0.000E+00  0.000E+00  0.000E+00  0.000E+00
   7.240  0.000E+00  0.000E+00  0.000E+00  0.000E+00
   7.250  0.000E+00  0.000E+00  0.000E+00  0.000E+00
   7.260  0.000E+00  0.000E+00  0.000E+00  0.000E+00
   7.270  0.000E+00  0.000E+00  0.000E+00  0.000E+00
   7.280  0.000E+00  0.000E+00  0.000E+00  0.000E+00
   7.290  0.000E+00  0.000E+00  0.000E+00  0.000E+00
   7.300  0.000E+00  0.000E+00  0.000E+00  0.000E+00
   7.310  0.000E+00  0.000E+00  0.000E+00  0.000E+00
   7.320  0.000E+00  0.000E+00  0.000E+00  0.000E+00
   7.330  0.000E+00  0.000E+00  0.000E+00  0.000E+00
   7.340  0.000E+00  0.000E+00  0.000E+00  0.000E+00
   7.350  0.000E+00  0.000E+00  0.000E+00  0.000E+00
   7.360  0.000E+00  0.000E+00  0.000E+00  0.000E+00
   7.370  0.000E+00  0.000E+00  0.000E+00  0.000E+00
   7.380  0.000E+00  0.000E+00  0.000E+00  0.000E+00
   7.390  0.000E+00  0.000E+00  0.000E+00  0.000E+00
   7.400  0.000E+00  0.000E+00  0.000E+00  0.000E+00
   7.410  0.000E+00  0.000E+00  0.000E+00  0.000E+00
   7.420 -0.189E-08 -0.630E-09 -0.630E-09 -0.630E-09
   7.430 -0.454E-07 -0.151E-07 -0.151E-07 -0.151E-07
   7.440 -0.136E-06 -0.453E-07 -0.453E-07 -0.453E-07
   7.450 -0.261E-06 -0.871E-07 -0.871E-07 -0.871E-07
   7.460 -0.506E-06 -0.169E-06 -0.169E-06 -0.169E-06
   7.470 -0.894E-06 -0.298E-06 -0.298E-06 -0.298E-06
   7.480 -0.137E-05 -0.458E-06 -0.458E-06 -0.458E-06
   7.490 -0.189E-05 -0.631E-06 -0.631E-06 -0.631E-06
   7.500 -0.240E-05 -0.799E-06 -0.799E-06 -0.799E-06
   7.510 -0.284E-05 -0.947E-06 -0.947E-06 -0.947E-06
   7.520 -0.317E-05 -0.106E-05 -0.106E-05 -0.106E-05
   7.530 -0.332E-05 -0.111E-05 -0.111E-05 -0.111E-05
   7.540 -0.326E-05 -0.109E-05 -0.109E-05 -0.109E-05
   7.550 -0.293E-05 -0.976E-06 -0.976E-06 -0.976E-06
   7.560 -0.227E-05 -0.757E-06 -0.757E-06 -0.757E-06
   7.570 -0.124E-05 -0.413E-06 -0.413E-06 -0.413E-06
   7.580  0.219E-06  0.729E-07  0.729E-07  0.729E-07
   7.590  0.216E-05  0.719E-06  0.719E-06  0.719E-06
   7.600  0.462E-05  0.154E-05  0.154E-05  0.154E-05
   7.610  0.767E-05  0.256E-05  0.256E-05  0.256E-05
   7.620  0.114E-04  0.379E-05  0.379E-05  0.379E-05
   7.630  0.157E-04  0.524E-05  0.524E-05  0.524E-05
   7.640  0.208E-04  0.695E-05  0.695E-05  0.695E-05
   7.650  0.267E-04  0.891E-05  0.891E-05  0.891E-05
   7.660  0.335E-04  0.112E-04  0.112E-04  0.112E-04
   7.670  0.411E-04  0.137E-04  0.137E-04  0.137E-04
   7.680  0.497E-04  0.166E-04  0.166E-04  0.166E-04
   7.690  0.593E-04  0.198E-04  0.198E-04  0.198E-04
   7.700  0.699E-04  0.233E-04  0.233E-04  0.233E-04
   7.710  0.816E-04  0.272E-04  0.272E-04  0.272E-04
   7.720  0.945E-04  0.315E-04  0.315E-04  0.315E-04
   7.730  0.109E-03  0.362E-04  0.362E-04  0.362E-04
   7.740  0.124E-03  0.413E-04  0.413E-04  0.413E-04
   7.750  0.141E-03  0.468E-04  0.468E-04  0.468E-04
   7.760  0.159E-03  0.528E-04  0.528E-04  0.528E-04
   7.770  0.178E-03  0.593E-04  0.593E-04  0.593E-04
   7.780  0.199E-03  0.663E-04  0.663E-04  0.663E-04
   7.790  0.221E-03  0.737E-04  0.737E-04  0.737E-04
   7.800  0.245E-03  0.817E-04  0.817E-04  0.817E-04
   7.810  0.271E-03  0.903E-04  0.903E-04  0.903E-04
   7.820  0.298E-03  0.993E-04  0.993E-04  0.993E-04
   7.830  0.325E-03  0.108E-03  0.108E-03  0.108E-03
   7.840  0.355E-03  0.118E-03  0.118E-03  0.118E-03
   7.850  0.387E-03  0.129E-03  0.129E-03  0.129E-03
   7.860  0.424E-03  0.141E-03  0.141E-03  0.141E-03
   7.870  0.466E-03  0.155E-03  0.155E-03  0.155E-03
   7.880  0.512E-03  0.171E-03  0.171E-03  0.171E-03
   7.890  0.559E-03  0.186E-03  0.186E-03  0.186E-03
   7.900  0.606E-03  0.202E-03  0.202E-03  0.202E-03
   7.910  0.655E-03  0.218E-03  0.218E-03  0.218E-03
   7.920  0.704E-03  0.235E-03  0.235E-03  0.235E-03
   7.930  0.754E-03  0.251E-03  0.251E-03  0.251E-03
   7.940  0.805E-03  0.268E-03  0.268E-03  0.268E-03
   7.950  0.858E-03  0.286E-03  0.286E-03  0.286E-03
   7.960  0.912E-03  0.304E-03  0.304E-03  0.304E-03
   7.970  0.967E-03  0.322E-03  0.322E-03  0.322E-03
   7.980  0.102E-02  0.341E-03  0.341E-03  0.341E-03
   7.990  0.108E-02  0.361E-03  0.361E-03  0.361E-03
   8.000  0.114E-02  0.381E-03  0.381E-03  0.381E-03
   8.010  0.120E-02  0.401E-03  0.401E-03  0.401E-03
   8.020  0.127E-02  0.422E-03  0.422E-03  0.422E-03
   8.030  0.133E-02  0.444E-03  0.444E-03  0.444E-03
   8.040  0.140E-02  0.466E-03  0.466E-03  0.466E-03
   8.050  0.146E-02  0.488E-03  0.488E-03  0.488E-03
   8.060  0.153E-02  0.511E-03  0.511E-03  0.511E-03
   8.070  0.160E-02  0.535E-03  0.535E-03  0.535E-03
   8.080  0.168E-02  0.559E-03  0.559E-03  0.559E-03
   8.090  0.175E-02  0.583E-03  0.583E-03  0.583E-03
   8.100  0.182E-02  0.608E-03  0.608E-03  0.608E-03
   8.110  0.190E-02  0.633E-03  0.633E-03  0.633E-03
   8.120  0.197E-02  0.657E-03  0.657E-03  0.657E-03
   8.130  0.203E-02  0.678E-03  0.678E-03  0.678E-03
   8.140  0.209E-02  0.697E-03  0.697E-03  0.697E-03
   8.150  0.214E-02  0.715E-03  0.715E-03  0.715E-03
   8.160  0.221E-02  0.736E-03  0.736E-03  0.736E-03
   8.170  0.227E-02  0.758E-03  0.758E-03  0.758E-03
   8.180  0.235E-02  0.782E-03  0.782E-03  0.782E-03
   8.190  0.242E-02  0.807E-03  0.807E-03  0.807E-03
   8.200  0.250E-02  0.832E-03  0.832E-03  0.832E-03
   8.210  0.257E-02  0.858E-03  0.858E-03  0.858E-03
   8.220  0.265E-02  0.884E-03  0.884E-03  0.884E-03
   8.230  0.273E-02  0.911E-03  0.911E-03  0.911E-03
   8.240  0.282E-02  0.939E-03  0.939E-03  0.939E-03
   8.250  0.291E-02  0.970E-03  0.970E-03  0.970E-03
   8.260  0.301E-02  0.100E-02  0.100E-02  0.100E-02
   8.270  0.311E-02  0.104E-02  0.104E-02  0.104E-02
   8.280  0.322E-02  0.107E-02  0.107E-02  0.107E-02
   8.290  0.334E-02  0.111E-02  0.111E-02  0.111E-02
   8.300  0.346E-02  0.115E-02  0.115E-02  0.115E-02
   8.310  0.360E-02  0.120E-02  0.120E-02  0.120E-02
   8.320  0.376E-02  0.125E-02  0.125E-02  0.125E-02
   8.330  0.391E-02  0.130E-02  0.130E-02  0.130E-02
   8.340  0.408E-02  0.136E-02  0.136E-02  0.136E-02
   8.350  0.425E-02  0.142E-02  0.142E-02  0.142E-02
   8.360  0.442E-02  0.147E-02  0.147E-02  0.147E-02
   8.370  0.460E-02  0.153E-02  0.153E-02  0.153E-02
   8.380  0.479E-02  0.160E-02  0.160E-02  0.160E-02
   8.390  0.497E-02  0.166E-02  0.166E-02  0.166E-02
   8.400  0.517E-02  0.172E-02  0.172E-02  0.172E-02
   8.410  0.537E-02  0.179E-02  0.179E-02  0.179E-02
   8.420  0.557E-02  0.186E-02  0.186E-02  0.186E-02
   8.430  0.578E-02  0.193E-02  0.193E-02  0.193E-02
   8.440  0.600E-02  0.200E-02  0.200E-02  0.200E-02
   8.450  0.622E-02  0.207E-02  0.207E-02  0.207E-02
   8.460  0.645E-02  0.215E-02  0.215E-02  0.215E-02
   8.470  0.669E-02  0.223E-02  0.223E-02  0.223E-02
   8.480  0.693E-02  0.231E-02  0.231E-02  0.231E-02
   8.490  0.719E-02  0.240E-02  0.240E-02  0.240E-02
   8.500  0.745E-02  0.248E-02  0.248E-02  0.248E-02
   8.510  0.773E-02  0.258E-02  0.258E-02  0.258E-02
   8.520  0.801E-02  0.267E-02  0.267E-02  0.267E-02
   8.530  0.830E-02  0.277E-02  0.277E-02  0.277E-02
   8.540  0.860E-02  0.287E-02  0.287E-02  0.287E-02
   8.550  0.891E-02  0.297E-02  0.297E-02  0.297E-02
   8.560  0.923E-02  0.308E-02  0.308E-02  0.308E-02
   8.570  0.957E-02  0.319E-02  0.319E-02  0.319E-02
   8.580  0.991E-02  0.330E-02  0.330E-02  0.330E-02
   8.590  0.103E-01  0.342E-02  0.342E-02  0.342E-02
   8.600  0.106E-01  0.354E-02  0.354E-02  0.354E-02
   8.610  0.110E-01  0.367E-02  0.367E-02  0.367E-02
   8.620  0.114E-01  0.379E-02  0.379E-02  0.379E-02
   8.630  0.118E-01  0.393E-02  0.393E-02  0.393E-02
   8.640  0.122E-01  0.406E-02  0.406E-02  0.406E-02
   8.650  0.126E-01  0.420E-02  0.420E-02  0.420E-02
   8.660  0.130E-01  0.435E-02  0.435E-02  0.435E-02
   8.670  0.135E-01  0.449E-02  0.449E-02  0.449E-02
   8.680  0.139E-01  0.464E-02  0.464E-02  0.464E-02
   8.690  0.144E-01  0.480E-02  0.480E-02  0.480E-02
   8.700  0.149E-01  0.496E-02  0.496E-02  0.496E-02
   8.710  0.154E-01  0.512E-02  0.512E-02  0.512E-02
   8.720  0.158E-01  0.528E-02  0.528E-02  0.528E-02
   8.730  0.163E-01  0.543E-02  0.543E-02  0.543E-02
   8.740  0.167E-01  0.556E-02  0.556E-02  0.556E-02
   8.750  0.171E-01  0.570E-02  0.570E-02  0.570E-02
   8.760  0.176E-01  0.585E-02  0.585E-02  0.585E-02
   8.770  0.181E-01  0.603E-02  0.603E-02  0.603E-02
   8.780  0.187E-01  0.622E-02  0.622E-02  0.622E-02
   8.790  0.193E-01  0.643E-02  0.643E-02  0.643E-02
   8.800  0.200E-01  0.666E-02  0.666E-02  0.666E-02
   8.810  0.210E-01  0.699E-02  0.699E-02  0.699E-02
   8.820  0.227E-01  0.756E-02  0.756E-02  0.756E-02
   8.830  0.315E-01  0.105E-01  0.105E-01  0.105E-01
   8.840  0.353E-01  0.118E-01  0.118E-01  0.118E-01
   8.850  0.368E-01  0.123E-01  0.123E-01  0.123E-01
   8.860  0.382E-01  0.127E-01  0.127E-01  0.127E-01
   8.870  0.421E-01  0.140E-01  0.140E-01  0.140E-01
   8.880  0.475E-01  0.158E-01  0.158E-01  0.158E-01
   8.890  0.530E-01  0.177E-01  0.177E-01  0.177E-01
   8.900  0.582E-01  0.194E-01  0.194E-01  0.194E-01
   8.910  0.625E-01  0.208E-01  0.208E-01  0.208E-01
   8.920  0.660E-01  0.220E-01  0.220E-01  0.220E-01
   8.930  0.699E-01  0.233E-01  0.233E-01  0.233E-01
   8.940  0.737E-01  0.246E-01  0.246E-01  0.246E-01
   8.950  0.772E-01  0.257E-01  0.257E-01  0.257E-01
   8.960  0.816E-01  0.272E-01  0.272E-01  0.272E-01
   8.970  0.863E-01  0.288E-01  0.288E-01  0.288E-01
   8.980  0.992E-01  0.331E-01  0.331E-01  0.331E-01
   8.990  0.111E+00  0.371E-01  0.371E-01  0.371E-01
   9.000  0.115E+00  0.385E-01  0.385E-01  0.385E-01
   9.010  0.112E+00  0.372E-01  0.372E-01  0.372E-01
   9.020  0.105E+00  0.350E-01  0.350E-01  0.350E-01
   9.030  0.106E+00  0.352E-01  0.352E-01  0.352E-01
   9.040  0.107E+00  0.355E-01  0.355E-01  0.355E-01
   9.050  0.115E+00  0.382E-01  0.382E-01  0.382E-01
   9.060  0.116E+00  0.386E-01  0.386E-01  0.386E-01
   9.070  0.111E+00  0.371E-01  0.371E-01  0.371E-01
   9.080  0.117E+00  0.389E-01  0.389E-01  0.389E-01
   9.090  0.123E+00  0.409E-01  0.409E-01  0.409E-01
   9.100  0.129E+00  0.429E-01  0.429E-01  0.429E-01
   9.110  0.135E+00  0.450E-01  0.450E-01  0.450E-01
   9.120  0.141E+00  0.471E-01  0.471E-01  0.471E-01
   9.130  0.148E+00  0.492E-01  0.492E-01  0.492E-01
   9.140  0.154E+00  0.514E-01  0.514E-01  0.514E-01
   9.150  0.161E+00  0.537E-01  0.537E-01  0.537E-01
   9.160  0.168E+00  0.560E-01  0.560E-01  0.560E-01
   9.170  0.175E+00  0.584E-01  0.584E-01  0.584E-01
   9.180  0.183E+00  0.610E-01  0.610E-01  0.610E-01
   9.190  0.191E+00  0.637E-01  0.637E-01  0.637E-01
   9.200  0.201E+00  0.669E-01  0.669E-01  0.669E-01
   9.210  0.210E+00  0.700E-01  0.700E-01  0.700E-01
   9.220  0.219E+00  0.731E-01  0.731E-01  0.731E-01
   9.230  0.229E+00  0.762E-01  0.762E-01  0.762E-01
   9.240  0.238E+00  0.795E-01  0.795E-01  0.795E-01
   9.250  0.249E+00  0.829E-01  0.829E-01  0.829E-01
   9.260  0.259E+00  0.864E-01  0.864E-01  0.864E-01
   9.270  0.270E+00  0.901E-01  0.901E-01  0.901E-01
   9.280  0.281E+00  0.936E-01  0.936E-01  0.936E-01
   9.290  0.292E+00  0.973E-01  0.973E-01  0.973E-01
   9.300  0.307E+00  0.102E+00  0.102E+00  0.102E+00
   9.310  0.322E+00  0.107E+00  0.107E+00  0.107E+00
   9.320  0.334E+00  0.111E+00  0.111E+00  0.111E+00
   9.330  0.346E+00  0.115E+00  0.115E+00  0.115E+00
   9.340  0.352E+00  0.117E+00  0.117E+00  0.117E+00
   9.350  0.353E+00  0.118E+00  0.118E+00  0.118E+00
   9.360  0.348E+00  0.116E+00  0.116E+00  0.116E+00
   9.370  0.337E+00  0.112E+00  0.112E+00  0.112E+00
   9.380  0.323E+00  0.108E+00  0.108E+00  0.108E+00
   9.390  0.311E+00  0.104E+00  0.104E+00  0.104E+00
   9.400  0.301E+00  0.100E+00  0.100E+00  0.100E+00
   9.410  0.294E+00  0.979E-01  0.979E-01  0.979E-01
   9.420  0.289E+00  0.963E-01  0.963E-01  0.963E-01
   9.430  0.286E+00  0.953E-01  0.953E-01  0.953E-01
   9.440  0.285E+00  0.950E-01  0.950E-01  0.950E-01
   9.450  0.276E+00  0.921E-01  0.921E-01  0.921E-01
   9.460  0.263E+00  0.876E-01  0.876E-01  0.876E-01
   9.470  0.252E+00  0.839E-01  0.839E-01  0.839E-01
   9.480  0.263E+00  0.876E-01  0.876E-01  0.876E-01
   9.490  0.276E+00  0.918E-01  0.918E-01  0.918E-01
   9.500  0.287E+00  0.958E-01  0.958E-01  0.958E-01
   9.510  0.292E+00  0.974E-01  0.974E-01  0.974E-01
   9.520  0.288E+00  0.959E-01  0.959E-01  0.959E-01
   9.530  0.284E+00  0.947E-01  0.947E-01  0.947E-01
   9.540  0.298E+00  0.993E-01  0.993E-01  0.993E-01
   9.550  0.301E+00  0.100E+00  0.100E+00  0.100E+00
   9.560  0.280E+00  0.934E-01  0.934E-01  0.934E-01
   9.570  0.321E+00  0.107E+00  0.107E+00  0.107E+00
   9.580  0.356E+00  0.119E+00  0.119E+00  0.119E+00
   9.590  0.376E+00  0.125E+00  0.125E+00  0.125E+00
   9.600  0.386E+00  0.129E+00  0.129E+00  0.129E+00
   9.610  0.385E+00  0.128E+00  0.128E+00  0.128E+00
   9.620  0.369E+00  0.123E+00  0.123E+00  0.123E+00
   9.630  0.325E+00  0.108E+00  0.108E+00  0.108E+00
   9.640  0.285E+00  0.948E-01  0.948E-01  0.948E-01
   9.650  0.247E+00  0.824E-01  0.824E-01  0.824E-01
   9.660  0.211E+00  0.702E-01  0.702E-01  0.702E-01
   9.670  0.200E+00  0.665E-01  0.665E-01  0.665E-01
   9.680  0.214E+00  0.713E-01  0.713E-01  0.713E-01
   9.690  0.237E+00  0.789E-01  0.789E-01  0.789E-01
   9.700  0.267E+00  0.890E-01  0.890E-01  0.890E-01
   9.710  0.305E+00  0.102E+00  0.102E+00  0.102E+00
   9.720  0.340E+00  0.113E+00  0.113E+00  0.113E+00
   9.730  0.472E+00  0.157E+00  0.157E+00  0.157E+00
   9.740  0.404E+00  0.135E+00  0.135E+00  0.135E+00
   9.750  0.367E+00  0.122E+00  0.122E+00  0.122E+00
   9.760  0.365E+00  0.122E+00  0.122E+00  0.122E+00
   9.770  0.364E+00  0.121E+00  0.121E+00  0.121E+00
   9.780  0.362E+00  0.121E+00  0.121E+00  0.121E+00
   9.790  0.359E+00  0.120E+00  0.120E+00  0.120E+00
   9.800  0.355E+00  0.118E+00  0.118E+00  0.118E+00
   9.810  0.350E+00  0.117E+00  0.117E+00  0.117E+00
   9.820  0.347E+00  0.116E+00  0.116E+00  0.116E+00
   9.830  0.346E+00  0.115E+00  0.115E+00  0.115E+00
   9.840  0.466E+00  0.155E+00  0.155E+00  0.155E+00
   9.850  0.896E+00  0.299E+00  0.299E+00  0.299E+00
   9.860  0.937E+00  0.312E+00  0.312E+00  0.312E+00
   9.870  0.970E+00  0.323E+00  0.323E+00  0.323E+00
   9.880  0.821E+00  0.274E+00  0.274E+00  0.274E+00
   9.890  0.652E+00  0.217E+00  0.217E+00  0.217E+00
   9.900  0.708E+00  0.236E+00  0.236E+00  0.236E+00
   9.910  0.563E+00  0.188E+00  0.188E+00  0.188E+00
   9.920  0.545E+00  0.182E+00  0.182E+00  0.182E+00
   9.930  0.552E+00  0.184E+00  0.184E+00  0.184E+00
   9.940  0.565E+00  0.188E+00  0.188E+00  0.188E+00
   9.950  0.581E+00  0.194E+00  0.194E+00  0.194E+00
   9.960  0.598E+00  0.199E+00  0.199E+00  0.199E+00
   9.970  0.612E+00  0.204E+00  0.204E+00  0.204E+00
   9.980  0.622E+00  0.207E+00  0.207E+00  0.207E+00
   9.990  0.629E+00  0.210E+00  0.210E+00  0.210E+00
  10.000  0.632E+00  0.211E+00  0.211E+00  0.211E+00
  10.010  0.631E+00  0.210E+00  0.210E+00  0.210E+00
  10.020  0.628E+00  0.209E+00  0.209E+00  0.209E+00
  10.030  0.619E+00  0.206E+00  0.206E+00  0.206E+00
  10.040  0.611E+00  0.204E+00  0.204E+00  0.204E+00
  10.050  0.611E+00  0.204E+00  0.204E+00  0.204E+00
  10.060  0.618E+00  0.206E+00  0.206E+00  0.206E+00
  10.070  0.784E+00  0.261E+00  0.261E+00  0.261E+00
  10.080  0.755E+00  0.252E+00  0.252E+00  0.252E+00
  10.090  0.737E+00  0.246E+00  0.246E+00  0.246E+00
  10.100  0.610E+00  0.203E+00  0.203E+00  0.203E+00
  10.110  0.540E+00  0.180E+00  0.180E+00  0.180E+00
  10.120  0.489E+00  0.163E+00  0.163E+00  0.163E+00
  10.130  0.444E+00  0.148E+00  0.148E+00  0.148E+00
  10.140  0.403E+00  0.134E+00  0.134E+00  0.134E+00
  10.150  0.363E+00  0.121E+00  0.121E+00  0.121E+00
  10.160  0.320E+00  0.107E+00  0.107E+00  0.107E+00
  10.170  0.288E+00  0.961E-01  0.961E-01  0.961E-01
  10.180  0.279E+00  0.931E-01  0.931E-01  0.931E-01
  10.190  0.275E+00  0.915E-01  0.915E-01  0.915E-01
  10.200  0.272E+00  0.907E-01  0.907E-01  0.907E-01
  10.210  0.271E+00  0.902E-01  0.902E-01  0.902E-01
  10.220  0.270E+00  0.900E-01  0.900E-01  0.900E-01
  10.230  0.270E+00  0.899E-01  0.899E-01  0.899E-01
  10.240  0.270E+00  0.899E-01  0.899E-01  0.899E-01
  10.250  0.270E+00  0.901E-01  0.901E-01  0.901E-01
  10.260  0.271E+00  0.903E-01  0.903E-01  0.903E-01
  10.270  0.272E+00  0.905E-01  0.905E-01  0.905E-01
  10.280  0.272E+00  0.907E-01  0.907E-01  0.907E-01
  10.290  0.285E+00  0.950E-01  0.950E-01  0.950E-01
  10.300  0.557E+00  0.186E+00  0.186E+00  0.186E+00
  10.310  0.806E+00  0.269E+00  0.269E+00  0.269E+00
  10.320  0.697E+00  0.232E+00  0.232E+00  0.232E+00
  10.330  0.639E+00  0.213E+00  0.213E+00  0.213E+00
  10.340  0.545E+00  0.182E+00  0.182E+00  0.182E+00
  10.350  0.422E+00  0.141E+00  0.141E+00  0.141E+00
  10.360  0.354E+00  0.118E+00  0.118E+00  0.118E+00
  10.370  0.315E+00  0.105E+00  0.105E+00  0.105E+00
  10.380  0.285E+00  0.948E-01  0.948E-01  0.948E-01
  10.390  0.256E+00  0.852E-01  0.852E-01  0.852E-01
  10.400  0.220E+00  0.734E-01  0.734E-01  0.734E-01
  10.410  0.191E+00  0.636E-01  0.636E-01  0.636E-01
  10.420  0.177E+00  0.591E-01  0.591E-01  0.591E-01
  10.430  0.177E+00  0.588E-01  0.588E-01  0.588E-01
  10.440  0.188E+00  0.626E-01  0.626E-01  0.626E-01
  10.450  0.206E+00  0.685E-01  0.685E-01  0.685E-01
  10.460  0.221E+00  0.738E-01  0.738E-01  0.738E-01
  10.470  0.238E+00  0.795E-01  0.795E-01  0.795E-01
  10.480  0.256E+00  0.854E-01  0.854E-01  0.854E-01
  10.490  0.272E+00  0.908E-01  0.908E-01  0.908E-01
  10.500  0.287E+00  0.957E-01  0.957E-01  0.957E-01
  10.510  0.302E+00  0.101E+00  0.101E+00  0.101E+00
  10.520  0.309E+00  0.103E+00  0.103E+00  0.103E+00
  10.530  0.323E+00  0.108E+00  0.108E+00  0.108E+00
  10.540  0.336E+00  0.112E+00  0.112E+00  0.112E+00
  10.550  0.348E+00  0.116E+00  0.116E+00  0.116E+00
  10.560  0.361E+00  0.120E+00  0.120E+00  0.120E+00
  10.570  0.361E+00  0.120E+00  0.120E+00  0.120E+00
  10.580  0.361E+00  0.120E+00  0.120E+00  0.120E+00
  10.590  0.361E+00  0.120E+00  0.120E+00  0.120E+00
  10.600  0.360E+00  0.120E+00  0.120E+00  0.120E+00
  10.610  0.359E+00  0.120E+00  0.120E+00  0.120E+00
  10.620  0.357E+00  0.119E+00  0.119E+00  0.119E+00
  10.630  0.351E+00  0.117E+00  0.117E+00  0.117E+00
  10.640  0.354E+00  0.118E+00  0.118E+00  0.118E+00
  10.650  0.394E+00  0.131E+00  0.131E+00  0.131E+00
  10.660  0.408E+00  0.136E+00  0.136E+00  0.136E+00
  10.670  0.382E+00  0.127E+00  0.127E+00  0.127E+00
  10.680  0.358E+00  0.119E+00  0.119E+00  0.119E+00
  10.690  0.341E+00  0.114E+00  0.114E+00  0.114E+00
  10.700  0.323E+00  0.108E+00  0.108E+00  0.108E+00
  10.710  0.305E+00  0.102E+00  0.102E+00  0.102E+00
  10.720  0.297E+00  0.991E-01  0.991E-01  0.991E-01
  10.730  0.292E+00  0.973E-01  0.973E-01  0.973E-01
  10.740  0.282E+00  0.941E-01  0.941E-01  0.941E-01
  10.750  0.269E+00  0.896E-01  0.896E-01  0.896E-01
  10.760  0.253E+00  0.843E-01  0.843E-01  0.843E-01
  10.770  0.251E+00  0.837E-01  0.837E-01  0.837E-01
  10.780  0.195E+00  0.651E-01  0.651E-01  0.651E-01
  10.790  0.223E+00  0.742E-01  0.742E-01  0.742E-01
  10.800  0.170E+00  0.566E-01  0.566E-01  0.566E-01
  10.810  0.148E+00  0.492E-01  0.492E-01  0.492E-01
  10.820  0.151E+00  0.503E-01  0.503E-01  0.503E-01
  10.830  0.158E+00  0.526E-01  0.526E-01  0.526E-01
  10.840  0.157E+00  0.523E-01  0.523E-01  0.523E-01
  10.850  0.161E+00  0.538E-01  0.538E-01  0.538E-01
  10.860  0.167E+00  0.556E-01  0.556E-01  0.556E-01
  10.870  0.172E+00  0.573E-01  0.573E-01  0.573E-01
  10.880  0.177E+00  0.589E-01  0.589E-01  0.589E-01
  10.890  0.182E+00  0.605E-01  0.605E-01  0.605E-01
  10.900  0.186E+00  0.621E-01  0.621E-01  0.621E-01
  10.910  0.188E+00  0.628E-01  0.628E-01  0.628E-01
  10.920  0.181E+00  0.604E-01  0.604E-01  0.604E-01
  10.930  0.184E+00  0.613E-01  0.613E-01  0.613E-01
  10.940  0.199E+00  0.664E-01  0.664E-01  0.664E-01
  10.950  0.219E+00  0.731E-01  0.731E-01  0.731E-01
  10.960  0.238E+00  0.794E-01  0.794E-01  0.794E-01
  10.970  0.258E+00  0.859E-01  0.859E-01  0.859E-01
  10.980  0.277E+00  0.922E-01  0.922E-01  0.922E-01
  10.990  0.297E+00  0.990E-01  0.990E-01  0.990E-01
  11.000  0.321E+00  0.107E+00  0.107E+00  0.107E+00
  11.010  0.351E+00  0.117E+00  0.117E+00  0.117E+00
  11.020  0.386E+00  0.129E+00  0.129E+00  0.129E+00
  11.030  0.483E+00  0.161E+00  0.161E+00  0.161E+00
  11.040  0.415E+00  0.138E+00  0.138E+00  0.138E+00
  11.050  0.529E+00  0.176E+00  0.176E+00  0.176E+00
  11.060  0.432E+00  0.144E+00  0.144E+00  0.144E+00
  11.070  0.345E+00  0.115E+00  0.115E+00  0.115E+00
  11.080  0.294E+00  0.981E-01  0.981E-01  0.981E-01
  11.090  0.253E+00  0.842E-01  0.842E-01  0.842E-01
  11.100  0.222E+00  0.740E-01  0.740E-01  0.740E-01
  11.110  0.208E+00  0.693E-01  0.693E-01  0.693E-01
  11.120  0.203E+00  0.675E-01  0.675E-01  0.675E-01
  11.130  0.199E+00  0.663E-01  0.663E-01  0.663E-01
  11.140  0.196E+00  0.652E-01  0.652E-01  0.652E-01
  11.150  0.193E+00  0.642E-01  0.642E-01  0.642E-01
  11.160  0.190E+00  0.632E-01  0.632E-01  0.632E-01
  11.170  0.187E+00  0.624E-01  0.624E-01  0.624E-01
  11.180  0.185E+00  0.616E-01  0.616E-01  0.616E-01
  11.190  0.183E+00  0.610E-01  0.610E-01  0.610E-01
  11.200  0.181E+00  0.605E-01  0.605E-01  0.605E-01
  11.210  0.181E+00  0.602E-01  0.602E-01  0.602E-01
  11.220  0.181E+00  0.602E-01  0.602E-01  0.602E-01
  11.230  0.181E+00  0.604E-01  0.604E-01  0.604E-01
  11.240  0.182E+00  0.608E-01  0.608E-01  0.608E-01
  11.250  0.184E+00  0.614E-01  0.614E-01  0.614E-01
  11.260  0.187E+00  0.622E-01  0.622E-01  0.622E-01
  11.270  0.190E+00  0.633E-01  0.633E-01  0.633E-01
  11.280  0.200E+00  0.666E-01  0.666E-01  0.666E-01
  11.290  0.219E+00  0.729E-01  0.729E-01  0.729E-01
  11.300  0.253E+00  0.842E-01  0.842E-01  0.842E-01
  11.310  0.285E+00  0.948E-01  0.948E-01  0.948E-01
  11.320  0.318E+00  0.106E+00  0.106E+00  0.106E+00
  11.330  0.356E+00  0.119E+00  0.119E+00  0.119E+00
  11.340  0.399E+00  0.133E+00  0.133E+00  0.133E+00
  11.350  0.446E+00  0.149E+00  0.149E+00  0.149E+00
  11.360  0.491E+00  0.164E+00  0.164E+00  0.164E+00
  11.370  0.537E+00  0.179E+00  0.179E+00  0.179E+00
  11.380  0.583E+00  0.194E+00  0.194E+00  0.194E+00
  11.390  0.631E+00  0.210E+00  0.210E+00  0.210E+00
  11.400  0.666E+00  0.222E+00  0.222E+00  0.222E+00
  11.410  0.685E+00  0.228E+00  0.228E+00  0.228E+00
  11.420  0.701E+00  0.234E+00  0.234E+00  0.234E+00
  11.430  0.692E+00  0.231E+00  0.231E+00  0.231E+00
  11.440  0.704E+00  0.235E+00  0.235E+00  0.235E+00
  11.450  0.725E+00  0.242E+00  0.242E+00  0.242E+00
  11.460  0.754E+00  0.251E+00  0.251E+00  0.251E+00
  11.470  0.748E+00  0.249E+00  0.249E+00  0.249E+00
  11.480  0.663E+00  0.221E+00  0.221E+00  0.221E+00
  11.490  0.649E+00  0.216E+00  0.216E+00  0.216E+00
  11.500  0.655E+00  0.218E+00  0.218E+00  0.218E+00
  11.510  0.705E+00  0.235E+00  0.235E+00  0.235E+00
  11.520  0.786E+00  0.262E+00  0.262E+00  0.262E+00
  11.530  0.918E+00  0.306E+00  0.306E+00  0.306E+00
  11.540  0.911E+00  0.304E+00  0.304E+00  0.304E+00
  11.550  0.942E+00  0.314E+00  0.314E+00  0.314E+00
  11.560  0.845E+00  0.282E+00  0.282E+00  0.282E+00
  11.570  0.661E+00  0.220E+00  0.220E+00  0.220E+00
  11.580  0.646E+00  0.215E+00  0.215E+00  0.215E+00
  11.590  0.679E+00  0.226E+00  0.226E+00  0.226E+00
  11.600  0.711E+00  0.237E+00  0.237E+00  0.237E+00
  11.610  0.742E+00  0.247E+00  0.247E+00  0.247E+00
  11.620  0.769E+00  0.256E+00  0.256E+00  0.256E+00
  11.630  0.818E+00  0.273E+00  0.273E+00  0.273E+00
  11.640  0.895E+00  0.298E+00  0.298E+00  0.298E+00
  11.650  0.960E+00  0.320E+00  0.320E+00  0.320E+00
  11.660  0.111E+01  0.371E+00  0.371E+00  0.371E+00
  11.670  0.931E+00  0.310E+00  0.310E+00  0.310E+00
  11.680  0.832E+00  0.277E+00  0.277E+00  0.277E+00
  11.690  0.791E+00  0.264E+00  0.264E+00  0.264E+00
  11.700  0.747E+00  0.249E+00  0.249E+00  0.249E+00
  11.710  0.703E+00  0.234E+00  0.234E+00  0.234E+00
  11.720  0.667E+00  0.222E+00  0.222E+00  0.222E+00
  11.730  0.648E+00  0.216E+00  0.216E+00  0.216E+00
  11.740  0.695E+00  0.232E+00  0.232E+00  0.232E+00
  11.750  0.756E+00  0.252E+00  0.252E+00  0.252E+00
  11.760  0.758E+00  0.253E+00  0.253E+00  0.253E+00
  11.770  0.758E+00  0.253E+00  0.253E+00  0.253E+00
  11.780  0.754E+00  0.251E+00  0.251E+00  0.251E+00
  11.790  0.741E+00  0.247E+00  0.247E+00  0.247E+00
  11.800  0.711E+00  0.237E+00  0.237E+00  0.237E+00
  11.810  0.660E+00  0.220E+00  0.220E+00  0.220E+00
  11.820  0.635E+00  0.212E+00  0.212E+00  0.212E+00
  11.830  0.683E+00  0.228E+00  0.228E+00  0.228E+00
  11.840  0.611E+00  0.204E+00  0.204E+00  0.204E+00
  11.850  0.493E+00  0.164E+00  0.164E+00  0.164E+00
  11.860  0.467E+00  0.156E+00  0.156E+00  0.156E+00
  11.870  0.429E+00  0.143E+00  0.143E+00  0.143E+00
  11.880  0.383E+00  0.128E+00  0.128E+00  0.128E+00
  11.890  0.341E+00  0.114E+00  0.114E+00  0.114E+00
  11.900  0.306E+00  0.102E+00  0.102E+00  0.102E+00
  11.910  0.278E+00  0.926E-01  0.926E-01  0.926E-01
  11.920  0.258E+00  0.860E-01  0.860E-01  0.860E-01
  11.930  0.238E+00  0.793E-01  0.793E-01  0.793E-01
  11.940  0.248E+00  0.826E-01  0.826E-01  0.826E-01
  11.950  0.245E+00  0.816E-01  0.816E-01  0.816E-01
  11.960  0.224E+00  0.748E-01  0.748E-01  0.748E-01
  11.970  0.205E+00  0.683E-01  0.683E-01  0.683E-01
  11.980  0.186E+00  0.620E-01  0.620E-01  0.620E-01
  11.990  0.168E+00  0.560E-01  0.560E-01  0.560E-01
  12.000  0.150E+00  0.501E-01  0.501E-01  0.501E-01
  12.010  0.133E+00  0.444E-01  0.444E-01  0.444E-01
