# E (eV)   ldos(E)   pdos(E)    pdos(E)    pdos(E)   
   0.000  0.820E-01  0.252E-01  0.252E-01  0.316E-01
   0.010  0.773E-01  0.242E-01  0.242E-01  0.290E-01
   0.020  0.803E-01  0.257E-01  0.257E-01  0.289E-01
   0.030  0.213E+00  0.695E-01  0.695E-01  0.735E-01
   0.040  0.216E+00  0.747E-01  0.747E-01  0.665E-01
   0.050  0.185E+00  0.628E-01  0.628E-01  0.594E-01
   0.060  0.836E-01  0.275E-01  0.275E-01  0.286E-01
   0.070  0.465E-01  0.151E-01  0.151E-01  0.163E-01
   0.080  0.356E-01  0.117E-01  0.117E-01  0.121E-01
   0.090  0.594E-01  0.200E-01  0.200E-01  0.195E-01
   0.100  0.741E-01  0.244E-01  0.244E-01  0.253E-01
   0.110  0.121E+00  0.399E-01  0.399E-01  0.416E-01
   0.120  0.741E-01  0.244E-01  0.244E-01  0.253E-01
   0.130  0.400E-01  0.133E-01  0.133E-01  0.134E-01
   0.140  0.240E-01  0.813E-02  0.813E-02  0.770E-02
   0.150  0.131E-01  0.453E-02  0.453E-02  0.401E-02
   0.160  0.610E-02  0.204E-02  0.204E-02  0.202E-02
   0.170  0.211E-02  0.701E-03  0.701E-03  0.706E-03
   0.180  0.375E-03  0.124E-03  0.124E-03  0.126E-03
   0.190 -0.900E-06 -0.193E-06 -0.193E-06 -0.513E-06
   0.200 -0.858E-07 -0.301E-07 -0.301E-07 -0.256E-07
   0.210  0.000E+00  0.000E+00  0.000E+00  0.000E+00
   0.220  0.000E+00  0.000E+00  0.000E+00  0.000E+00
   0.230  0.000E+00  0.000E+00  0.000E+00  0.000E+00
   0.240  0.000E+00  0.000E+00  0.000E+00  0.000E+00
   0.250  0.000E+00  0.000E+00  0.000E+00  0.000E+00
   0.260  0.000E+00  0.000E+00  0.000E+00  0.000E+00
   0.270  0.000E+00  0.000E+00  0.000E+00  0.000E+00
   0.280  0.000E+00  0.000E+00  0.000E+00  0.000E+00
   0.290  0.000E+00  0.000E+00  0.000E+00  0.000E+00
   0.300  0.000E+00  0.000E+00  0.000E+00  0.000E+00
   0.310  0.000E+00  0.000E+00  0.000E+00  0.000E+00
   0.320  0.542E-07  0.180E-07  0.180E-07  0.183E-07
   0.330  0.218E-04  0.722E-05  0.722E-05  0.741E-05
   0.340  0.208E-03  0.688E-04  0.688E-04  0.705E-04
   0.350  0.754E-03  0.249E-03  0.249E-03  0.255E-03
   0.360  0.171E-02  0.565E-03  0.565E-03  0.578E-03
   0.370  0.306E-02  0.101E-02  0.101E-02  0.104E-02
   0.380  0.481E-02  0.159E-02  0.159E-02  0.163E-02
   0.390  0.694E-02  0.230E-02  0.230E-02  0.235E-02
   0.400  0.945E-02  0.313E-02  0.313E-02  0.320E-02
   0.410  0.123E-01  0.408E-02  0.408E-02  0.418E-02
   0.420  0.156E-01  0.514E-02  0.514E-02  0.528E-02
   0.430  0.192E-01  0.633E-02  0.633E-02  0.650E-02
   0.440  0.231E-01  0.763E-02  0.763E-02  0.784E-02
   0.450  0.274E-01  0.903E-02  0.903E-02  0.930E-02
   0.460  0.328E-01  0.108E-01  0.108E-01  0.112E-01
   0.470  0.477E-01  0.158E-01  0.158E-01  0.162E-01
   0.480  0.732E-01  0.242E-01  0.242E-01  0.248E-01
   0.490  0.944E-01  0.312E-01  0.312E-01  0.319E-01
   0.500  0.111E+00  0.366E-01  0.366E-01  0.374E-01
   0.510  0.122E+00  0.406E-01  0.406E-01  0.413E-01
   0.520  0.130E+00  0.431E-01  0.431E-01  0.437E-01
   0.530  0.133E+00  0.443E-01  0.443E-01  0.447E-01
   0.540  0.133E+00  0.443E-01  0.443E-01  0.444E-01
   0.550  0.128E+00  0.428E-01  0.428E-01  0.425E-01
   0.560  0.121E+00  0.407E-01  0.407E-01  0.398E-01
   0.570  0.121E+00  0.409E-01  0.409E-01  0.395E-01
   0.580  0.128E+00  0.433E-01  0.433E-01  0.414E-01
   0.590  0.135E+00  0.459E-01  0.459E-01  0.435E-01
   0.600  0.143E+00  0.486E-01  0.486E-01  0.456E-01
   0.610  0.150E+00  0.514E-01  0.514E-01  0.477E-01
   0.620  0.158E+00  0.543E-01  0.543E-01  0.498E-01
   0.630  0.166E+00  0.572E-01  0.572E-01  0.520E-01
   0.640  0.175E+00  0.603E-01  0.603E-01  0.542E-01
   0.650  0.183E+00  0.635E-01  0.635E-01  0.563E-01
   0.660  0.192E+00  0.667E-01  0.667E-01  0.585E-01
   0.670  0.200E+00  0.698E-01  0.698E-01  0.604E-01
   0.680  0.211E+00  0.738E-01  0.738E-01  0.632E-01
   0.690  0.248E+00  0.867E-01  0.867E-01  0.745E-01
   0.700  0.313E+00  0.109E+00  0.109E+00  0.944E-01
   0.710  0.353E+00  0.124E+00  0.124E+00  0.105E+00
   0.720  0.351E+00  0.124E+00  0.124E+00  0.102E+00
   0.730  0.348E+00  0.124E+00  0.124E+00  0.998E-01
   0.740  0.347E+00  0.124E+00  0.124E+00  0.986E-01
   0.750  0.352E+00  0.126E+00  0.126E+00  0.100E+00
   0.760  0.375E+00  0.133E+00  0.133E+00  0.108E+00
   0.770  0.383E+00  0.134E+00  0.134E+00  0.115E+00
   0.780  0.351E+00  0.119E+00  0.119E+00  0.113E+00
   0.790  0.355E+00  0.119E+00  0.119E+00  0.117E+00
   0.800  0.362E+00  0.121E+00  0.121E+00  0.120E+00
   0.810  0.368E+00  0.122E+00  0.122E+00  0.124E+00
   0.820  0.375E+00  0.124E+00  0.124E+00  0.127E+00
   0.830  0.381E+00  0.125E+00  0.125E+00  0.131E+00
   0.840  0.387E+00  0.127E+00  0.127E+00  0.134E+00
   0.850  0.393E+00  0.128E+00  0.128E+00  0.136E+00
   0.860  0.399E+00  0.130E+00  0.130E+00  0.139E+00
   0.870  0.405E+00  0.132E+00  0.132E+00  0.141E+00
   0.880  0.425E+00  0.137E+00  0.137E+00  0.151E+00
   0.890  0.466E+00  0.149E+00  0.149E+00  0.169E+00
   0.900  0.506E+00  0.161E+00  0.161E+00  0.185E+00
   0.910  0.553E+00  0.177E+00  0.177E+00  0.199E+00
   0.920  0.615E+00  0.201E+00  0.201E+00  0.213E+00
   0.930  0.655E+00  0.216E+00  0.216E+00  0.224E+00
   0.940  0.680E+00  0.224E+00  0.224E+00  0.232E+00
   0.950  0.695E+00  0.229E+00  0.229E+00  0.238E+00
   0.960  0.687E+00  0.224E+00  0.224E+00  0.238E+00
   0.970  0.663E+00  0.216E+00  0.216E+00  0.232E+00
   0.980  0.716E+00  0.234E+00  0.234E+00  0.249E+00
   0.990  0.824E+00  0.269E+00  0.269E+00  0.286E+00
   1.000  0.965E+00  0.316E+00  0.316E+00  0.333E+00
   1.010  0.117E+01  0.385E+00  0.385E+00  0.397E+00
   1.020  0.119E+01  0.395E+00  0.395E+00  0.400E+00
   1.030  0.202E+01  0.667E+00  0.667E+00  0.682E+00
   1.040  0.235E+01  0.754E+00  0.754E+00  0.844E+00
   1.050  0.222E+01  0.719E+00  0.719E+00  0.783E+00
   1.060  0.244E+01  0.807E+00  0.807E+00  0.827E+00
   1.070  0.190E+01  0.640E+00  0.640E+00  0.619E+00
   1.080  0.123E+01  0.439E+00  0.439E+00  0.353E+00
   1.090  0.110E+01  0.396E+00  0.396E+00  0.308E+00
   1.100  0.955E+00  0.346E+00  0.346E+00  0.262E+00
   1.110  0.792E+00  0.289E+00  0.289E+00  0.213E+00
   1.120  0.612E+00  0.225E+00  0.225E+00  0.161E+00
   1.130  0.422E+00  0.157E+00  0.157E+00  0.108E+00
   1.140  0.313E+00  0.114E+00  0.114E+00  0.858E-01
   1.150  0.437E+00  0.144E+00  0.144E+00  0.149E+00
   1.160  0.666E+00  0.209E+00  0.209E+00  0.248E+00
   1.170  0.811E+00  0.254E+00  0.254E+00  0.304E+00
   1.180  0.832E+00  0.264E+00  0.264E+00  0.304E+00
   1.190  0.801E+00  0.257E+00  0.257E+00  0.287E+00
   1.200  0.801E+00  0.260E+00  0.260E+00  0.281E+00
   1.210  0.784E+00  0.256E+00  0.256E+00  0.271E+00
   1.220  0.776E+00  0.256E+00  0.256E+00  0.265E+00
   1.230  0.781E+00  0.259E+00  0.259E+00  0.264E+00
   1.240  0.792E+00  0.263E+00  0.263E+00  0.265E+00
   1.250  0.804E+00  0.268E+00  0.268E+00  0.268E+00
   1.260  0.828E+00  0.276E+00  0.276E+00  0.275E+00
   1.270  0.841E+00  0.281E+00  0.281E+00  0.280E+00
   1.280  0.839E+00  0.280E+00  0.280E+00  0.279E+00
   1.290  0.824E+00  0.275E+00  0.275E+00  0.275E+00
   1.300  0.796E+00  0.265E+00  0.265E+00  0.266E+00
   1.310  0.754E+00  0.251E+00  0.251E+00  0.252E+00
   1.320  0.696E+00  0.232E+00  0.232E+00  0.232E+00
   1.330  0.630E+00  0.211E+00  0.211E+00  0.209E+00
   1.340  0.583E+00  0.195E+00  0.195E+00  0.194E+00
   1.350  0.541E+00  0.180E+00  0.180E+00  0.180E+00
   1.360  0.505E+00  0.168E+00  0.168E+00  0.170E+00
   1.370  0.482E+00  0.160E+00  0.160E+00  0.162E+00
   1.380  0.461E+00  0.152E+00  0.152E+00  0.156E+00
   1.390  0.441E+00  0.145E+00  0.145E+00  0.150E+00
   1.400  0.422E+00  0.139E+00  0.139E+00  0.144E+00
   1.410  0.406E+00  0.134E+00  0.134E+00  0.139E+00
   1.420  0.394E+00  0.130E+00  0.130E+00  0.135E+00
   1.430  0.389E+00  0.128E+00  0.128E+00  0.134E+00
   1.440  0.401E+00  0.131E+00  0.131E+00  0.138E+00
   1.450  0.415E+00  0.136E+00  0.136E+00  0.143E+00
   1.460  0.427E+00  0.140E+00  0.140E+00  0.147E+00
   1.470  0.435E+00  0.143E+00  0.143E+00  0.149E+00
   1.480  0.440E+00  0.145E+00  0.145E+00  0.150E+00
   1.490  0.442E+00  0.146E+00  0.146E+00  0.150E+00
   1.500  0.441E+00  0.146E+00  0.146E+00  0.149E+00
   1.510  0.437E+00  0.145E+00  0.145E+00  0.148E+00
   1.520  0.430E+00  0.142E+00  0.142E+00  0.145E+00
   1.530  0.419E+00  0.139E+00  0.139E+00  0.142E+00
   1.540  0.406E+00  0.134E+00  0.134E+00  0.138E+00
   1.550  0.390E+00  0.128E+00  0.128E+00  0.134E+00
   1.560  0.371E+00  0.121E+00  0.121E+00  0.129E+00
   1.570  0.351E+00  0.114E+00  0.114E+00  0.124E+00
   1.580  0.332E+00  0.107E+00  0.107E+00  0.118E+00
   1.590  0.312E+00  0.999E-01  0.999E-01  0.112E+00
   1.600  0.293E+00  0.933E-01  0.933E-01  0.106E+00
   1.610  0.273E+00  0.869E-01  0.869E-01  0.992E-01
   1.620  0.258E+00  0.822E-01  0.822E-01  0.938E-01
   1.630  0.250E+00  0.797E-01  0.797E-01  0.903E-01
   1.640  0.244E+00  0.783E-01  0.783E-01  0.876E-01
   1.650  0.243E+00  0.789E-01  0.789E-01  0.857E-01
   1.660  0.248E+00  0.817E-01  0.817E-01  0.848E-01
   1.670  0.255E+00  0.849E-01  0.849E-01  0.848E-01
   1.680  0.265E+00  0.892E-01  0.892E-01  0.869E-01
   1.690  0.277E+00  0.941E-01  0.941E-01  0.889E-01
   1.700  0.294E+00  0.101E+00  0.101E+00  0.926E-01
   1.710  0.334E+00  0.112E+00  0.112E+00  0.109E+00
   1.720  0.354E+00  0.118E+00  0.118E+00  0.119E+00
   1.730  0.346E+00  0.115E+00  0.115E+00  0.116E+00
   1.740  0.318E+00  0.106E+00  0.106E+00  0.106E+00
   1.750  0.276E+00  0.931E-01  0.931E-01  0.902E-01
   1.760  0.232E+00  0.790E-01  0.790E-01  0.742E-01
   1.770  0.194E+00  0.671E-01  0.671E-01  0.599E-01
   1.780  0.173E+00  0.610E-01  0.610E-01  0.511E-01
   1.790  0.172E+00  0.619E-01  0.619E-01  0.486E-01
   1.800  0.181E+00  0.660E-01  0.660E-01  0.492E-01
   1.810  0.194E+00  0.714E-01  0.714E-01  0.516E-01
   1.820  0.211E+00  0.774E-01  0.774E-01  0.561E-01
   1.830  0.226E+00  0.828E-01  0.828E-01  0.608E-01
   1.840  0.240E+00  0.874E-01  0.874E-01  0.653E-01
   1.850  0.252E+00  0.911E-01  0.911E-01  0.695E-01
   1.860  0.261E+00  0.939E-01  0.939E-01  0.733E-01
   1.870  0.269E+00  0.960E-01  0.960E-01  0.767E-01
   1.880  0.274E+00  0.974E-01  0.974E-01  0.796E-01
   1.890  0.278E+00  0.980E-01  0.980E-01  0.820E-01
   1.900  0.279E+00  0.978E-01  0.978E-01  0.838E-01
   1.910  0.279E+00  0.970E-01  0.970E-01  0.850E-01
   1.920  0.277E+00  0.955E-01  0.955E-01  0.855E-01
   1.930  0.272E+00  0.934E-01  0.934E-01  0.853E-01
   1.940  0.265E+00  0.906E-01  0.906E-01  0.843E-01
   1.950  0.257E+00  0.872E-01  0.872E-01  0.825E-01
   1.960  0.247E+00  0.836E-01  0.836E-01  0.802E-01
   1.970  0.238E+00  0.802E-01  0.802E-01  0.778E-01
   1.980  0.232E+00  0.777E-01  0.777E-01  0.762E-01
   1.990  0.225E+00  0.755E-01  0.755E-01  0.745E-01
   2.000  0.220E+00  0.734E-01  0.734E-01  0.728E-01
   2.010  0.214E+00  0.714E-01  0.714E-01  0.710E-01
   2.020  0.209E+00  0.698E-01  0.698E-01  0.695E-01
   2.030  0.205E+00  0.685E-01  0.685E-01  0.680E-01
   2.040  0.201E+00  0.673E-01  0.673E-01  0.666E-01
   2.050  0.198E+00  0.663E-01  0.663E-01  0.651E-01
   2.060  0.195E+00  0.654E-01  0.654E-01  0.637E-01
   2.070  0.192E+00  0.650E-01  0.650E-01  0.626E-01
   2.080  0.191E+00  0.648E-01  0.648E-01  0.618E-01
   2.090  0.191E+00  0.650E-01  0.650E-01  0.612E-01
   2.100  0.191E+00  0.652E-01  0.652E-01  0.607E-01
   2.110  0.192E+00  0.657E-01  0.657E-01  0.606E-01
   2.120  0.193E+00  0.662E-01  0.662E-01  0.606E-01
   2.130  0.194E+00  0.668E-01  0.668E-01  0.607E-01
   2.140  0.195E+00  0.673E-01  0.673E-01  0.607E-01
   2.150  0.196E+00  0.678E-01  0.678E-01  0.607E-01
   2.160  0.197E+00  0.683E-01  0.683E-01  0.607E-01
   2.170  0.198E+00  0.687E-01  0.687E-01  0.605E-01
   2.180  0.199E+00  0.691E-01  0.691E-01  0.604E-01
   2.190  0.199E+00  0.695E-01  0.695E-01  0.603E-01
   2.200  0.200E+00  0.699E-01  0.699E-01  0.601E-01
   2.210  0.200E+00  0.700E-01  0.700E-01  0.598E-01
   2.220  0.201E+00  0.703E-01  0.703E-01  0.605E-01
   2.230  0.198E+00  0.690E-01  0.690E-01  0.605E-01
   2.240  0.209E+00  0.732E-01  0.732E-01  0.627E-01
   2.250  0.233E+00  0.802E-01  0.802E-01  0.725E-01
   2.260  0.276E+00  0.892E-01  0.892E-01  0.980E-01
   2.270  0.243E+00  0.794E-01  0.794E-01  0.842E-01
   2.280  0.228E+00  0.745E-01  0.745E-01  0.789E-01
   2.290  0.224E+00  0.732E-01  0.732E-01  0.771E-01
   2.300  0.217E+00  0.711E-01  0.711E-01  0.744E-01
   2.310  0.207E+00  0.681E-01  0.681E-01  0.708E-01
   2.320  0.196E+00  0.646E-01  0.646E-01  0.668E-01
   2.330  0.186E+00  0.613E-01  0.613E-01  0.632E-01
   2.340  0.181E+00  0.596E-01  0.596E-01  0.615E-01
   2.350  0.179E+00  0.590E-01  0.590E-01  0.610E-01
   2.360  0.177E+00  0.584E-01  0.584E-01  0.605E-01
   2.370  0.175E+00  0.577E-01  0.577E-01  0.600E-01
   2.380  0.174E+00  0.571E-01  0.571E-01  0.594E-01
   2.390  0.172E+00  0.565E-01  0.565E-01  0.589E-01
   2.400  0.170E+00  0.559E-01  0.559E-01  0.584E-01
   2.410  0.169E+00  0.554E-01  0.554E-01  0.579E-01
   2.420  0.167E+00  0.548E-01  0.548E-01  0.573E-01
   2.430  0.165E+00  0.543E-01  0.543E-01  0.567E-01
   2.440  0.164E+00  0.540E-01  0.540E-01  0.563E-01
   2.450  0.166E+00  0.544E-01  0.544E-01  0.569E-01
   2.460  0.181E+00  0.591E-01  0.591E-01  0.628E-01
   2.470  0.209E+00  0.683E-01  0.683E-01  0.724E-01
   2.480  0.218E+00  0.716E-01  0.716E-01  0.751E-01
   2.490  0.233E+00  0.767E-01  0.767E-01  0.798E-01
   2.500  0.249E+00  0.820E-01  0.820E-01  0.850E-01
   2.510  0.268E+00  0.884E-01  0.884E-01  0.916E-01
   2.520  0.291E+00  0.957E-01  0.957E-01  0.998E-01
   2.530  0.313E+00  0.103E+00  0.103E+00  0.108E+00
   2.540  0.333E+00  0.109E+00  0.109E+00  0.114E+00
   2.550  0.352E+00  0.116E+00  0.116E+00  0.121E+00
   2.560  0.371E+00  0.122E+00  0.122E+00  0.127E+00
   2.570  0.388E+00  0.128E+00  0.128E+00  0.132E+00
   2.580  0.403E+00  0.133E+00  0.133E+00  0.137E+00
   2.590  0.419E+00  0.139E+00  0.139E+00  0.142E+00
   2.600  0.434E+00  0.144E+00  0.144E+00  0.147E+00
   2.610  0.448E+00  0.148E+00  0.148E+00  0.151E+00
   2.620  0.471E+00  0.156E+00  0.156E+00  0.159E+00
   2.630  0.528E+00  0.175E+00  0.175E+00  0.178E+00
   2.640  0.587E+00  0.195E+00  0.195E+00  0.198E+00
   2.650  0.644E+00  0.214E+00  0.214E+00  0.217E+00
   2.660  0.696E+00  0.230E+00  0.230E+00  0.235E+00
   2.670  0.740E+00  0.244E+00  0.244E+00  0.251E+00
   2.680  0.775E+00  0.255E+00  0.255E+00  0.265E+00
   2.690  0.837E+00  0.275E+00  0.275E+00  0.287E+00
   2.700  0.908E+00  0.298E+00  0.298E+00  0.311E+00
   2.710  0.103E+01  0.341E+00  0.341E+00  0.353E+00
   2.720  0.126E+01  0.418E+00  0.418E+00  0.426E+00
   2.730  0.166E+01  0.552E+00  0.552E+00  0.559E+00
   2.740  0.193E+01  0.637E+00  0.637E+00  0.652E+00
   2.750  0.261E+01  0.812E+00  0.812E+00  0.982E+00
   2.760  0.146E+01  0.478E+00  0.478E+00  0.501E+00
   2.770  0.855E+00  0.288E+00  0.288E+00  0.278E+00
   2.780  0.717E+00  0.243E+00  0.243E+00  0.230E+00
   2.790  0.656E+00  0.222E+00  0.222E+00  0.212E+00
   2.800  0.600E+00  0.202E+00  0.202E+00  0.195E+00
   2.810  0.553E+00  0.185E+00  0.185E+00  0.182E+00
   2.820  0.538E+00  0.179E+00  0.179E+00  0.180E+00
   2.830  0.765E+00  0.252E+00  0.252E+00  0.261E+00
   2.840  0.968E+00  0.317E+00  0.317E+00  0.334E+00
   2.850  0.146E+01  0.471E+00  0.471E+00  0.522E+00
   2.860  0.954E+00  0.308E+00  0.308E+00  0.339E+00
   2.870  0.785E+00  0.257E+00  0.257E+00  0.270E+00
   2.880  0.587E+00  0.197E+00  0.197E+00  0.194E+00
   2.890  0.503E+00  0.171E+00  0.171E+00  0.161E+00
   2.900  0.511E+00  0.174E+00  0.174E+00  0.163E+00
   2.910  0.513E+00  0.175E+00  0.175E+00  0.164E+00
   2.920  0.518E+00  0.176E+00  0.176E+00  0.166E+00
   2.930  0.520E+00  0.176E+00  0.176E+00  0.167E+00
   2.940  0.506E+00  0.171E+00  0.171E+00  0.163E+00
   2.950  0.499E+00  0.169E+00  0.169E+00  0.162E+00
   2.960  0.525E+00  0.177E+00  0.177E+00  0.170E+00
   2.970  0.572E+00  0.193E+00  0.193E+00  0.186E+00
   2.980  0.624E+00  0.211E+00  0.211E+00  0.202E+00
   2.990  0.679E+00  0.230E+00  0.230E+00  0.219E+00
   3.000  0.746E+00  0.253E+00  0.253E+00  0.240E+00
   3.010  0.839E+00  0.285E+00  0.285E+00  0.269E+00
   3.020  0.919E+00  0.312E+00  0.312E+00  0.295E+00
   3.030  0.978E+00  0.331E+00  0.331E+00  0.316E+00
   3.040  0.102E+01  0.344E+00  0.344E+00  0.334E+00
   3.050  0.106E+01  0.356E+00  0.356E+00  0.350E+00
   3.060  0.110E+01  0.368E+00  0.368E+00  0.367E+00
   3.070  0.115E+01  0.381E+00  0.381E+00  0.383E+00
   3.080  0.118E+01  0.394E+00  0.394E+00  0.397E+00
   3.090  0.122E+01  0.406E+00  0.406E+00  0.408E+00
   3.100  0.125E+01  0.416E+00  0.416E+00  0.416E+00
   3.110  0.132E+01  0.447E+00  0.447E+00  0.431E+00
   3.120  0.121E+01  0.414E+00  0.414E+00  0.378E+00
   3.130  0.106E+01  0.368E+00  0.368E+00  0.328E+00
   3.140  0.958E+00  0.332E+00  0.332E+00  0.295E+00
   3.150  0.916E+00  0.315E+00  0.315E+00  0.286E+00
   3.160  0.886E+00  0.303E+00  0.303E+00  0.280E+00
   3.170  0.864E+00  0.294E+00  0.294E+00  0.277E+00
   3.180  0.834E+00  0.282E+00  0.282E+00  0.270E+00
   3.190  0.801E+00  0.269E+00  0.269E+00  0.262E+00
   3.200  0.771E+00  0.258E+00  0.258E+00  0.255E+00
   3.210  0.761E+00  0.255E+00  0.255E+00  0.250E+00
   3.220  0.790E+00  0.266E+00  0.266E+00  0.258E+00
   3.230  0.786E+00  0.264E+00  0.264E+00  0.258E+00
   3.240  0.789E+00  0.263E+00  0.263E+00  0.263E+00
   3.250  0.769E+00  0.255E+00  0.255E+00  0.259E+00
   3.260  0.762E+00  0.251E+00  0.251E+00  0.260E+00
   3.270  0.803E+00  0.260E+00  0.260E+00  0.282E+00
   3.280  0.963E+00  0.312E+00  0.312E+00  0.339E+00
   3.290  0.113E+01  0.364E+00  0.364E+00  0.402E+00
   3.300  0.118E+01  0.382E+00  0.382E+00  0.421E+00
   3.310  0.122E+01  0.396E+00  0.396E+00  0.427E+00
   3.320  0.129E+01  0.421E+00  0.421E+00  0.453E+00
   3.330  0.139E+01  0.456E+00  0.456E+00  0.480E+00
   3.340  0.141E+01  0.468E+00  0.468E+00  0.477E+00
   3.350  0.140E+01  0.465E+00  0.465E+00  0.469E+00
   3.360  0.137E+01  0.455E+00  0.455E+00  0.456E+00
   3.370  0.134E+01  0.447E+00  0.447E+00  0.446E+00
   3.380  0.132E+01  0.441E+00  0.441E+00  0.437E+00
   3.390  0.129E+01  0.431E+00  0.431E+00  0.425E+00
   3.400  0.137E+01  0.455E+00  0.455E+00  0.455E+00
   3.410  0.127E+01  0.424E+00  0.424E+00  0.419E+00
   3.420  0.126E+01  0.421E+00  0.421E+00  0.415E+00
   3.430  0.125E+01  0.420E+00  0.420E+00  0.410E+00
   3.440  0.127E+01  0.427E+00  0.427E+00  0.418E+00
   3.450  0.134E+01  0.448E+00  0.448E+00  0.440E+00
   3.460  0.140E+01  0.470E+00  0.470E+00  0.463E+00
   3.470  0.141E+01  0.472E+00  0.472E+00  0.465E+00
   3.480  0.139E+01  0.465E+00  0.465E+00  0.458E+00
   3.490  0.136E+01  0.456E+00  0.456E+00  0.452E+00
   3.500  0.135E+01  0.450E+00  0.450E+00  0.447E+00
   3.510  0.134E+01  0.447E+00  0.447E+00  0.447E+00
   3.520  0.135E+01  0.448E+00  0.448E+00  0.451E+00
   3.530  0.138E+01  0.457E+00  0.457E+00  0.462E+00
   3.540  0.141E+01  0.467E+00  0.467E+00  0.476E+00
   3.550  0.144E+01  0.475E+00  0.475E+00  0.488E+00
   3.560  0.148E+01  0.488E+00  0.488E+00  0.506E+00
   3.570  0.155E+01  0.511E+00  0.511E+00  0.526E+00
   3.580  0.154E+01  0.515E+00  0.515E+00  0.508E+00
   3.590  0.139E+01  0.463E+00  0.463E+00  0.464E+00
   3.600  0.128E+01  0.424E+00  0.424E+00  0.435E+00
   3.610  0.124E+01  0.409E+00  0.409E+00  0.423E+00
   3.620  0.123E+01  0.406E+00  0.406E+00  0.418E+00
   3.630  0.124E+01  0.411E+00  0.411E+00  0.419E+00
   3.640  0.126E+01  0.418E+00  0.418E+00  0.426E+00
   3.650  0.125E+01  0.412E+00  0.412E+00  0.425E+00
   3.660  0.126E+01  0.414E+00  0.414E+00  0.433E+00
   3.670  0.137E+01  0.456E+00  0.456E+00  0.461E+00
   3.680  0.128E+01  0.425E+00  0.425E+00  0.433E+00
   3.690  0.113E+01  0.365E+00  0.365E+00  0.404E+00
   3.700  0.109E+01  0.354E+00  0.354E+00  0.385E+00
   3.710  0.105E+01  0.344E+00  0.344E+00  0.366E+00
   3.720  0.103E+01  0.340E+00  0.340E+00  0.354E+00
   3.730  0.102E+01  0.338E+00  0.338E+00  0.347E+00
   3.740  0.103E+01  0.340E+00  0.340E+00  0.347E+00
   3.750  0.104E+01  0.345E+00  0.345E+00  0.353E+00
   3.760  0.109E+01  0.358E+00  0.358E+00  0.370E+00
   3.770  0.123E+01  0.404E+00  0.404E+00  0.422E+00
   3.780  0.123E+01  0.396E+00  0.396E+00  0.441E+00
   3.790  0.155E+01  0.490E+00  0.490E+00  0.568E+00
   3.800  0.132E+01  0.427E+00  0.427E+00  0.470E+00
   3.810  0.177E+01  0.618E+00  0.618E+00  0.532E+00
   3.820  0.227E+01  0.719E+00  0.719E+00  0.831E+00
   3.830  0.205E+01  0.723E+00  0.723E+00  0.605E+00
   3.840  0.226E+01  0.818E+00  0.818E+00  0.621E+00
   3.850  0.178E+01  0.621E+00  0.621E+00  0.542E+00
   3.860  0.172E+01  0.598E+00  0.598E+00  0.522E+00
   3.870  0.166E+01  0.577E+00  0.577E+00  0.502E+00
   3.880  0.160E+01  0.559E+00  0.559E+00  0.484E+00
   3.890  0.156E+01  0.542E+00  0.542E+00  0.473E+00
   3.900  0.154E+01  0.531E+00  0.531E+00  0.479E+00
   3.910  0.158E+01  0.532E+00  0.532E+00  0.515E+00
   3.920  0.148E+01  0.491E+00  0.491E+00  0.502E+00
   3.930  0.128E+01  0.421E+00  0.421E+00  0.438E+00
   3.940  0.110E+01  0.361E+00  0.361E+00  0.380E+00
   3.950  0.101E+01  0.330E+00  0.330E+00  0.349E+00
   3.960  0.951E+00  0.311E+00  0.311E+00  0.330E+00
   3.970  0.911E+00  0.297E+00  0.297E+00  0.317E+00
   3.980  0.897E+00  0.292E+00  0.292E+00  0.313E+00
   3.990  0.896E+00  0.291E+00  0.291E+00  0.314E+00
   4.000  0.905E+00  0.293E+00  0.293E+00  0.318E+00
   4.010  0.922E+00  0.299E+00  0.299E+00  0.324E+00
   4.020  0.949E+00  0.309E+00  0.309E+00  0.331E+00
   4.030  0.989E+00  0.324E+00  0.324E+00  0.341E+00
   4.040  0.104E+01  0.342E+00  0.342E+00  0.353E+00
   4.050  0.110E+01  0.366E+00  0.366E+00  0.368E+00
   4.060  0.119E+01  0.398E+00  0.398E+00  0.390E+00
   4.070  0.126E+01  0.427E+00  0.427E+00  0.409E+00
   4.080  0.132E+01  0.450E+00  0.450E+00  0.426E+00
   4.090  0.138E+01  0.470E+00  0.470E+00  0.439E+00
   4.100  0.144E+01  0.495E+00  0.495E+00  0.451E+00
   4.110  0.150E+01  0.519E+00  0.519E+00  0.463E+00
   4.120  0.160E+01  0.554E+00  0.554E+00  0.497E+00
   4.130  0.169E+01  0.575E+00  0.575E+00  0.536E+00
   4.140  0.175E+01  0.576E+00  0.576E+00  0.594E+00
   4.150  0.186E+01  0.582E+00  0.582E+00  0.696E+00
   4.160  0.172E+01  0.531E+00  0.531E+00  0.654E+00
   4.170  0.158E+01  0.496E+00  0.496E+00  0.584E+00
   4.180  0.153E+01  0.484E+00  0.484E+00  0.562E+00
   4.190  0.146E+01  0.466E+00  0.466E+00  0.533E+00
   4.200  0.140E+01  0.449E+00  0.449E+00  0.506E+00
   4.210  0.137E+01  0.441E+00  0.441E+00  0.491E+00
   4.220  0.141E+01  0.453E+00  0.453E+00  0.500E+00
   4.230  0.137E+01  0.442E+00  0.442E+00  0.490E+00
   4.240  0.128E+01  0.408E+00  0.408E+00  0.459E+00
   4.250  0.128E+01  0.411E+00  0.411E+00  0.455E+00
   4.260  0.129E+01  0.418E+00  0.418E+00  0.454E+00
   4.270  0.132E+01  0.434E+00  0.434E+00  0.454E+00
   4.280  0.139E+01  0.465E+00  0.465E+00  0.459E+00
   4.290  0.146E+01  0.498E+00  0.498E+00  0.467E+00
   4.300  0.157E+01  0.540E+00  0.540E+00  0.491E+00
   4.310  0.172E+01  0.592E+00  0.592E+00  0.532E+00
   4.320  0.197E+01  0.680E+00  0.680E+00  0.610E+00
   4.330  0.211E+01  0.730E+00  0.730E+00  0.654E+00
   4.340  0.217E+01  0.750E+00  0.750E+00  0.673E+00
   4.350  0.217E+01  0.749E+00  0.749E+00  0.673E+00
   4.360  0.204E+01  0.708E+00  0.708E+00  0.621E+00
   4.370  0.160E+01  0.551E+00  0.551E+00  0.498E+00
   4.380  0.133E+01  0.458E+00  0.458E+00  0.417E+00
   4.390  0.121E+01  0.413E+00  0.413E+00  0.388E+00
   4.400  0.117E+01  0.392E+00  0.392E+00  0.384E+00
   4.410  0.118E+01  0.389E+00  0.389E+00  0.399E+00
   4.420  0.119E+01  0.386E+00  0.386E+00  0.413E+00
   4.430  0.115E+01  0.370E+00  0.370E+00  0.411E+00
   4.440  0.101E+01  0.330E+00  0.330E+00  0.346E+00
   4.450  0.989E+00  0.325E+00  0.325E+00  0.340E+00
   4.460  0.982E+00  0.322E+00  0.322E+00  0.338E+00
   4.470  0.978E+00  0.321E+00  0.321E+00  0.336E+00
   4.480  0.984E+00  0.325E+00  0.325E+00  0.335E+00
   4.490  0.990E+00  0.330E+00  0.330E+00  0.330E+00
   4.500  0.988E+00  0.332E+00  0.332E+00  0.324E+00
   4.510  0.983E+00  0.330E+00  0.330E+00  0.323E+00
   4.520  0.971E+00  0.320E+00  0.320E+00  0.331E+00
   4.530  0.997E+00  0.323E+00  0.323E+00  0.350E+00
   4.540  0.104E+01  0.333E+00  0.333E+00  0.372E+00
   4.550  0.107E+01  0.341E+00  0.341E+00  0.393E+00
   4.560  0.111E+01  0.348E+00  0.348E+00  0.412E+00
   4.570  0.114E+01  0.355E+00  0.355E+00  0.430E+00
   4.580  0.117E+01  0.364E+00  0.364E+00  0.446E+00
   4.590  0.125E+01  0.387E+00  0.387E+00  0.473E+00
   4.600  0.146E+01  0.468E+00  0.468E+00  0.524E+00
   4.610  0.156E+01  0.505E+00  0.505E+00  0.548E+00
   4.620  0.169E+01  0.557E+00  0.557E+00  0.576E+00
   4.630  0.167E+01  0.557E+00  0.557E+00  0.560E+00
   4.640  0.173E+01  0.586E+00  0.586E+00  0.559E+00
   4.650  0.188E+01  0.648E+00  0.648E+00  0.587E+00
   4.660  0.191E+01  0.669E+00  0.669E+00  0.573E+00
   4.670  0.184E+01  0.654E+00  0.654E+00  0.533E+00
   4.680  0.163E+01  0.581E+00  0.581E+00  0.468E+00
   4.690  0.149E+01  0.512E+00  0.512E+00  0.465E+00
   4.700  0.146E+01  0.506E+00  0.506E+00  0.449E+00
   4.710  0.141E+01  0.483E+00  0.483E+00  0.441E+00
   4.720  0.152E+01  0.516E+00  0.516E+00  0.490E+00
   4.730  0.178E+01  0.602E+00  0.602E+00  0.574E+00
   4.740  0.195E+01  0.655E+00  0.655E+00  0.637E+00
   4.750  0.212E+01  0.705E+00  0.705E+00  0.714E+00
   4.760  0.186E+01  0.612E+00  0.612E+00  0.639E+00
   4.770  0.147E+01  0.483E+00  0.483E+00  0.503E+00
   4.780  0.122E+01  0.406E+00  0.406E+00  0.410E+00
   4.790  0.108E+01  0.362E+00  0.362E+00  0.360E+00
   4.800  0.997E+00  0.333E+00  0.333E+00  0.331E+00
   4.810  0.934E+00  0.312E+00  0.312E+00  0.310E+00
   4.820  0.890E+00  0.297E+00  0.297E+00  0.296E+00
   4.830  0.856E+00  0.285E+00  0.285E+00  0.286E+00
   4.840  0.833E+00  0.277E+00  0.277E+00  0.279E+00
   4.850  0.817E+00  0.271E+00  0.271E+00  0.275E+00
   4.860  0.803E+00  0.266E+00  0.266E+00  0.272E+00
   4.870  0.789E+00  0.260E+00  0.260E+00  0.268E+00
   4.880  0.775E+00  0.255E+00  0.255E+00  0.265E+00
   4.890  0.761E+00  0.250E+00  0.250E+00  0.261E+00
   4.900  0.747E+00  0.244E+00  0.244E+00  0.258E+00
   4.910  0.736E+00  0.240E+00  0.240E+00  0.256E+00
   4.920  0.732E+00  0.237E+00  0.237E+00  0.257E+00
   4.930  0.741E+00  0.238E+00  0.238E+00  0.264E+00
   4.940  0.809E+00  0.256E+00  0.256E+00  0.298E+00
   4.950  0.912E+00  0.287E+00  0.287E+00  0.339E+00
   4.960  0.927E+00  0.295E+00  0.295E+00  0.336E+00
   4.970  0.851E+00  0.276E+00  0.276E+00  0.300E+00
   4.980  0.766E+00  0.250E+00  0.250E+00  0.266E+00
   4.990  0.765E+00  0.252E+00  0.252E+00  0.262E+00
   5.000  0.765E+00  0.254E+00  0.254E+00  0.258E+00
   5.010  0.762E+00  0.254E+00  0.254E+00  0.254E+00
   5.020  0.757E+00  0.254E+00  0.254E+00  0.248E+00
   5.030  0.748E+00  0.253E+00  0.253E+00  0.241E+00
   5.040  0.757E+00  0.261E+00  0.261E+00  0.236E+00
   5.050  0.793E+00  0.278E+00  0.278E+00  0.236E+00
   5.060  0.729E+00  0.265E+00  0.265E+00  0.199E+00
   5.070  0.544E+00  0.190E+00  0.190E+00  0.164E+00
   5.080  0.587E+00  0.208E+00  0.208E+00  0.171E+00
   5.090  0.728E+00  0.266E+00  0.266E+00  0.195E+00
   5.100  0.706E+00  0.253E+00  0.253E+00  0.201E+00
   5.110  0.657E+00  0.231E+00  0.231E+00  0.195E+00
   5.120  0.603E+00  0.209E+00  0.209E+00  0.185E+00
   5.130  0.549E+00  0.188E+00  0.188E+00  0.173E+00
   5.140  0.485E+00  0.165E+00  0.165E+00  0.155E+00
   5.150  0.417E+00  0.141E+00  0.141E+00  0.136E+00
   5.160  0.361E+00  0.120E+00  0.120E+00  0.120E+00
   5.170  0.331E+00  0.110E+00  0.110E+00  0.110E+00
   5.180  0.320E+00  0.107E+00  0.107E+00  0.106E+00
   5.190  0.319E+00  0.107E+00  0.107E+00  0.105E+00
   5.200  0.322E+00  0.108E+00  0.108E+00  0.106E+00
   5.210  0.324E+00  0.109E+00  0.109E+00  0.107E+00
   5.220  0.328E+00  0.110E+00  0.110E+00  0.108E+00
   5.230  0.347E+00  0.115E+00  0.115E+00  0.117E+00
   5.240  0.408E+00  0.128E+00  0.128E+00  0.152E+00
   5.250  0.515E+00  0.162E+00  0.162E+00  0.191E+00
   5.260  0.622E+00  0.201E+00  0.201E+00  0.220E+00
   5.270  0.657E+00  0.217E+00  0.217E+00  0.223E+00
   5.280  0.662E+00  0.224E+00  0.224E+00  0.215E+00
   5.290  0.759E+00  0.258E+00  0.258E+00  0.243E+00
   5.300  0.809E+00  0.273E+00  0.273E+00  0.263E+00
   5.310  0.779E+00  0.259E+00  0.259E+00  0.261E+00
   5.320  0.656E+00  0.210E+00  0.210E+00  0.237E+00
   5.330  0.630E+00  0.199E+00  0.199E+00  0.232E+00
   5.340  0.561E+00  0.174E+00  0.174E+00  0.213E+00
   5.350  0.493E+00  0.151E+00  0.151E+00  0.191E+00
   5.360  0.427E+00  0.130E+00  0.130E+00  0.167E+00
   5.370  0.368E+00  0.112E+00  0.112E+00  0.145E+00
   5.380  0.319E+00  0.968E-01  0.968E-01  0.125E+00
   5.390  0.278E+00  0.846E-01  0.846E-01  0.109E+00
   5.400  0.246E+00  0.753E-01  0.753E-01  0.954E-01
   5.410  0.220E+00  0.680E-01  0.680E-01  0.839E-01
   5.420  0.195E+00  0.611E-01  0.611E-01  0.729E-01
   5.430  0.173E+00  0.550E-01  0.550E-01  0.634E-01
   5.440  0.156E+00  0.503E-01  0.503E-01  0.558E-01
   5.450  0.149E+00  0.489E-01  0.489E-01  0.516E-01
   5.460  0.161E+00  0.537E-01  0.537E-01  0.537E-01
   5.470  0.170E+00  0.573E-01  0.573E-01  0.551E-01
   5.480  0.169E+00  0.576E-01  0.576E-01  0.539E-01
   5.490  0.159E+00  0.544E-01  0.544E-01  0.501E-01
   5.500  0.139E+00  0.479E-01  0.479E-01  0.435E-01
   5.510  0.110E+00  0.380E-01  0.380E-01  0.342E-01
   5.520  0.710E-01  0.245E-01  0.245E-01  0.220E-01
   5.530  0.312E-01  0.108E-01  0.108E-01  0.960E-02
   5.540  0.153E-01  0.527E-02  0.527E-02  0.472E-02
   5.550  0.737E-02  0.255E-02  0.255E-02  0.228E-02
   5.560  0.239E-02  0.826E-03  0.826E-03  0.735E-03
   5.570  0.296E-03  0.103E-03  0.103E-03  0.910E-04
   5.580  0.250E-04  0.829E-05  0.829E-05  0.846E-05
   5.590  0.321E-05  0.106E-05  0.106E-05  0.108E-05
   5.600  0.000E+00  0.000E+00  0.000E+00  0.000E+00
   5.610  0.000E+00  0.000E+00  0.000E+00  0.000E+00
   5.620  0.000E+00  0.000E+00  0.000E+00  0.000E+00
   5.630  0.000E+00  0.000E+00  0.000E+00  0.000E+00
   5.640  0.000E+00  0.000E+00  0.000E+00  0.000E+00
   5.650  0.000E+00  0.000E+00  0.000E+00  0.000E+00
   5.660  0.000E+00  0.000E+00  0.000E+00  0.000E+00
   5.670  0.000E+00  0.000E+00  0.000E+00  0.000E+00
   5.680  0.000E+00  0.000E+00  0.000E+00  0.000E+00
   5.690  0.000E+00  0.000E+00  0.000E+00  0.000E+00
   5.700  0.000E+00  0.000E+00  0.000E+00  0.000E+00
   5.710  0.000E+00  0.000E+00  0.000E+00  0.000E+00
   5.720  0.000E+00  0.000E+00  0.000E+00  0.000E+00
   5.730  0.000E+00  0.000E+00  0.000E+00  0.000E+00
   5.740  0.000E+00  0.000E+00  0.000E+00  0.000E+00
   5.750  0.000E+00  0.000E+00  0.000E+00  0.000E+00
   5.760  0.000E+00  0.000E+00  0.000E+00  0.000E+00
   5.770  0.000E+00  0.000E+00  0.000E+00  0.000E+00
   5.780  0.000E+00  0.000E+00  0.000E+00  0.000E+00
   5.790  0.000E+00  0.000E+00  0.000E+00  0.000E+00
   5.800  0.000E+00  0.000E+00  0.000E+00  0.000E+00
   5.810  0.000E+00  0.000E+00  0.000E+00  0.000E+00
   5.820  0.000E+00  0.000E+00  0.000E+00  0.000E+00
   5.830  0.000E+00  0.000E+00  0.000E+00  0.000E+00
   5.840  0.000E+00  0.000E+00  0.000E+00  0.000E+00
   5.850  0.000E+00  0.000E+00  0.000E+00  0.000E+00
   5.860  0.000E+00  0.000E+00  0.000E+00  0.000E+00
   5.870  0.000E+00  0.000E+00  0.000E+00  0.000E+00
   5.880  0.000E+00  0.000E+00  0.000E+00  0.000E+00
   5.890  0.000E+00  0.000E+00  0.000E+00  0.000E+00
   5.900  0.000E+00  0.000E+00  0.000E+00  0.000E+00
   5.910  0.000E+00  0.000E+00  0.000E+00  0.000E+00
   5.920  0.000E+00  0.000E+00  0.000E+00  0.000E+00
   5.930  0.000E+00  0.000E+00  0.000E+00  0.000E+00
   5.940  0.000E+00  0.000E+00  0.000E+00  0.000E+00
   5.950  0.000E+00  0.000E+00  0.000E+00  0.000E+00
   5.960  0.000E+00  0.000E+00  0.000E+00  0.000E+00
   5.970  0.000E+00  0.000E+00  0.000E+00  0.000E+00
   5.980  0.000E+00  0.000E+00  0.000E+00  0.000E+00
   5.990  0.000E+00  0.000E+00  0.000E+00  0.000E+00
   6.000  0.000E+00  0.000E+00  0.000E+00  0.000E+00
   6.010  0.000E+00  0.000E+00  0.000E+00  0.000E+00
   6.020  0.000E+00  0.000E+00  0.000E+00  0.000E+00
   6.030  0.000E+00  0.000E+00  0.000E+00  0.000E+00
   6.040  0.000E+00  0.000E+00  0.000E+00  0.000E+00
   6.050  0.000E+00  0.000E+00  0.000E+00  0.000E+00
   6.060  0.000E+00  0.000E+00  0.000E+00  0.000E+00
   6.070  0.000E+00  0.000E+00  0.000E+00  0.000E+00
   6.080  0.000E+00  0.000E+00  0.000E+00  0.000E+00
   6.090  0.000E+00  0.000E+00  0.000E+00  0.000E+00
   6.100  0.000E+00  0.000E+00  0.000E+00  0.000E+00
   6.110  0.000E+00  0.000E+00  0.000E+00  0.000E+00
   6.120  0.000E+00  0.000E+00  0.000E+00  0.000E+00
   6.130  0.000E+00  0.000E+00  0.000E+00  0.000E+00
   6.140  0.000E+00  0.000E+00  0.000E+00  0.000E+00
   6.150  0.000E+00  0.000E+00  0.000E+00  0.000E+00
   6.160  0.000E+00  0.000E+00  0.000E+00  0.000E+00
   6.170  0.000E+00  0.000E+00  0.000E+00  0.000E+00
   6.180  0.000E+00  0.000E+00  0.000E+00  0.000E+00
   6.190  0.000E+00  0.000E+00  0.000E+00  0.000E+00
   6.200  0.000E+00  0.000E+00  0.000E+00  0.000E+00
   6.210  0.000E+00  0.000E+00  0.000E+00  0.000E+00
   6.220  0.000E+00  0.000E+00  0.000E+00  0.000E+00
   6.230  0.000E+00  0.000E+00  0.000E+00  0.000E+00
   6.240  0.000E+00  0.000E+00  0.000E+00  0.000E+00
   6.250  0.000E+00  0.000E+00  0.000E+00  0.000E+00
   6.260  0.000E+00  0.000E+00  0.000E+00  0.000E+00
   6.270  0.000E+00  0.000E+00  0.000E+00  0.000E+00
   6.280  0.000E+00  0.000E+00  0.000E+00  0.000E+00
   6.290  0.000E+00  0.000E+00  0.000E+00  0.000E+00
   6.300  0.000E+00  0.000E+00  0.000E+00  0.000E+00
   6.310  0.000E+00  0.000E+00  0.000E+00  0.000E+00
   6.320  0.000E+00  0.000E+00  0.000E+00  0.000E+00
   6.330  0.000E+00  0.000E+00  0.000E+00  0.000E+00
   6.340  0.000E+00  0.000E+00  0.000E+00  0.000E+00
   6.350  0.000E+00  0.000E+00  0.000E+00  0.000E+00
   6.360  0.000E+00  0.000E+00  0.000E+00  0.000E+00
   6.370  0.000E+00  0.000E+00  0.000E+00  0.000E+00
   6.380  0.000E+00  0.000E+00  0.000E+00  0.000E+00
   6.390  0.000E+00  0.000E+00  0.000E+00  0.000E+00
   6.400  0.000E+00  0.000E+00  0.000E+00  0.000E+00
   6.410  0.000E+00  0.000E+00  0.000E+00  0.000E+00
   6.420  0.000E+00  0.000E+00  0.000E+00  0.000E+00
   6.430  0.000E+00  0.000E+00  0.000E+00  0.000E+00
   6.440  0.000E+00  0.000E+00  0.000E+00  0.000E+00
   6.450  0.000E+00  0.000E+00  0.000E+00  0.000E+00
   6.460  0.000E+00  0.000E+00  0.000E+00  0.000E+00
   6.470  0.000E+00  0.000E+00  0.000E+00  0.000E+00
   6.480  0.000E+00  0.000E+00  0.000E+00  0.000E+00
   6.490  0.000E+00  0.000E+00  0.000E+00  0.000E+00
   6.500  0.000E+00  0.000E+00  0.000E+00  0.000E+00
   6.510  0.000E+00  0.000E+00  0.000E+00  0.000E+00
   6.520  0.000E+00  0.000E+00  0.000E+00  0.000E+00
   6.530  0.000E+00  0.000E+00  0.000E+00  0.000E+00
   6.540  0.000E+00  0.000E+00  0.000E+00  0.000E+00
   6.550  0.000E+00  0.000E+00  0.000E+00  0.000E+00
   6.560  0.000E+00  0.000E+00  0.000E+00  0.000E+00
   6.570  0.000E+00  0.000E+00  0.000E+00  0.000E+00
   6.580  0.000E+00  0.000E+00  0.000E+00  0.000E+00
   6.590  0.000E+00  0.000E+00  0.000E+00  0.000E+00
   6.600  0.000E+00  0.000E+00  0.000E+00  0.000E+00
   6.610  0.000E+00  0.000E+00  0.000E+00  0.000E+00
   6.620  0.000E+00  0.000E+00  0.000E+00  0.000E+00
   6.630  0.000E+00  0.000E+00  0.000E+00  0.000E+00
   6.640  0.000E+00  0.000E+00  0.000E+00  0.000E+00
   6.650  0.000E+00  0.000E+00  0.000E+00  0.000E+00
   6.660  0.000E+00  0.000E+00  0.000E+00  0.000E+00
   6.670  0.000E+00  0.000E+00  0.000E+00  0.000E+00
   6.680  0.000E+00  0.000E+00  0.000E+00  0.000E+00
   6.690  0.000E+00  0.000E+00  0.000E+00  0.000E+00
   6.700  0.000E+00  0.000E+00  0.000E+00  0.000E+00
   6.710  0.000E+00  0.000E+00  0.000E+00  0.000E+00
   6.720  0.000E+00  0.000E+00  0.000E+00  0.000E+00
   6.730  0.000E+00  0.000E+00  0.000E+00  0.000E+00
   6.740  0.000E+00  0.000E+00  0.000E+00  0.000E+00
   6.750  0.000E+00  0.000E+00  0.000E+00  0.000E+00
   6.760  0.000E+00  0.000E+00  0.000E+00  0.000E+00
   6.770  0.000E+00  0.000E+00  0.000E+00  0.000E+00
   6.780  0.000E+00  0.000E+00  0.000E+00  0.000E+00
   6.790  0.000E+00  0.000E+00  0.000E+00  0.000E+00
   6.800  0.000E+00  0.000E+00  0.000E+00  0.000E+00
   6.810  0.000E+00  0.000E+00  0.000E+00  0.000E+00
   6.820  0.000E+00  0.000E+00  0.000E+00  0.000E+00
   6.830  0.000E+00  0.000E+00  0.000E+00  0.000E+00
   6.840  0.000E+00  0.000E+00  0.000E+00  0.000E+00
   6.850  0.000E+00  0.000E+00  0.000E+00  0.000E+00
   6.860  0.000E+00  0.000E+00  0.000E+00  0.000E+00
   6.870  0.000E+00  0.000E+00  0.000E+00  0.000E+00
   6.880  0.000E+00  0.000E+00  0.000E+00  0.000E+00
   6.890  0.000E+00  0.000E+00  0.000E+00  0.000E+00
   6.900  0.000E+00  0.000E+00  0.000E+00  0.000E+00
   6.910  0.000E+00  0.000E+00  0.000E+00  0.000E+00
   6.920  0.000E+00  0.000E+00  0.000E+00  0.000E+00
   6.930  0.000E+00  0.000E+00  0.000E+00  0.000E+00
   6.940  0.000E+00  0.000E+00  0.000E+00  0.000E+00
   6.950  0.000E+00  0.000E+00  0.000E+00  0.000E+00
   6.960  0.000E+00  0.000E+00  0.000E+00  0.000E+00
   6.970  0.000E+00  0.000E+00  0.000E+00  0.000E+00
   6.980  0.000E+00  0.000E+00  0.000E+00  0.000E+00
   6.990  0.000E+00  0.000E+00  0.000E+00  0.000E+00
   7.000  0.000E+00  0.000E+00  0.000E+00  0.000E+00
   7.010  0.000E+00  0.000E+00  0.000E+00  0.000E+00
   7.020  0.000E+00  0.000E+00  0.000E+00  0.000E+00
   7.030  0.000E+00  0.000E+00  0.000E+00  0.000E+00
   7.040  0.000E+00  0.000E+00  0.000E+00  0.000E+00
   7.050  0.000E+00  0.000E+00  0.000E+00  0.000E+00
   7.060  0.000E+00  0.000E+00  0.000E+00  0.000E+00
   7.070  0.000E+00  0.000E+00  0.000E+00  0.000E+00
   7.080  0.000E+00  0.000E+00  0.000E+00  0.000E+00
   7.090  0.000E+00  0.000E+00  0.000E+00  0.000E+00
   7.100  0.000E+00  0.000E+00  0.000E+00  0.000E+00
   7.110  0.000E+00  0.000E+00  0.000E+00  0.000E+00
   7.120  0.000E+00  0.000E+00  0.000E+00  0.000E+00
   7.130  0.000E+00  0.000E+00  0.000E+00  0.000E+00
   7.140  0.000E+00  0.000E+00  0.000E+00  0.000E+00
   7.150  0.000E+00  0.000E+00  0.000E+00  0.000E+00
   7.160  0.000E+00  0.000E+00  0.000E+00  0.000E+00
   7.170  0.000E+00  0.000E+00  0.000E+00  0.000E+00
   7.180  0.000E+00  0.000E+00  0.000E+00  0.000E+00
   7.190  0.000E+00  0.000E+00  0.000E+00  0.000E+00
   7.200  0.000E+00  0.000E+00  0.000E+00  0.000E+00
   7.210  0.000E+00  0.000E+00  0.000E+00  0.000E+00
   7.220  0.000E+00  0.000E+00  0.000E+00  0.000E+00
   7.230  0.000E+00  0.000E+00  0.000E+00  0.000E+00
   7.240  0.000E+00  0.000E+00  0.000E+00  0.000E+00
   7.250  0.000E+00  0.000E+00  0.000E+00  0.000E+00
   7.260  0.000E+00  0.000E+00  0.000E+00  0.000E+00
   7.270  0.000E+00  0.000E+00  0.000E+00  0.000E+00
   7.280  0.000E+00  0.000E+00  0.000E+00  0.000E+00
   7.290  0.000E+00  0.000E+00  0.000E+00  0.000E+00
   7.300  0.000E+00  0.000E+00  0.000E+00  0.000E+00
   7.310  0.000E+00  0.000E+00  0.000E+00  0.000E+00
   7.320  0.000E+00  0.000E+00  0.000E+00  0.000E+00
   7.330  0.000E+00  0.000E+00  0.000E+00  0.000E+00
   7.340  0.000E+00  0.000E+00  0.000E+00  0.000E+00
   7.350  0.000E+00  0.000E+00  0.000E+00  0.000E+00
   7.360  0.000E+00  0.000E+00  0.000E+00  0.000E+00
   7.370  0.000E+00  0.000E+00  0.000E+00  0.000E+00
   7.380  0.000E+00  0.000E+00  0.000E+00  0.000E+00
   7.390  0.000E+00  0.000E+00  0.000E+00  0.000E+00
   7.400  0.000E+00  0.000E+00  0.000E+00  0.000E+00
   7.410  0.000E+00  0.000E+00  0.000E+00  0.000E+00
   7.420 -0.267E-08 -0.105E-08 -0.105E-08 -0.568E-09
   7.430 -0.622E-07 -0.249E-07 -0.249E-07 -0.124E-07
   7.440 -0.180E-06 -0.736E-07 -0.736E-07 -0.325E-07
   7.450 -0.330E-06 -0.139E-06 -0.139E-06 -0.521E-07
   7.460 -0.627E-06 -0.269E-06 -0.269E-06 -0.893E-07
   7.470 -0.106E-05 -0.469E-06 -0.469E-06 -0.126E-06
   7.480 -0.151E-05 -0.698E-06 -0.698E-06 -0.118E-06
   7.490 -0.185E-05 -0.915E-06 -0.915E-06 -0.199E-07
   7.500 -0.195E-05 -0.108E-05 -0.108E-05  0.214E-06
   7.510 -0.167E-05 -0.115E-05 -0.115E-05  0.629E-06
   7.520 -0.909E-06 -0.109E-05 -0.109E-05  0.127E-05
   7.530  0.477E-06 -0.851E-06 -0.851E-06  0.218E-05
   7.540  0.261E-05 -0.399E-06 -0.399E-06  0.341E-05
   7.550  0.561E-05  0.310E-06  0.310E-06  0.499E-05
   7.560  0.962E-05  0.132E-05  0.132E-05  0.699E-05
   7.570  0.148E-04  0.266E-05  0.266E-05  0.943E-05
   7.580  0.211E-04  0.438E-05  0.438E-05  0.124E-04
   7.590  0.289E-04  0.652E-05  0.652E-05  0.159E-04
   7.600  0.382E-04  0.912E-05  0.912E-05  0.199E-04
   7.610  0.491E-04  0.122E-04  0.122E-04  0.246E-04
   7.620  0.617E-04  0.159E-04  0.159E-04  0.300E-04
   7.630  0.763E-04  0.201E-04  0.201E-04  0.361E-04
   7.640  0.929E-04  0.249E-04  0.249E-04  0.430E-04
   7.650  0.112E-03  0.305E-04  0.305E-04  0.506E-04
   7.660  0.133E-03  0.367E-04  0.367E-04  0.592E-04
   7.670  0.156E-03  0.436E-04  0.436E-04  0.686E-04
   7.680  0.182E-03  0.514E-04  0.514E-04  0.790E-04
   7.690  0.210E-03  0.600E-04  0.600E-04  0.904E-04
   7.700  0.242E-03  0.694E-04  0.694E-04  0.103E-03
   7.710  0.276E-03  0.798E-04  0.798E-04  0.116E-03
   7.720  0.313E-03  0.911E-04  0.911E-04  0.131E-03
   7.730  0.353E-03  0.103E-03  0.103E-03  0.147E-03
   7.740  0.397E-03  0.117E-03  0.117E-03  0.164E-03
   7.750  0.444E-03  0.131E-03  0.131E-03  0.182E-03
   7.760  0.495E-03  0.147E-03  0.147E-03  0.202E-03
   7.770  0.549E-03  0.163E-03  0.163E-03  0.223E-03
   7.780  0.607E-03  0.181E-03  0.181E-03  0.245E-03
   7.790  0.669E-03  0.200E-03  0.200E-03  0.269E-03
   7.800  0.735E-03  0.221E-03  0.221E-03  0.294E-03
   7.810  0.805E-03  0.242E-03  0.242E-03  0.321E-03
   7.820  0.880E-03  0.265E-03  0.265E-03  0.349E-03
   7.830  0.952E-03  0.288E-03  0.288E-03  0.377E-03
   7.840  0.103E-02  0.312E-03  0.312E-03  0.406E-03
   7.850  0.112E-02  0.339E-03  0.339E-03  0.439E-03
   7.860  0.121E-02  0.369E-03  0.369E-03  0.475E-03
   7.870  0.132E-02  0.403E-03  0.403E-03  0.517E-03
   7.880  0.144E-02  0.441E-03  0.441E-03  0.561E-03
   7.890  0.156E-02  0.477E-03  0.477E-03  0.604E-03
   7.900  0.167E-02  0.512E-03  0.512E-03  0.646E-03
   7.910  0.178E-02  0.547E-03  0.547E-03  0.686E-03
   7.920  0.189E-02  0.580E-03  0.580E-03  0.725E-03
   7.930  0.199E-02  0.614E-03  0.614E-03  0.763E-03
   7.940  0.209E-02  0.647E-03  0.647E-03  0.800E-03
   7.950  0.220E-02  0.680E-03  0.680E-03  0.837E-03
   7.960  0.230E-02  0.713E-03  0.713E-03  0.872E-03
   7.970  0.240E-02  0.746E-03  0.746E-03  0.907E-03
   7.980  0.250E-02  0.779E-03  0.779E-03  0.942E-03
   7.990  0.260E-02  0.813E-03  0.813E-03  0.976E-03
   8.000  0.270E-02  0.846E-03  0.846E-03  0.101E-02
   8.010  0.280E-02  0.880E-03  0.880E-03  0.104E-02
   8.020  0.290E-02  0.913E-03  0.913E-03  0.107E-02
   8.030  0.300E-02  0.947E-03  0.947E-03  0.110E-02
   8.040  0.309E-02  0.981E-03  0.981E-03  0.113E-02
   8.050  0.319E-02  0.101E-02  0.101E-02  0.116E-02
   8.060  0.329E-02  0.105E-02  0.105E-02  0.119E-02
   8.070  0.338E-02  0.108E-02  0.108E-02  0.121E-02
   8.080  0.347E-02  0.112E-02  0.112E-02  0.124E-02
   8.090  0.357E-02  0.115E-02  0.115E-02  0.126E-02
   8.100  0.366E-02  0.119E-02  0.119E-02  0.128E-02
   8.110  0.375E-02  0.122E-02  0.122E-02  0.131E-02
   8.120  0.382E-02  0.125E-02  0.125E-02  0.132E-02
   8.130  0.387E-02  0.127E-02  0.127E-02  0.132E-02
   8.140  0.391E-02  0.130E-02  0.130E-02  0.132E-02
   8.150  0.394E-02  0.131E-02  0.131E-02  0.131E-02
   8.160  0.398E-02  0.134E-02  0.134E-02  0.131E-02
   8.170  0.404E-02  0.136E-02  0.136E-02  0.131E-02
   8.180  0.410E-02  0.140E-02  0.140E-02  0.131E-02
   8.190  0.417E-02  0.143E-02  0.143E-02  0.132E-02
   8.200  0.424E-02  0.146E-02  0.146E-02  0.132E-02
   8.210  0.430E-02  0.149E-02  0.149E-02  0.132E-02
   8.220  0.437E-02  0.153E-02  0.153E-02  0.132E-02
   8.230  0.444E-02  0.156E-02  0.156E-02  0.132E-02
   8.240  0.452E-02  0.160E-02  0.160E-02  0.132E-02
   8.250  0.460E-02  0.164E-02  0.164E-02  0.133E-02
   8.260  0.470E-02  0.168E-02  0.168E-02  0.133E-02
   8.270  0.480E-02  0.173E-02  0.173E-02  0.134E-02
   8.280  0.491E-02  0.178E-02  0.178E-02  0.135E-02
   8.290  0.503E-02  0.183E-02  0.183E-02  0.136E-02
   8.300  0.516E-02  0.189E-02  0.189E-02  0.137E-02
   8.310  0.531E-02  0.196E-02  0.196E-02  0.139E-02
   8.320  0.547E-02  0.203E-02  0.203E-02  0.142E-02
   8.330  0.564E-02  0.210E-02  0.210E-02  0.144E-02
   8.340  0.582E-02  0.218E-02  0.218E-02  0.146E-02
   8.350  0.599E-02  0.225E-02  0.225E-02  0.149E-02
   8.360  0.618E-02  0.233E-02  0.233E-02  0.151E-02
   8.370  0.636E-02  0.241E-02  0.241E-02  0.153E-02
   8.380  0.655E-02  0.250E-02  0.250E-02  0.155E-02
   8.390  0.674E-02  0.258E-02  0.258E-02  0.158E-02
   8.400  0.694E-02  0.267E-02  0.267E-02  0.160E-02
   8.410  0.713E-02  0.276E-02  0.276E-02  0.162E-02
   8.420  0.734E-02  0.285E-02  0.285E-02  0.164E-02
   8.430  0.755E-02  0.294E-02  0.294E-02  0.166E-02
   8.440  0.776E-02  0.304E-02  0.304E-02  0.168E-02
   8.450  0.798E-02  0.314E-02  0.314E-02  0.170E-02
   8.460  0.820E-02  0.324E-02  0.324E-02  0.172E-02
   8.470  0.843E-02  0.335E-02  0.335E-02  0.174E-02
   8.480  0.867E-02  0.346E-02  0.346E-02  0.176E-02
   8.490  0.892E-02  0.357E-02  0.357E-02  0.178E-02
   8.500  0.917E-02  0.368E-02  0.368E-02  0.181E-02
   8.510  0.943E-02  0.380E-02  0.380E-02  0.183E-02
   8.520  0.970E-02  0.393E-02  0.393E-02  0.185E-02
   8.530  0.998E-02  0.405E-02  0.405E-02  0.187E-02
   8.540  0.103E-01  0.419E-02  0.419E-02  0.189E-02
   8.550  0.106E-01  0.432E-02  0.432E-02  0.192E-02
   8.560  0.109E-01  0.446E-02  0.446E-02  0.194E-02
   8.570  0.112E-01  0.461E-02  0.461E-02  0.196E-02
   8.580  0.115E-01  0.475E-02  0.475E-02  0.198E-02
   8.590  0.118E-01  0.491E-02  0.491E-02  0.200E-02
   8.600  0.122E-01  0.506E-02  0.506E-02  0.203E-02
   8.610  0.125E-01  0.523E-02  0.523E-02  0.205E-02
   8.620  0.129E-01  0.539E-02  0.539E-02  0.207E-02
   8.630  0.132E-01  0.556E-02  0.556E-02  0.209E-02
   8.640  0.136E-01  0.574E-02  0.574E-02  0.211E-02
   8.650  0.140E-01  0.592E-02  0.592E-02  0.213E-02
   8.660  0.144E-01  0.611E-02  0.611E-02  0.215E-02
   8.670  0.148E-01  0.630E-02  0.630E-02  0.217E-02
   8.680  0.152E-01  0.649E-02  0.649E-02  0.219E-02
   8.690  0.156E-01  0.669E-02  0.669E-02  0.220E-02
   8.700  0.160E-01  0.690E-02  0.690E-02  0.222E-02
   8.710  0.165E-01  0.712E-02  0.712E-02  0.227E-02
   8.720  0.172E-01  0.735E-02  0.735E-02  0.247E-02
   8.730  0.180E-01  0.758E-02  0.758E-02  0.284E-02
   8.740  0.190E-01  0.780E-02  0.780E-02  0.337E-02
   8.750  0.201E-01  0.802E-02  0.802E-02  0.403E-02
   8.760  0.213E-01  0.823E-02  0.823E-02  0.482E-02
   8.770  0.226E-01  0.843E-02  0.843E-02  0.573E-02
   8.780  0.239E-01  0.859E-02  0.859E-02  0.675E-02
   8.790  0.253E-01  0.871E-02  0.871E-02  0.785E-02
   8.800  0.265E-01  0.877E-02  0.877E-02  0.896E-02
   8.810  0.290E-01  0.899E-02  0.899E-02  0.110E-01
   8.820  0.340E-01  0.959E-02  0.959E-02  0.148E-01
   8.830  0.556E-01  0.131E-01  0.131E-01  0.295E-01
   8.840  0.506E-01  0.124E-01  0.124E-01  0.257E-01
   8.850  0.474E-01  0.121E-01  0.121E-01  0.232E-01
   8.860  0.462E-01  0.122E-01  0.122E-01  0.219E-01
   8.870  0.470E-01  0.127E-01  0.127E-01  0.216E-01
   8.880  0.483E-01  0.136E-01  0.136E-01  0.212E-01
   8.890  0.499E-01  0.146E-01  0.146E-01  0.207E-01
   8.900  0.513E-01  0.156E-01  0.156E-01  0.200E-01
   8.910  0.518E-01  0.163E-01  0.163E-01  0.193E-01
   8.920  0.518E-01  0.167E-01  0.167E-01  0.184E-01
   8.930  0.523E-01  0.173E-01  0.173E-01  0.177E-01
   8.940  0.525E-01  0.178E-01  0.178E-01  0.169E-01
   8.950  0.525E-01  0.181E-01  0.181E-01  0.162E-01
   8.960  0.527E-01  0.185E-01  0.185E-01  0.157E-01
   8.970  0.529E-01  0.188E-01  0.188E-01  0.153E-01
   8.980  0.548E-01  0.195E-01  0.195E-01  0.158E-01
   8.990  0.570E-01  0.202E-01  0.202E-01  0.166E-01
   9.000  0.582E-01  0.204E-01  0.204E-01  0.175E-01
   9.010  0.553E-01  0.193E-01  0.193E-01  0.167E-01
   9.020  0.512E-01  0.179E-01  0.179E-01  0.154E-01
   9.030  0.487E-01  0.170E-01  0.170E-01  0.148E-01
   9.040  0.472E-01  0.164E-01  0.164E-01  0.144E-01
   9.050  0.499E-01  0.173E-01  0.173E-01  0.153E-01
   9.060  0.438E-01  0.149E-01  0.149E-01  0.140E-01
   9.070  0.383E-01  0.127E-01  0.127E-01  0.129E-01
   9.080  0.387E-01  0.127E-01  0.127E-01  0.133E-01
   9.090  0.394E-01  0.128E-01  0.128E-01  0.138E-01
   9.100  0.405E-01  0.130E-01  0.130E-01  0.145E-01
   9.110  0.419E-01  0.133E-01  0.133E-01  0.152E-01
   9.120  0.430E-01  0.136E-01  0.136E-01  0.159E-01
   9.130  0.442E-01  0.138E-01  0.138E-01  0.165E-01
   9.140  0.454E-01  0.141E-01  0.141E-01  0.172E-01
   9.150  0.465E-01  0.144E-01  0.144E-01  0.177E-01
   9.160  0.474E-01  0.147E-01  0.147E-01  0.180E-01
   9.170  0.483E-01  0.150E-01  0.150E-01  0.183E-01
   9.180  0.494E-01  0.154E-01  0.154E-01  0.187E-01
   9.190  0.507E-01  0.158E-01  0.158E-01  0.191E-01
   9.200  0.522E-01  0.164E-01  0.164E-01  0.195E-01
   9.210  0.539E-01  0.170E-01  0.170E-01  0.199E-01
   9.220  0.556E-01  0.176E-01  0.176E-01  0.204E-01
   9.230  0.574E-01  0.183E-01  0.183E-01  0.208E-01
   9.240  0.594E-01  0.190E-01  0.190E-01  0.213E-01
   9.250  0.615E-01  0.198E-01  0.198E-01  0.219E-01
   9.260  0.638E-01  0.207E-01  0.207E-01  0.225E-01
   9.270  0.663E-01  0.216E-01  0.216E-01  0.231E-01
   9.280  0.689E-01  0.226E-01  0.226E-01  0.238E-01
   9.290  0.716E-01  0.236E-01  0.236E-01  0.245E-01
   9.300  0.748E-01  0.248E-01  0.248E-01  0.253E-01
   9.310  0.785E-01  0.261E-01  0.261E-01  0.263E-01
   9.320  0.828E-01  0.276E-01  0.276E-01  0.275E-01
   9.330  0.877E-01  0.294E-01  0.294E-01  0.289E-01
   9.340  0.929E-01  0.313E-01  0.313E-01  0.304E-01
   9.350  0.977E-01  0.330E-01  0.330E-01  0.318E-01
   9.360  0.103E+00  0.347E-01  0.347E-01  0.332E-01
   9.370  0.108E+00  0.364E-01  0.364E-01  0.347E-01
   9.380  0.112E+00  0.381E-01  0.381E-01  0.363E-01
   9.390  0.118E+00  0.399E-01  0.399E-01  0.379E-01
   9.400  0.124E+00  0.418E-01  0.418E-01  0.399E-01
   9.410  0.130E+00  0.440E-01  0.440E-01  0.420E-01
   9.420  0.137E+00  0.463E-01  0.463E-01  0.444E-01
   9.430  0.145E+00  0.489E-01  0.489E-01  0.470E-01
   9.440  0.153E+00  0.514E-01  0.514E-01  0.496E-01
   9.450  0.154E+00  0.518E-01  0.518E-01  0.501E-01
   9.460  0.150E+00  0.507E-01  0.507E-01  0.490E-01
   9.470  0.150E+00  0.499E-01  0.499E-01  0.496E-01
   9.480  0.150E+00  0.495E-01  0.495E-01  0.505E-01
   9.490  0.158E+00  0.528E-01  0.528E-01  0.524E-01
   9.500  0.168E+00  0.564E-01  0.564E-01  0.554E-01
   9.510  0.172E+00  0.578E-01  0.578E-01  0.560E-01
   9.520  0.170E+00  0.576E-01  0.576E-01  0.547E-01
   9.530  0.164E+00  0.563E-01  0.563E-01  0.518E-01
   9.540  0.163E+00  0.559E-01  0.559E-01  0.509E-01
   9.550  0.157E+00  0.540E-01  0.540E-01  0.492E-01
   9.560  0.147E+00  0.491E-01  0.491E-01  0.489E-01
   9.570  0.147E+00  0.488E-01  0.488E-01  0.496E-01
   9.580  0.147E+00  0.482E-01  0.482E-01  0.501E-01
   9.590  0.145E+00  0.473E-01  0.473E-01  0.505E-01
   9.600  0.144E+00  0.464E-01  0.464E-01  0.511E-01
   9.610  0.143E+00  0.458E-01  0.458E-01  0.519E-01
   9.620  0.142E+00  0.449E-01  0.449E-01  0.523E-01
   9.630  0.141E+00  0.443E-01  0.443E-01  0.525E-01
   9.640  0.145E+00  0.453E-01  0.453E-01  0.540E-01
   9.650  0.149E+00  0.467E-01  0.467E-01  0.555E-01
   9.660  0.152E+00  0.481E-01  0.481E-01  0.562E-01
   9.670  0.158E+00  0.503E-01  0.503E-01  0.576E-01
   9.680  0.163E+00  0.522E-01  0.522E-01  0.585E-01
   9.690  0.168E+00  0.544E-01  0.544E-01  0.593E-01
   9.700  0.172E+00  0.562E-01  0.562E-01  0.597E-01
   9.710  0.175E+00  0.577E-01  0.577E-01  0.598E-01
   9.720  0.177E+00  0.588E-01  0.588E-01  0.596E-01
   9.730  0.191E+00  0.645E-01  0.645E-01  0.624E-01
   9.740  0.170E+00  0.578E-01  0.578E-01  0.544E-01
   9.750  0.165E+00  0.556E-01  0.556E-01  0.536E-01
   9.760  0.164E+00  0.552E-01  0.552E-01  0.533E-01
   9.770  0.162E+00  0.548E-01  0.548E-01  0.528E-01
   9.780  0.161E+00  0.544E-01  0.544E-01  0.524E-01
   9.790  0.160E+00  0.542E-01  0.542E-01  0.521E-01
   9.800  0.163E+00  0.549E-01  0.549E-01  0.528E-01
   9.810  0.166E+00  0.560E-01  0.560E-01  0.540E-01
   9.820  0.169E+00  0.569E-01  0.569E-01  0.551E-01
   9.830  0.179E+00  0.599E-01  0.599E-01  0.586E-01
   9.840  0.309E+00  0.103E+00  0.103E+00  0.103E+00
   9.850  0.540E+00  0.172E+00  0.172E+00  0.195E+00
   9.860  0.506E+00  0.163E+00  0.163E+00  0.180E+00
   9.870  0.494E+00  0.162E+00  0.162E+00  0.169E+00
   9.880  0.465E+00  0.154E+00  0.154E+00  0.157E+00
   9.890  0.410E+00  0.136E+00  0.136E+00  0.138E+00
   9.900  0.506E+00  0.164E+00  0.164E+00  0.177E+00
   9.910  0.380E+00  0.127E+00  0.127E+00  0.126E+00
   9.920  0.346E+00  0.116E+00  0.116E+00  0.114E+00
   9.930  0.346E+00  0.117E+00  0.117E+00  0.112E+00
   9.940  0.348E+00  0.118E+00  0.118E+00  0.112E+00
   9.950  0.352E+00  0.120E+00  0.120E+00  0.113E+00
   9.960  0.355E+00  0.121E+00  0.121E+00  0.113E+00
   9.970  0.355E+00  0.121E+00  0.121E+00  0.113E+00
   9.980  0.355E+00  0.121E+00  0.121E+00  0.113E+00
   9.990  0.355E+00  0.121E+00  0.121E+00  0.113E+00
  10.000  0.362E+00  0.123E+00  0.123E+00  0.115E+00
  10.010  0.368E+00  0.125E+00  0.125E+00  0.118E+00
  10.020  0.372E+00  0.126E+00  0.126E+00  0.119E+00
  10.030  0.380E+00  0.128E+00  0.128E+00  0.124E+00
  10.040  0.383E+00  0.128E+00  0.128E+00  0.127E+00
  10.050  0.375E+00  0.125E+00  0.125E+00  0.125E+00
  10.060  0.367E+00  0.122E+00  0.122E+00  0.123E+00
  10.070  0.472E+00  0.147E+00  0.147E+00  0.178E+00
  10.080  0.396E+00  0.132E+00  0.132E+00  0.131E+00
  10.090  0.430E+00  0.142E+00  0.142E+00  0.145E+00
  10.100  0.406E+00  0.135E+00  0.135E+00  0.137E+00
  10.110  0.363E+00  0.120E+00  0.120E+00  0.122E+00
  10.120  0.341E+00  0.113E+00  0.113E+00  0.115E+00
  10.130  0.326E+00  0.108E+00  0.108E+00  0.110E+00
  10.140  0.311E+00  0.103E+00  0.103E+00  0.105E+00
  10.150  0.296E+00  0.980E-01  0.980E-01  0.100E+00
  10.160  0.282E+00  0.932E-01  0.932E-01  0.955E-01
  10.170  0.267E+00  0.883E-01  0.883E-01  0.909E-01
  10.180  0.259E+00  0.853E-01  0.853E-01  0.886E-01
  10.190  0.252E+00  0.827E-01  0.827E-01  0.865E-01
  10.200  0.245E+00  0.806E-01  0.806E-01  0.841E-01
  10.210  0.241E+00  0.795E-01  0.795E-01  0.824E-01
  10.220  0.239E+00  0.787E-01  0.787E-01  0.811E-01
  10.230  0.236E+00  0.782E-01  0.782E-01  0.799E-01
  10.240  0.235E+00  0.778E-01  0.778E-01  0.790E-01
  10.250  0.233E+00  0.775E-01  0.775E-01  0.782E-01
  10.260  0.233E+00  0.775E-01  0.775E-01  0.777E-01
  10.270  0.232E+00  0.776E-01  0.776E-01  0.773E-01
  10.280  0.233E+00  0.779E-01  0.779E-01  0.771E-01
  10.290  0.244E+00  0.815E-01  0.815E-01  0.811E-01
  10.300  0.383E+00  0.128E+00  0.128E+00  0.128E+00
  10.310  0.390E+00  0.128E+00  0.128E+00  0.133E+00
  10.320  0.384E+00  0.127E+00  0.127E+00  0.130E+00
  10.330  0.423E+00  0.141E+00  0.141E+00  0.140E+00
  10.340  0.442E+00  0.149E+00  0.149E+00  0.144E+00
  10.350  0.433E+00  0.145E+00  0.145E+00  0.143E+00
  10.360  0.388E+00  0.128E+00  0.128E+00  0.132E+00
  10.370  0.345E+00  0.112E+00  0.112E+00  0.120E+00
  10.380  0.303E+00  0.979E-01  0.979E-01  0.107E+00
  10.390  0.266E+00  0.858E-01  0.858E-01  0.944E-01
  10.400  0.234E+00  0.760E-01  0.760E-01  0.820E-01
  10.410  0.209E+00  0.685E-01  0.685E-01  0.715E-01
  10.420  0.187E+00  0.622E-01  0.622E-01  0.626E-01
  10.430  0.176E+00  0.592E-01  0.592E-01  0.577E-01
  10.440  0.174E+00  0.590E-01  0.590E-01  0.562E-01
  10.450  0.174E+00  0.591E-01  0.591E-01  0.556E-01
  10.460  0.172E+00  0.586E-01  0.586E-01  0.552E-01
  10.470  0.171E+00  0.578E-01  0.578E-01  0.552E-01
  10.480  0.170E+00  0.575E-01  0.575E-01  0.556E-01
  10.490  0.170E+00  0.573E-01  0.573E-01  0.556E-01
  10.500  0.172E+00  0.578E-01  0.578E-01  0.563E-01
  10.510  0.175E+00  0.588E-01  0.588E-01  0.576E-01
  10.520  0.178E+00  0.595E-01  0.595E-01  0.587E-01
  10.530  0.180E+00  0.598E-01  0.598E-01  0.601E-01
  10.540  0.185E+00  0.613E-01  0.613E-01  0.624E-01
  10.550  0.191E+00  0.633E-01  0.633E-01  0.646E-01
  10.560  0.197E+00  0.653E-01  0.653E-01  0.667E-01
  10.570  0.203E+00  0.671E-01  0.671E-01  0.683E-01
  10.580  0.208E+00  0.690E-01  0.690E-01  0.699E-01
  10.590  0.213E+00  0.708E-01  0.708E-01  0.715E-01
  10.600  0.218E+00  0.726E-01  0.726E-01  0.730E-01
  10.610  0.223E+00  0.742E-01  0.742E-01  0.744E-01
  10.620  0.229E+00  0.763E-01  0.763E-01  0.762E-01
  10.630  0.238E+00  0.796E-01  0.796E-01  0.788E-01
  10.640  0.250E+00  0.839E-01  0.839E-01  0.826E-01
  10.650  0.276E+00  0.926E-01  0.926E-01  0.907E-01
  10.660  0.296E+00  0.995E-01  0.995E-01  0.971E-01
  10.670  0.302E+00  0.102E+00  0.102E+00  0.985E-01
  10.680  0.292E+00  0.990E-01  0.990E-01  0.945E-01
  10.690  0.278E+00  0.944E-01  0.944E-01  0.897E-01
  10.700  0.260E+00  0.881E-01  0.881E-01  0.835E-01
  10.710  0.242E+00  0.820E-01  0.820E-01  0.780E-01
  10.720  0.231E+00  0.780E-01  0.780E-01  0.745E-01
  10.730  0.224E+00  0.756E-01  0.756E-01  0.728E-01
  10.740  0.220E+00  0.743E-01  0.743E-01  0.720E-01
  10.750  0.218E+00  0.733E-01  0.733E-01  0.714E-01
  10.760  0.218E+00  0.732E-01  0.732E-01  0.714E-01
  10.770  0.228E+00  0.764E-01  0.764E-01  0.756E-01
  10.780  0.198E+00  0.667E-01  0.667E-01  0.649E-01
  10.790  0.217E+00  0.726E-01  0.726E-01  0.716E-01
  10.800  0.178E+00  0.600E-01  0.600E-01  0.584E-01
  10.810  0.154E+00  0.516E-01  0.516E-01  0.505E-01
  10.820  0.149E+00  0.499E-01  0.499E-01  0.492E-01
  10.830  0.142E+00  0.473E-01  0.473E-01  0.469E-01
  10.840  0.133E+00  0.443E-01  0.443E-01  0.439E-01
  10.850  0.126E+00  0.422E-01  0.422E-01  0.419E-01
  10.860  0.121E+00  0.404E-01  0.404E-01  0.403E-01
  10.870  0.116E+00  0.387E-01  0.387E-01  0.389E-01
  10.880  0.112E+00  0.372E-01  0.372E-01  0.380E-01
  10.890  0.109E+00  0.359E-01  0.359E-01  0.375E-01
  10.900  0.107E+00  0.348E-01  0.348E-01  0.374E-01
  10.910  0.110E+00  0.355E-01  0.355E-01  0.386E-01
  10.920  0.124E+00  0.413E-01  0.413E-01  0.417E-01
  10.930  0.140E+00  0.474E-01  0.474E-01  0.453E-01
  10.940  0.157E+00  0.537E-01  0.537E-01  0.492E-01
  10.950  0.171E+00  0.589E-01  0.589E-01  0.536E-01
  10.960  0.188E+00  0.644E-01  0.644E-01  0.588E-01
  10.970  0.209E+00  0.716E-01  0.716E-01  0.653E-01
  10.980  0.227E+00  0.780E-01  0.780E-01  0.706E-01
  10.990  0.242E+00  0.835E-01  0.835E-01  0.747E-01
  11.000  0.256E+00  0.888E-01  0.888E-01  0.784E-01
  11.010  0.325E+00  0.113E+00  0.113E+00  0.987E-01
  11.020  0.289E+00  0.101E+00  0.101E+00  0.871E-01
  11.030  0.299E+00  0.103E+00  0.103E+00  0.930E-01
  11.040  0.343E+00  0.115E+00  0.115E+00  0.113E+00
  11.050  0.352E+00  0.114E+00  0.114E+00  0.123E+00
  11.060  0.219E+00  0.732E-01  0.732E-01  0.730E-01
  11.070  0.173E+00  0.577E-01  0.577E-01  0.577E-01
  11.080  0.147E+00  0.479E-01  0.479E-01  0.508E-01
  11.090  0.128E+00  0.411E-01  0.411E-01  0.459E-01
  11.100  0.118E+00  0.375E-01  0.375E-01  0.431E-01
  11.110  0.114E+00  0.359E-01  0.359E-01  0.420E-01
  11.120  0.111E+00  0.349E-01  0.349E-01  0.414E-01
  11.130  0.109E+00  0.339E-01  0.339E-01  0.409E-01
  11.140  0.107E+00  0.331E-01  0.331E-01  0.404E-01
  11.150  0.105E+00  0.323E-01  0.323E-01  0.400E-01
  11.160  0.103E+00  0.316E-01  0.316E-01  0.396E-01
  11.170  0.101E+00  0.309E-01  0.309E-01  0.392E-01
  11.180  0.995E-01  0.303E-01  0.303E-01  0.389E-01
  11.190  0.981E-01  0.298E-01  0.298E-01  0.385E-01
  11.200  0.969E-01  0.293E-01  0.293E-01  0.383E-01
  11.210  0.959E-01  0.289E-01  0.289E-01  0.380E-01
  11.220  0.950E-01  0.286E-01  0.286E-01  0.378E-01
  11.230  0.944E-01  0.284E-01  0.284E-01  0.377E-01
  11.240  0.940E-01  0.282E-01  0.282E-01  0.376E-01
  11.250  0.939E-01  0.281E-01  0.281E-01  0.376E-01
  11.260  0.939E-01  0.282E-01  0.282E-01  0.376E-01
  11.270  0.943E-01  0.283E-01  0.283E-01  0.377E-01
  11.280  0.956E-01  0.288E-01  0.288E-01  0.380E-01
  11.290  0.984E-01  0.298E-01  0.298E-01  0.389E-01
  11.300  0.104E+00  0.316E-01  0.316E-01  0.407E-01
  11.310  0.111E+00  0.340E-01  0.340E-01  0.429E-01
  11.320  0.119E+00  0.369E-01  0.369E-01  0.454E-01
  11.330  0.130E+00  0.407E-01  0.407E-01  0.488E-01
  11.340  0.144E+00  0.457E-01  0.457E-01  0.530E-01
  11.350  0.163E+00  0.521E-01  0.521E-01  0.584E-01
  11.360  0.185E+00  0.600E-01  0.600E-01  0.649E-01
  11.370  0.211E+00  0.692E-01  0.692E-01  0.723E-01
  11.380  0.241E+00  0.800E-01  0.800E-01  0.808E-01
  11.390  0.276E+00  0.927E-01  0.927E-01  0.905E-01
  11.400  0.312E+00  0.106E+00  0.106E+00  0.998E-01
  11.410  0.352E+00  0.122E+00  0.122E+00  0.109E+00
  11.420  0.400E+00  0.140E+00  0.140E+00  0.120E+00
  11.430  0.428E+00  0.150E+00  0.150E+00  0.127E+00
  11.440  0.473E+00  0.167E+00  0.167E+00  0.138E+00
  11.450  0.499E+00  0.176E+00  0.176E+00  0.147E+00
  11.460  0.521E+00  0.186E+00  0.186E+00  0.149E+00
  11.470  0.467E+00  0.167E+00  0.167E+00  0.134E+00
  11.480  0.380E+00  0.134E+00  0.134E+00  0.112E+00
  11.490  0.358E+00  0.126E+00  0.126E+00  0.106E+00
  11.500  0.339E+00  0.119E+00  0.119E+00  0.102E+00
  11.510  0.329E+00  0.113E+00  0.113E+00  0.103E+00
  11.520  0.323E+00  0.109E+00  0.109E+00  0.106E+00
  11.530  0.323E+00  0.106E+00  0.106E+00  0.110E+00
  11.540  0.299E+00  0.980E-01  0.980E-01  0.103E+00
  11.550  0.290E+00  0.930E-01  0.930E-01  0.104E+00
  11.560  0.269E+00  0.874E-01  0.874E-01  0.945E-01
  11.570  0.247E+00  0.809E-01  0.809E-01  0.850E-01
  11.580  0.246E+00  0.805E-01  0.805E-01  0.848E-01
  11.590  0.251E+00  0.823E-01  0.823E-01  0.864E-01
  11.600  0.256E+00  0.841E-01  0.841E-01  0.875E-01
  11.610  0.260E+00  0.860E-01  0.860E-01  0.880E-01
  11.620  0.267E+00  0.891E-01  0.891E-01  0.884E-01
  11.630  0.281E+00  0.943E-01  0.943E-01  0.927E-01
  11.640  0.299E+00  0.995E-01  0.995E-01  0.100E+00
  11.650  0.313E+00  0.104E+00  0.104E+00  0.105E+00
  11.660  0.338E+00  0.115E+00  0.115E+00  0.109E+00
  11.670  0.302E+00  0.101E+00  0.101E+00  0.101E+00
  11.680  0.282E+00  0.942E-01  0.942E-01  0.938E-01
  11.690  0.252E+00  0.835E-01  0.835E-01  0.845E-01
  11.700  0.227E+00  0.750E-01  0.750E-01  0.767E-01
  11.710  0.208E+00  0.690E-01  0.690E-01  0.700E-01
  11.720  0.196E+00  0.654E-01  0.654E-01  0.656E-01
  11.730  0.189E+00  0.631E-01  0.631E-01  0.631E-01
  11.740  0.197E+00  0.651E-01  0.651E-01  0.674E-01
  11.750  0.213E+00  0.692E-01  0.692E-01  0.752E-01
  11.760  0.216E+00  0.698E-01  0.698E-01  0.767E-01
  11.770  0.221E+00  0.711E-01  0.711E-01  0.791E-01
  11.780  0.227E+00  0.724E-01  0.724E-01  0.820E-01
  11.790  0.224E+00  0.710E-01  0.710E-01  0.822E-01
  11.800  0.206E+00  0.642E-01  0.642E-01  0.774E-01
  11.810  0.182E+00  0.561E-01  0.561E-01  0.701E-01
  11.820  0.172E+00  0.530E-01  0.530E-01  0.661E-01
  11.830  0.180E+00  0.560E-01  0.560E-01  0.677E-01
  11.840  0.163E+00  0.520E-01  0.520E-01  0.585E-01
  11.850  0.134E+00  0.428E-01  0.428E-01  0.486E-01
  11.860  0.127E+00  0.407E-01  0.407E-01  0.452E-01
  11.870  0.118E+00  0.381E-01  0.381E-01  0.415E-01
  11.880  0.108E+00  0.350E-01  0.350E-01  0.376E-01
  11.890  0.984E-01  0.321E-01  0.321E-01  0.341E-01
  11.900  0.902E-01  0.295E-01  0.295E-01  0.311E-01
  11.910  0.838E-01  0.276E-01  0.276E-01  0.287E-01
  11.920  0.805E-01  0.267E-01  0.267E-01  0.272E-01
  11.930  0.768E-01  0.256E-01  0.256E-01  0.256E-01
  11.940  0.788E-01  0.266E-01  0.266E-01  0.257E-01
  11.950  0.786E-01  0.267E-01  0.267E-01  0.253E-01
  11.960  0.762E-01  0.260E-01  0.260E-01  0.241E-01
  11.970  0.735E-01  0.253E-01  0.253E-01  0.230E-01
  11.980  0.707E-01  0.244E-01  0.244E-01  0.218E-01
  11.990  0.676E-01  0.235E-01  0.235E-01  0.207E-01
  12.000  0.642E-01  0.224E-01  0.224E-01  0.195E-01
  12.010  0.603E-01  0.211E-01  0.211E-01  0.181E-01
