#  E (eV)   dosup(E)     dosdw(E)   Int dos(E) EFermi =    5.472 eV
 -15.000  0.0000E+00  0.0000E+00  0.8000E+01
 -14.990  0.0000E+00  0.0000E+00  0.8000E+01
 -14.980  0.0000E+00  0.0000E+00  0.8000E+01
 -14.970  0.0000E+00  0.0000E+00  0.8000E+01
 -14.960  0.0000E+00  0.0000E+00  0.8000E+01
 -14.950  0.0000E+00  0.0000E+00  0.8000E+01
 -14.940  0.0000E+00  0.0000E+00  0.8000E+01
 -14.930  0.0000E+00  0.0000E+00  0.8000E+01
 -14.920  0.0000E+00  0.0000E+00  0.8000E+01
 -14.910  0.0000E+00  0.0000E+00  0.8000E+01
 -14.900  0.0000E+00  0.0000E+00  0.8000E+01
 -14.890  0.0000E+00  0.0000E+00  0.8000E+01
 -14.880  0.0000E+00  0.0000E+00  0.8000E+01
 -14.870  0.0000E+00  0.0000E+00  0.8000E+01
 -14.860  0.0000E+00  0.0000E+00  0.8000E+01
 -14.850  0.0000E+00  0.0000E+00  0.8000E+01
 -14.840  0.0000E+00  0.0000E+00  0.8000E+01
 -14.830  0.0000E+00  0.0000E+00  0.8000E+01
 -14.820  0.0000E+00  0.0000E+00  0.8000E+01
 -14.810  0.0000E+00  0.0000E+00  0.8000E+01
 -14.800  0.0000E+00  0.0000E+00  0.8000E+01
 -14.790  0.0000E+00  0.0000E+00  0.8000E+01
 -14.780  0.0000E+00  0.0000E+00  0.8000E+01
 -14.770  0.0000E+00  0.0000E+00  0.8000E+01
 -14.760  0.0000E+00  0.0000E+00  0.8000E+01
 -14.750  0.0000E+00  0.0000E+00  0.8000E+01
 -14.740  0.0000E+00  0.0000E+00  0.8000E+01
 -14.730  0.0000E+00  0.0000E+00  0.8000E+01
 -14.720  0.0000E+00  0.0000E+00  0.8000E+01
 -14.710  0.0000E+00  0.0000E+00  0.8000E+01
 -14.700  0.0000E+00  0.0000E+00  0.8000E+01
 -14.690  0.0000E+00  0.0000E+00  0.8000E+01
 -14.680  0.0000E+00  0.0000E+00  0.8000E+01
 -14.670  0.0000E+00  0.0000E+00  0.8000E+01
 -14.660  0.0000E+00  0.0000E+00  0.8000E+01
 -14.650  0.0000E+00  0.0000E+00  0.8000E+01
 -14.640  0.0000E+00  0.0000E+00  0.8000E+01
 -14.630  0.0000E+00  0.0000E+00  0.8000E+01
 -14.620  0.0000E+00  0.0000E+00  0.8000E+01
 -14.610  0.0000E+00  0.0000E+00  0.8000E+01
 -14.600  0.0000E+00  0.0000E+00  0.8000E+01
 -14.590  0.0000E+00  0.0000E+00  0.8000E+01
 -14.580  0.0000E+00  0.0000E+00  0.8000E+01
 -14.570  0.0000E+00  0.0000E+00  0.8000E+01
 -14.560  0.0000E+00  0.0000E+00  0.8000E+01
 -14.550  0.0000E+00  0.0000E+00  0.8000E+01
 -14.540  0.0000E+00  0.0000E+00  0.8000E+01
 -14.530  0.0000E+00  0.0000E+00  0.8000E+01
 -14.520  0.0000E+00  0.0000E+00  0.8000E+01
 -14.510  0.0000E+00  0.0000E+00  0.8000E+01
 -14.500  0.0000E+00  0.0000E+00  0.8000E+01
 -14.490  0.0000E+00  0.0000E+00  0.8000E+01
 -14.480  0.0000E+00  0.0000E+00  0.8000E+01
 -14.470  0.0000E+00  0.0000E+00  0.8000E+01
 -14.460  0.0000E+00  0.0000E+00  0.8000E+01
 -14.450  0.0000E+00  0.0000E+00  0.8000E+01
 -14.440  0.0000E+00  0.0000E+00  0.8000E+01
 -14.430  0.0000E+00  0.0000E+00  0.8000E+01
 -14.420  0.0000E+00  0.0000E+00  0.8000E+01
 -14.410  0.0000E+00  0.0000E+00  0.8000E+01
 -14.400  0.0000E+00  0.0000E+00  0.8000E+01
 -14.390  0.0000E+00  0.0000E+00  0.8000E+01
 -14.380  0.0000E+00  0.0000E+00  0.8000E+01
 -14.370  0.0000E+00  0.0000E+00  0.8000E+01
 -14.360  0.0000E+00  0.0000E+00  0.8000E+01
 -14.350  0.0000E+00  0.0000E+00  0.8000E+01
 -14.340  0.0000E+00  0.0000E+00  0.8000E+01
 -14.330  0.0000E+00  0.0000E+00  0.8000E+01
 -14.320  0.0000E+00  0.0000E+00  0.8000E+01
 -14.310  0.0000E+00  0.0000E+00  0.8000E+01
 -14.300  0.0000E+00  0.0000E+00  0.8000E+01
 -14.290  0.0000E+00  0.0000E+00  0.8000E+01
 -14.280  0.0000E+00  0.0000E+00  0.8000E+01
 -14.270  0.0000E+00  0.0000E+00  0.8000E+01
 -14.260  0.0000E+00  0.0000E+00  0.8000E+01
 -14.250  0.0000E+00  0.0000E+00  0.8000E+01
 -14.240  0.0000E+00  0.0000E+00  0.8000E+01
 -14.230  0.0000E+00  0.0000E+00  0.8000E+01
 -14.220  0.0000E+00  0.0000E+00  0.8000E+01
 -14.210  0.0000E+00  0.0000E+00  0.8000E+01
 -14.200  0.0000E+00  0.0000E+00  0.8000E+01
 -14.190  0.0000E+00  0.0000E+00  0.8000E+01
 -14.180  0.0000E+00  0.0000E+00  0.8000E+01
 -14.170  0.0000E+00  0.0000E+00  0.8000E+01
 -14.160  0.0000E+00  0.0000E+00  0.8000E+01
 -14.150  0.0000E+00  0.0000E+00  0.8000E+01
 -14.140  0.0000E+00  0.0000E+00  0.8000E+01
 -14.130  0.0000E+00  0.0000E+00  0.8000E+01
 -14.120  0.0000E+00  0.0000E+00  0.8000E+01
 -14.110  0.0000E+00  0.0000E+00  0.8000E+01
 -14.100  0.0000E+00  0.0000E+00  0.8000E+01
 -14.090  0.0000E+00  0.0000E+00  0.8000E+01
 -14.080  0.0000E+00  0.0000E+00  0.8000E+01
 -14.070  0.0000E+00  0.0000E+00  0.8000E+01
 -14.060  0.0000E+00  0.0000E+00  0.8000E+01
 -14.050  0.0000E+00  0.0000E+00  0.8000E+01
 -14.040  0.0000E+00  0.0000E+00  0.8000E+01
 -14.030  0.0000E+00  0.0000E+00  0.8000E+01
 -14.020  0.0000E+00  0.0000E+00  0.8000E+01
 -14.010  0.0000E+00  0.0000E+00  0.8000E+01
 -14.000  0.0000E+00  0.0000E+00  0.8000E+01
 -13.990  0.0000E+00  0.0000E+00  0.8000E+01
 -13.980  0.0000E+00  0.0000E+00  0.8000E+01
 -13.970  0.0000E+00  0.0000E+00  0.8000E+01
 -13.960  0.0000E+00  0.0000E+00  0.8000E+01
 -13.950  0.0000E+00  0.0000E+00  0.8000E+01
 -13.940  0.0000E+00  0.0000E+00  0.8000E+01
 -13.930  0.0000E+00  0.0000E+00  0.8000E+01
 -13.920  0.0000E+00  0.0000E+00  0.8000E+01
 -13.910  0.0000E+00  0.0000E+00  0.8000E+01
 -13.900  0.0000E+00  0.0000E+00  0.8000E+01
 -13.890  0.0000E+00  0.0000E+00  0.8000E+01
 -13.880  0.0000E+00  0.0000E+00  0.8000E+01
 -13.870  0.0000E+00  0.0000E+00  0.8000E+01
 -13.860  0.0000E+00  0.0000E+00  0.8000E+01
 -13.850  0.0000E+00  0.0000E+00  0.8000E+01
 -13.840  0.0000E+00  0.0000E+00  0.8000E+01
 -13.830  0.0000E+00  0.0000E+00  0.8000E+01
 -13.820  0.0000E+00  0.0000E+00  0.8000E+01
 -13.810  0.0000E+00  0.0000E+00  0.8000E+01
 -13.800  0.0000E+00  0.0000E+00  0.8000E+01
 -13.790  0.0000E+00  0.0000E+00  0.8000E+01
 -13.780  0.0000E+00  0.0000E+00  0.8000E+01
 -13.770  0.0000E+00  0.0000E+00  0.8000E+01
 -13.760  0.0000E+00  0.0000E+00  0.8000E+01
 -13.750  0.0000E+00  0.0000E+00  0.8000E+01
 -13.740  0.0000E+00  0.0000E+00  0.8000E+01
 -13.730  0.0000E+00  0.0000E+00  0.8000E+01
 -13.720  0.0000E+00  0.0000E+00  0.8000E+01
 -13.710  0.0000E+00  0.0000E+00  0.8000E+01
 -13.700  0.0000E+00  0.0000E+00  0.8000E+01
 -13.690  0.0000E+00  0.0000E+00  0.8000E+01
 -13.680  0.0000E+00  0.0000E+00  0.8000E+01
 -13.670  0.0000E+00  0.0000E+00  0.8000E+01
 -13.660  0.0000E+00  0.0000E+00  0.8000E+01
 -13.650  0.0000E+00  0.0000E+00  0.8000E+01
 -13.640  0.0000E+00  0.0000E+00  0.8000E+01
 -13.630  0.0000E+00  0.0000E+00  0.8000E+01
 -13.620  0.0000E+00  0.0000E+00  0.8000E+01
 -13.610  0.0000E+00  0.0000E+00  0.8000E+01
 -13.600  0.0000E+00  0.0000E+00  0.8000E+01
 -13.590  0.0000E+00  0.0000E+00  0.8000E+01
 -13.580  0.0000E+00  0.0000E+00  0.8000E+01
 -13.570  0.0000E+00  0.0000E+00  0.8000E+01
 -13.560  0.0000E+00  0.0000E+00  0.8000E+01
 -13.550  0.0000E+00  0.0000E+00  0.8000E+01
 -13.540  0.0000E+00  0.0000E+00  0.8000E+01
 -13.530  0.0000E+00  0.0000E+00  0.8000E+01
 -13.520  0.0000E+00  0.0000E+00  0.8000E+01
 -13.510  0.0000E+00  0.0000E+00  0.8000E+01
 -13.500  0.0000E+00  0.0000E+00  0.8000E+01
 -13.490  0.0000E+00  0.0000E+00  0.8000E+01
 -13.480  0.0000E+00  0.0000E+00  0.8000E+01
 -13.470  0.0000E+00  0.0000E+00  0.8000E+01
 -13.460  0.0000E+00  0.0000E+00  0.8000E+01
 -13.450  0.0000E+00  0.0000E+00  0.8000E+01
 -13.440  0.0000E+00  0.0000E+00  0.8000E+01
 -13.430  0.0000E+00  0.0000E+00  0.8000E+01
 -13.420  0.0000E+00  0.0000E+00  0.8000E+01
 -13.410  0.0000E+00  0.0000E+00  0.8000E+01
 -13.400  0.0000E+00  0.0000E+00  0.8000E+01
 -13.390  0.0000E+00  0.0000E+00  0.8000E+01
 -13.380  0.0000E+00  0.0000E+00  0.8000E+01
 -13.370  0.0000E+00  0.0000E+00  0.8000E+01
 -13.360  0.0000E+00  0.0000E+00  0.8000E+01
 -13.350  0.0000E+00  0.0000E+00  0.8000E+01
 -13.340  0.0000E+00  0.0000E+00  0.8000E+01
 -13.330  0.0000E+00  0.0000E+00  0.8000E+01
 -13.320  0.0000E+00  0.0000E+00  0.8000E+01
 -13.310  0.0000E+00  0.0000E+00  0.8000E+01
 -13.300  0.0000E+00  0.0000E+00  0.8000E+01
 -13.290  0.0000E+00  0.0000E+00  0.8000E+01
 -13.280  0.0000E+00  0.0000E+00  0.8000E+01
 -13.270  0.0000E+00  0.0000E+00  0.8000E+01
 -13.260  0.0000E+00  0.0000E+00  0.8000E+01
 -13.250  0.0000E+00  0.0000E+00  0.8000E+01
 -13.240  0.0000E+00  0.0000E+00  0.8000E+01
 -13.230  0.0000E+00  0.0000E+00  0.8000E+01
 -13.220  0.0000E+00  0.0000E+00  0.8000E+01
 -13.210  0.0000E+00  0.0000E+00  0.8000E+01
 -13.200  0.0000E+00  0.0000E+00  0.8000E+01
 -13.190  0.0000E+00  0.0000E+00  0.8000E+01
 -13.180  0.0000E+00  0.0000E+00  0.8000E+01
 -13.170  0.0000E+00  0.0000E+00  0.8000E+01
 -13.160  0.0000E+00  0.0000E+00  0.8000E+01
 -13.150  0.0000E+00  0.0000E+00  0.8000E+01
 -13.140  0.0000E+00  0.0000E+00  0.8000E+01
 -13.130  0.0000E+00  0.0000E+00  0.8000E+01
 -13.120  0.0000E+00  0.0000E+00  0.8000E+01
 -13.110  0.0000E+00  0.0000E+00  0.8000E+01
 -13.100  0.0000E+00  0.0000E+00  0.8000E+01
 -13.090  0.0000E+00  0.0000E+00  0.8000E+01
 -13.080  0.0000E+00  0.0000E+00  0.8000E+01
 -13.070  0.0000E+00  0.0000E+00  0.8000E+01
 -13.060  0.0000E+00  0.0000E+00  0.8000E+01
 -13.050  0.0000E+00  0.0000E+00  0.8000E+01
 -13.040  0.0000E+00  0.0000E+00  0.8000E+01
 -13.030  0.0000E+00  0.0000E+00  0.8000E+01
 -13.020  0.0000E+00  0.0000E+00  0.8000E+01
 -13.010  0.0000E+00  0.0000E+00  0.8000E+01
 -13.000  0.0000E+00  0.0000E+00  0.8000E+01
 -12.990  0.0000E+00  0.0000E+00  0.8000E+01
 -12.980  0.0000E+00  0.0000E+00  0.8000E+01
 -12.970  0.0000E+00  0.0000E+00  0.8000E+01
 -12.960  0.0000E+00  0.0000E+00  0.8000E+01
 -12.950  0.0000E+00  0.0000E+00  0.8000E+01
 -12.940  0.0000E+00  0.0000E+00  0.8000E+01
 -12.930  0.0000E+00  0.0000E+00  0.8000E+01
 -12.920  0.0000E+00  0.0000E+00  0.8000E+01
 -12.910  0.0000E+00  0.0000E+00  0.8000E+01
 -12.900  0.0000E+00  0.0000E+00  0.8000E+01
 -12.890  0.0000E+00  0.0000E+00  0.8000E+01
 -12.880  0.0000E+00  0.0000E+00  0.8000E+01
 -12.870  0.0000E+00  0.0000E+00  0.8000E+01
 -12.860  0.0000E+00  0.0000E+00  0.8000E+01
 -12.850  0.0000E+00  0.0000E+00  0.8000E+01
 -12.840  0.0000E+00  0.0000E+00  0.8000E+01
 -12.830  0.0000E+00  0.0000E+00  0.8000E+01
 -12.820  0.0000E+00  0.0000E+00  0.8000E+01
 -12.810  0.0000E+00  0.0000E+00  0.8000E+01
 -12.800  0.0000E+00  0.0000E+00  0.8000E+01
 -12.790  0.0000E+00  0.0000E+00  0.8000E+01
 -12.780  0.0000E+00  0.0000E+00  0.8000E+01
 -12.770  0.0000E+00  0.0000E+00  0.8000E+01
 -12.760  0.0000E+00  0.0000E+00  0.8000E+01
 -12.750  0.0000E+00  0.0000E+00  0.8000E+01
 -12.740  0.0000E+00  0.0000E+00  0.8000E+01
 -12.730  0.0000E+00  0.0000E+00  0.8000E+01
 -12.720  0.0000E+00  0.0000E+00  0.8000E+01
 -12.710  0.0000E+00  0.0000E+00  0.8000E+01
 -12.700  0.0000E+00  0.0000E+00  0.8000E+01
 -12.690  0.0000E+00  0.0000E+00  0.8000E+01
 -12.680  0.0000E+00  0.0000E+00  0.8000E+01
 -12.670  0.0000E+00  0.0000E+00  0.8000E+01
 -12.660  0.0000E+00  0.0000E+00  0.8000E+01
 -12.650  0.0000E+00  0.0000E+00  0.8000E+01
 -12.640  0.0000E+00  0.0000E+00  0.8000E+01
 -12.630  0.0000E+00  0.0000E+00  0.8000E+01
 -12.620  0.0000E+00  0.0000E+00  0.8000E+01
 -12.610  0.0000E+00  0.0000E+00  0.8000E+01
 -12.600  0.0000E+00  0.0000E+00  0.8000E+01
 -12.590  0.0000E+00  0.0000E+00  0.8000E+01
 -12.580  0.0000E+00  0.0000E+00  0.8000E+01
 -12.570  0.0000E+00  0.0000E+00  0.8000E+01
 -12.560  0.0000E+00  0.0000E+00  0.8000E+01
 -12.550  0.0000E+00  0.0000E+00  0.8000E+01
 -12.540  0.0000E+00  0.0000E+00  0.8000E+01
 -12.530  0.0000E+00  0.0000E+00  0.8000E+01
 -12.520  0.0000E+00  0.0000E+00  0.8000E+01
 -12.510  0.0000E+00  0.0000E+00  0.8000E+01
 -12.500  0.0000E+00  0.0000E+00  0.8000E+01
 -12.490  0.0000E+00  0.0000E+00  0.8000E+01
 -12.480  0.0000E+00  0.0000E+00  0.8000E+01
 -12.470  0.0000E+00  0.0000E+00  0.8000E+01
 -12.460  0.0000E+00  0.0000E+00  0.8000E+01
 -12.450  0.0000E+00  0.0000E+00  0.8000E+01
 -12.440  0.0000E+00  0.0000E+00  0.8000E+01
 -12.430  0.0000E+00  0.0000E+00  0.8000E+01
 -12.420  0.0000E+00  0.0000E+00  0.8000E+01
 -12.410  0.0000E+00  0.0000E+00  0.8000E+01
 -12.400  0.0000E+00  0.0000E+00  0.8000E+01
 -12.390  0.0000E+00  0.0000E+00  0.8000E+01
 -12.380  0.0000E+00  0.0000E+00  0.8000E+01
 -12.370  0.0000E+00  0.0000E+00  0.8000E+01
 -12.360  0.0000E+00  0.0000E+00  0.8000E+01
 -12.350  0.0000E+00  0.0000E+00  0.8000E+01
 -12.340  0.0000E+00  0.0000E+00  0.8000E+01
 -12.330  0.0000E+00  0.0000E+00  0.8000E+01
 -12.320  0.0000E+00  0.0000E+00  0.8000E+01
 -12.310  0.0000E+00  0.0000E+00  0.8000E+01
 -12.300  0.0000E+00  0.0000E+00  0.8000E+01
 -12.290  0.0000E+00  0.0000E+00  0.8000E+01
 -12.280  0.0000E+00  0.0000E+00  0.8000E+01
 -12.270  0.0000E+00  0.0000E+00  0.8000E+01
 -12.260  0.0000E+00  0.0000E+00  0.8000E+01
 -12.250  0.0000E+00  0.0000E+00  0.8000E+01
 -12.240  0.0000E+00  0.0000E+00  0.8000E+01
 -12.230  0.0000E+00  0.0000E+00  0.8000E+01
 -12.220  0.0000E+00  0.0000E+00  0.8000E+01
 -12.210  0.0000E+00  0.0000E+00  0.8000E+01
 -12.200  0.0000E+00  0.0000E+00  0.8000E+01
 -12.190  0.0000E+00  0.0000E+00  0.8000E+01
 -12.180  0.0000E+00  0.0000E+00  0.8000E+01
 -12.170  0.0000E+00  0.0000E+00  0.8000E+01
 -12.160  0.0000E+00  0.0000E+00  0.8000E+01
 -12.150  0.0000E+00  0.0000E+00  0.8000E+01
 -12.140  0.0000E+00  0.0000E+00  0.8000E+01
 -12.130  0.0000E+00  0.0000E+00  0.8000E+01
 -12.120  0.0000E+00  0.0000E+00  0.8000E+01
 -12.110  0.0000E+00  0.0000E+00  0.8000E+01
 -12.100  0.0000E+00  0.0000E+00  0.8000E+01
 -12.090  0.0000E+00  0.0000E+00  0.8000E+01
 -12.080  0.0000E+00  0.0000E+00  0.8000E+01
 -12.070  0.0000E+00  0.0000E+00  0.8000E+01
 -12.060  0.0000E+00  0.0000E+00  0.8000E+01
 -12.050  0.0000E+00  0.0000E+00  0.8000E+01
 -12.040  0.0000E+00  0.0000E+00  0.8000E+01
 -12.030  0.0000E+00  0.0000E+00  0.8000E+01
 -12.020  0.0000E+00  0.0000E+00  0.8000E+01
 -12.010  0.0000E+00  0.0000E+00  0.8000E+01
 -12.000  0.0000E+00  0.0000E+00  0.8000E+01
 -11.990  0.0000E+00  0.0000E+00  0.8000E+01
 -11.980  0.0000E+00  0.0000E+00  0.8000E+01
 -11.970  0.0000E+00  0.0000E+00  0.8000E+01
 -11.960  0.0000E+00  0.0000E+00  0.8000E+01
 -11.950  0.0000E+00  0.0000E+00  0.8000E+01
 -11.940  0.0000E+00  0.0000E+00  0.8000E+01
 -11.930  0.0000E+00  0.0000E+00  0.8000E+01
 -11.920  0.0000E+00  0.0000E+00  0.8000E+01
 -11.910  0.0000E+00  0.0000E+00  0.8000E+01
 -11.900  0.0000E+00  0.0000E+00  0.8000E+01
 -11.890  0.0000E+00  0.0000E+00  0.8000E+01
 -11.880  0.0000E+00  0.0000E+00  0.8000E+01
 -11.870  0.0000E+00  0.0000E+00  0.8000E+01
 -11.860  0.0000E+00  0.0000E+00  0.8000E+01
 -11.850  0.0000E+00  0.0000E+00  0.8000E+01
 -11.840  0.0000E+00  0.0000E+00  0.8000E+01
 -11.830  0.0000E+00  0.0000E+00  0.8000E+01
 -11.820  0.0000E+00  0.0000E+00  0.8000E+01
 -11.810  0.0000E+00  0.0000E+00  0.8000E+01
 -11.800  0.0000E+00  0.0000E+00  0.8000E+01
 -11.790  0.0000E+00  0.0000E+00  0.8000E+01
 -11.780  0.0000E+00  0.0000E+00  0.8000E+01
 -11.770  0.0000E+00  0.0000E+00  0.8000E+01
 -11.760  0.0000E+00  0.0000E+00  0.8000E+01
 -11.750  0.0000E+00  0.0000E+00  0.8000E+01
 -11.740  0.0000E+00  0.0000E+00  0.8000E+01
 -11.730  0.0000E+00  0.0000E+00  0.8000E+01
 -11.720  0.0000E+00  0.0000E+00  0.8000E+01
 -11.710  0.0000E+00  0.0000E+00  0.8000E+01
 -11.700  0.0000E+00  0.0000E+00  0.8000E+01
 -11.690  0.0000E+00  0.0000E+00  0.8000E+01
 -11.680  0.0000E+00  0.0000E+00  0.8000E+01
 -11.670  0.0000E+00  0.0000E+00  0.8000E+01
 -11.660  0.0000E+00  0.0000E+00  0.8000E+01
 -11.650  0.0000E+00  0.0000E+00  0.8000E+01
 -11.640  0.0000E+00  0.0000E+00  0.8000E+01
 -11.630  0.0000E+00  0.0000E+00  0.8000E+01
 -11.620  0.0000E+00  0.0000E+00  0.8000E+01
 -11.610  0.0000E+00  0.0000E+00  0.8000E+01
 -11.600  0.0000E+00  0.0000E+00  0.8000E+01
 -11.590  0.0000E+00  0.0000E+00  0.8000E+01
 -11.580  0.0000E+00  0.0000E+00  0.8000E+01
 -11.570  0.0000E+00  0.0000E+00  0.8000E+01
 -11.560  0.0000E+00  0.0000E+00  0.8000E+01
 -11.550  0.0000E+00  0.0000E+00  0.8000E+01
 -11.540  0.0000E+00  0.0000E+00  0.8000E+01
 -11.530  0.0000E+00  0.0000E+00  0.8000E+01
 -11.520  0.0000E+00  0.0000E+00  0.8000E+01
 -11.510  0.0000E+00  0.0000E+00  0.8000E+01
 -11.500  0.0000E+00  0.0000E+00  0.8000E+01
 -11.490  0.0000E+00  0.0000E+00  0.8000E+01
 -11.480  0.0000E+00  0.0000E+00  0.8000E+01
 -11.470  0.0000E+00  0.0000E+00  0.8000E+01
 -11.460  0.0000E+00  0.0000E+00  0.8000E+01
 -11.450  0.0000E+00  0.0000E+00  0.8000E+01
 -11.440  0.0000E+00  0.0000E+00  0.8000E+01
 -11.430  0.0000E+00  0.0000E+00  0.8000E+01
 -11.420  0.0000E+00  0.0000E+00  0.8000E+01
 -11.410  0.0000E+00  0.0000E+00  0.8000E+01
 -11.400  0.0000E+00  0.0000E+00  0.8000E+01
 -11.390  0.0000E+00  0.0000E+00  0.8000E+01
 -11.380  0.0000E+00  0.0000E+00  0.8000E+01
 -11.370  0.0000E+00  0.0000E+00  0.8000E+01
 -11.360  0.0000E+00  0.0000E+00  0.8000E+01
 -11.350  0.0000E+00  0.0000E+00  0.8000E+01
 -11.340  0.0000E+00  0.0000E+00  0.8000E+01
 -11.330  0.0000E+00  0.0000E+00  0.8000E+01
 -11.320  0.0000E+00  0.0000E+00  0.8000E+01
 -11.310  0.0000E+00  0.0000E+00  0.8000E+01
 -11.300  0.0000E+00  0.0000E+00  0.8000E+01
 -11.290  0.0000E+00  0.0000E+00  0.8000E+01
 -11.280  0.0000E+00  0.0000E+00  0.8000E+01
 -11.270  0.0000E+00  0.0000E+00  0.8000E+01
 -11.260  0.0000E+00  0.0000E+00  0.8000E+01
 -11.250  0.0000E+00  0.0000E+00  0.8000E+01
 -11.240  0.0000E+00  0.0000E+00  0.8000E+01
 -11.230  0.0000E+00  0.0000E+00  0.8000E+01
 -11.220  0.0000E+00  0.0000E+00  0.8000E+01
 -11.210  0.0000E+00  0.0000E+00  0.8000E+01
 -11.200  0.0000E+00  0.0000E+00  0.8000E+01
 -11.190  0.0000E+00  0.0000E+00  0.8000E+01
 -11.180  0.0000E+00  0.0000E+00  0.8000E+01
 -11.170  0.0000E+00  0.0000E+00  0.8000E+01
 -11.160  0.0000E+00  0.0000E+00  0.8000E+01
 -11.150  0.0000E+00  0.0000E+00  0.8000E+01
 -11.140  0.0000E+00  0.0000E+00  0.8000E+01
 -11.130  0.0000E+00  0.0000E+00  0.8000E+01
 -11.120  0.0000E+00  0.0000E+00  0.8000E+01
 -11.110  0.0000E+00  0.0000E+00  0.8000E+01
 -11.100  0.0000E+00  0.0000E+00  0.8000E+01
 -11.090  0.0000E+00  0.0000E+00  0.8000E+01
 -11.080  0.0000E+00  0.0000E+00  0.8000E+01
 -11.070  0.0000E+00  0.0000E+00  0.8000E+01
 -11.060  0.0000E+00  0.0000E+00  0.8000E+01
 -11.050  0.0000E+00  0.0000E+00  0.8000E+01
 -11.040  0.0000E+00  0.0000E+00  0.8000E+01
 -11.030  0.0000E+00  0.0000E+00  0.8000E+01
 -11.020  0.0000E+00  0.0000E+00  0.8000E+01
 -11.010  0.0000E+00  0.0000E+00  0.8000E+01
 -11.000  0.0000E+00  0.0000E+00  0.8000E+01
 -10.990  0.0000E+00  0.0000E+00  0.8000E+01
 -10.980  0.0000E+00  0.0000E+00  0.8000E+01
 -10.970  0.0000E+00  0.0000E+00  0.8000E+01
 -10.960  0.0000E+00  0.0000E+00  0.8000E+01
 -10.950  0.0000E+00  0.0000E+00  0.8000E+01
 -10.940  0.0000E+00  0.0000E+00  0.8000E+01
 -10.930  0.0000E+00  0.0000E+00  0.8000E+01
 -10.920  0.0000E+00  0.0000E+00  0.8000E+01
 -10.910  0.0000E+00  0.0000E+00  0.8000E+01
 -10.900  0.0000E+00  0.0000E+00  0.8000E+01
 -10.890  0.0000E+00  0.0000E+00  0.8000E+01
 -10.880  0.0000E+00  0.0000E+00  0.8000E+01
 -10.870  0.0000E+00  0.0000E+00  0.8000E+01
 -10.860  0.0000E+00  0.0000E+00  0.8000E+01
 -10.850  0.0000E+00  0.0000E+00  0.8000E+01
 -10.840  0.0000E+00  0.0000E+00  0.8000E+01
 -10.830  0.0000E+00  0.0000E+00  0.8000E+01
 -10.820  0.0000E+00  0.0000E+00  0.8000E+01
 -10.810  0.0000E+00  0.0000E+00  0.8000E+01
 -10.800  0.0000E+00  0.0000E+00  0.8000E+01
 -10.790  0.0000E+00  0.0000E+00  0.8000E+01
 -10.780  0.0000E+00  0.0000E+00  0.8000E+01
 -10.770  0.0000E+00  0.0000E+00  0.8000E+01
 -10.760  0.0000E+00  0.0000E+00  0.8000E+01
 -10.750  0.0000E+00  0.0000E+00  0.8000E+01
 -10.740  0.0000E+00  0.0000E+00  0.8000E+01
 -10.730  0.0000E+00  0.0000E+00  0.8000E+01
 -10.720  0.0000E+00  0.0000E+00  0.8000E+01
 -10.710  0.0000E+00  0.0000E+00  0.8000E+01
 -10.700  0.0000E+00  0.0000E+00  0.8000E+01
 -10.690  0.0000E+00  0.0000E+00  0.8000E+01
 -10.680  0.0000E+00  0.0000E+00  0.8000E+01
 -10.670  0.0000E+00  0.0000E+00  0.8000E+01
 -10.660  0.0000E+00  0.0000E+00  0.8000E+01
 -10.650  0.0000E+00  0.0000E+00  0.8000E+01
 -10.640  0.0000E+00  0.0000E+00  0.8000E+01
 -10.630  0.0000E+00  0.0000E+00  0.8000E+01
 -10.620  0.0000E+00  0.0000E+00  0.8000E+01
 -10.610  0.0000E+00  0.0000E+00  0.8000E+01
 -10.600  0.0000E+00  0.0000E+00  0.8000E+01
 -10.590  0.0000E+00  0.0000E+00  0.8000E+01
 -10.580  0.0000E+00  0.0000E+00  0.8000E+01
 -10.570  0.0000E+00  0.0000E+00  0.8000E+01
 -10.560  0.0000E+00  0.0000E+00  0.8000E+01
 -10.550  0.0000E+00  0.0000E+00  0.8000E+01
 -10.540  0.0000E+00  0.0000E+00  0.8000E+01
 -10.530  0.0000E+00  0.0000E+00  0.8000E+01
 -10.520  0.0000E+00  0.0000E+00  0.8000E+01
 -10.510  0.0000E+00  0.0000E+00  0.8000E+01
 -10.500  0.0000E+00  0.0000E+00  0.8000E+01
 -10.490  0.0000E+00  0.0000E+00  0.8000E+01
 -10.480  0.0000E+00  0.0000E+00  0.8000E+01
 -10.470  0.0000E+00  0.0000E+00  0.8000E+01
 -10.460  0.0000E+00  0.0000E+00  0.8000E+01
 -10.450  0.0000E+00  0.0000E+00  0.8000E+01
 -10.440  0.0000E+00  0.0000E+00  0.8000E+01
 -10.430  0.0000E+00  0.0000E+00  0.8000E+01
 -10.420  0.0000E+00  0.0000E+00  0.8000E+01
 -10.410  0.0000E+00  0.0000E+00  0.8000E+01
 -10.400  0.0000E+00  0.0000E+00  0.8000E+01
 -10.390  0.0000E+00  0.0000E+00  0.8000E+01
 -10.380  0.0000E+00  0.0000E+00  0.8000E+01
 -10.370  0.0000E+00  0.0000E+00  0.8000E+01
 -10.360  0.0000E+00  0.0000E+00  0.8000E+01
 -10.350  0.0000E+00  0.0000E+00  0.8000E+01
 -10.340  0.0000E+00  0.0000E+00  0.8000E+01
 -10.330  0.0000E+00  0.0000E+00  0.8000E+01
 -10.320  0.0000E+00  0.0000E+00  0.8000E+01
 -10.310  0.0000E+00  0.0000E+00  0.8000E+01
 -10.300  0.0000E+00  0.0000E+00  0.8000E+01
 -10.290  0.0000E+00  0.0000E+00  0.8000E+01
 -10.280  0.0000E+00  0.0000E+00  0.8000E+01
 -10.270  0.0000E+00  0.0000E+00  0.8000E+01
 -10.260  0.0000E+00  0.0000E+00  0.8000E+01
 -10.250  0.0000E+00  0.0000E+00  0.8000E+01
 -10.240  0.0000E+00  0.0000E+00  0.8000E+01
 -10.230  0.0000E+00  0.0000E+00  0.8000E+01
 -10.220  0.0000E+00  0.0000E+00  0.8000E+01
 -10.210  0.0000E+00  0.0000E+00  0.8000E+01
 -10.200  0.0000E+00  0.0000E+00  0.8000E+01
 -10.190  0.0000E+00  0.0000E+00  0.8000E+01
 -10.180  0.0000E+00  0.0000E+00  0.8000E+01
 -10.170  0.0000E+00  0.0000E+00  0.8000E+01
 -10.160  0.0000E+00  0.0000E+00  0.8000E+01
 -10.150  0.0000E+00  0.0000E+00  0.8000E+01
 -10.140  0.0000E+00  0.0000E+00  0.8000E+01
 -10.130  0.0000E+00  0.0000E+00  0.8000E+01
 -10.120  0.0000E+00  0.0000E+00  0.8000E+01
 -10.110  0.0000E+00  0.0000E+00  0.8000E+01
 -10.100  0.0000E+00  0.0000E+00  0.8000E+01
 -10.090  0.0000E+00  0.0000E+00  0.8000E+01
 -10.080  0.0000E+00  0.0000E+00  0.8000E+01
 -10.070  0.0000E+00  0.0000E+00  0.8000E+01
 -10.060  0.0000E+00  0.0000E+00  0.8000E+01
 -10.050  0.0000E+00  0.0000E+00  0.8000E+01
 -10.040  0.0000E+00  0.0000E+00  0.8000E+01
 -10.030  0.0000E+00  0.0000E+00  0.8000E+01
 -10.020  0.0000E+00  0.0000E+00  0.8000E+01
 -10.010  0.0000E+00  0.0000E+00  0.8000E+01
 -10.000  0.0000E+00  0.0000E+00  0.8000E+01
  -9.990  0.0000E+00  0.0000E+00  0.8000E+01
  -9.980  0.0000E+00  0.0000E+00  0.8000E+01
  -9.970  0.0000E+00  0.0000E+00  0.8000E+01
  -9.960  0.0000E+00  0.0000E+00  0.8000E+01
  -9.950  0.0000E+00  0.0000E+00  0.8000E+01
  -9.940  0.0000E+00  0.0000E+00  0.8000E+01
  -9.930  0.0000E+00  0.0000E+00  0.8000E+01
  -9.920  0.0000E+00  0.0000E+00  0.8000E+01
  -9.910  0.0000E+00  0.0000E+00  0.8000E+01
  -9.900  0.0000E+00  0.0000E+00  0.8000E+01
  -9.890  0.0000E+00  0.0000E+00  0.8000E+01
  -9.880  0.0000E+00  0.0000E+00  0.8000E+01
  -9.870  0.0000E+00  0.0000E+00  0.8000E+01
  -9.860  0.0000E+00  0.0000E+00  0.8000E+01
  -9.850  0.0000E+00  0.0000E+00  0.8000E+01
  -9.840  0.0000E+00  0.0000E+00  0.8000E+01
  -9.830  0.0000E+00  0.0000E+00  0.8000E+01
  -9.820  0.0000E+00  0.0000E+00  0.8000E+01
  -9.810  0.0000E+00  0.0000E+00  0.8000E+01
  -9.800  0.0000E+00  0.0000E+00  0.8000E+01
  -9.790  0.0000E+00  0.0000E+00  0.8000E+01
  -9.780  0.0000E+00  0.0000E+00  0.8000E+01
  -9.770  0.0000E+00  0.0000E+00  0.8000E+01
  -9.760  0.0000E+00  0.0000E+00  0.8000E+01
  -9.750  0.0000E+00  0.0000E+00  0.8000E+01
  -9.740  0.0000E+00  0.0000E+00  0.8000E+01
  -9.730  0.0000E+00  0.0000E+00  0.8000E+01
  -9.720  0.0000E+00  0.0000E+00  0.8000E+01
  -9.710  0.0000E+00  0.0000E+00  0.8000E+01
  -9.700  0.0000E+00  0.0000E+00  0.8000E+01
  -9.690  0.0000E+00  0.0000E+00  0.8000E+01
  -9.680  0.0000E+00  0.0000E+00  0.8000E+01
  -9.670  0.0000E+00  0.0000E+00  0.8000E+01
  -9.660  0.0000E+00  0.0000E+00  0.8000E+01
  -9.650  0.0000E+00  0.0000E+00  0.8000E+01
  -9.640  0.0000E+00  0.0000E+00  0.8000E+01
  -9.630  0.0000E+00  0.0000E+00  0.8000E+01
  -9.620  0.0000E+00  0.0000E+00  0.8000E+01
  -9.610  0.0000E+00  0.0000E+00  0.8000E+01
  -9.600  0.0000E+00  0.0000E+00  0.8000E+01
  -9.590  0.0000E+00  0.0000E+00  0.8000E+01
  -9.580  0.0000E+00  0.0000E+00  0.8000E+01
  -9.570  0.0000E+00  0.0000E+00  0.8000E+01
  -9.560  0.0000E+00  0.0000E+00  0.8000E+01
  -9.550  0.0000E+00  0.0000E+00  0.8000E+01
  -9.540  0.0000E+00  0.0000E+00  0.8000E+01
  -9.530  0.0000E+00  0.0000E+00  0.8000E+01
  -9.520  0.0000E+00  0.0000E+00  0.8000E+01
  -9.510  0.0000E+00  0.0000E+00  0.8000E+01
  -9.500  0.0000E+00  0.0000E+00  0.8000E+01
  -9.490  0.0000E+00  0.0000E+00  0.8000E+01
  -9.480  0.0000E+00  0.0000E+00  0.8000E+01
  -9.470  0.0000E+00  0.0000E+00  0.8000E+01
  -9.460  0.0000E+00  0.0000E+00  0.8000E+01
  -9.450  0.0000E+00  0.0000E+00  0.8000E+01
  -9.440  0.0000E+00  0.0000E+00  0.8000E+01
  -9.430  0.0000E+00  0.0000E+00  0.8000E+01
  -9.420  0.0000E+00  0.0000E+00  0.8000E+01
  -9.410  0.0000E+00  0.0000E+00  0.8000E+01
  -9.400  0.0000E+00  0.0000E+00  0.8000E+01
  -9.390  0.0000E+00  0.0000E+00  0.8000E+01
  -9.380  0.0000E+00  0.0000E+00  0.8000E+01
  -9.370  0.0000E+00  0.0000E+00  0.8000E+01
  -9.360  0.0000E+00  0.0000E+00  0.8000E+01
  -9.350  0.0000E+00  0.0000E+00  0.8000E+01
  -9.340  0.0000E+00  0.0000E+00  0.8000E+01
  -9.330  0.0000E+00  0.0000E+00  0.8000E+01
  -9.320  0.0000E+00  0.0000E+00  0.8000E+01
  -9.310  0.0000E+00  0.0000E+00  0.8000E+01
  -9.300  0.0000E+00  0.0000E+00  0.8000E+01
  -9.290  0.0000E+00  0.0000E+00  0.8000E+01
  -9.280  0.0000E+00  0.0000E+00  0.8000E+01
  -9.270  0.0000E+00  0.0000E+00  0.8000E+01
  -9.260  0.0000E+00  0.0000E+00  0.8000E+01
  -9.250  0.0000E+00  0.0000E+00  0.8000E+01
  -9.240  0.0000E+00  0.0000E+00  0.8000E+01
  -9.230  0.0000E+00  0.0000E+00  0.8000E+01
  -9.220  0.0000E+00  0.0000E+00  0.8000E+01
  -9.210  0.0000E+00  0.0000E+00  0.8000E+01
  -9.200  0.0000E+00  0.0000E+00  0.8000E+01
  -9.190  0.0000E+00  0.0000E+00  0.8000E+01
  -9.180  0.0000E+00  0.0000E+00  0.8000E+01
  -9.170  0.0000E+00  0.0000E+00  0.8000E+01
  -9.160  0.0000E+00  0.0000E+00  0.8000E+01
  -9.150  0.0000E+00  0.0000E+00  0.8000E+01
  -9.140  0.0000E+00  0.0000E+00  0.8000E+01
  -9.130  0.0000E+00  0.0000E+00  0.8000E+01
  -9.120  0.0000E+00  0.0000E+00  0.8000E+01
  -9.110  0.0000E+00  0.0000E+00  0.8000E+01
  -9.100  0.0000E+00  0.0000E+00  0.8000E+01
  -9.090  0.0000E+00  0.0000E+00  0.8000E+01
  -9.080  0.0000E+00  0.0000E+00  0.8000E+01
  -9.070  0.0000E+00  0.0000E+00  0.8000E+01
  -9.060  0.0000E+00  0.0000E+00  0.8000E+01
  -9.050  0.0000E+00  0.0000E+00  0.8000E+01
  -9.040  0.0000E+00  0.0000E+00  0.8000E+01
  -9.030  0.0000E+00  0.0000E+00  0.8000E+01
  -9.020  0.0000E+00  0.0000E+00  0.8000E+01
  -9.010  0.0000E+00  0.0000E+00  0.8000E+01
  -9.000  0.0000E+00  0.0000E+00  0.8000E+01
  -8.990  0.0000E+00  0.0000E+00  0.8000E+01
  -8.980  0.0000E+00  0.0000E+00  0.8000E+01
  -8.970  0.0000E+00  0.0000E+00  0.8000E+01
  -8.960  0.0000E+00  0.0000E+00  0.8000E+01
  -8.950  0.0000E+00  0.0000E+00  0.8000E+01
  -8.940  0.0000E+00  0.0000E+00  0.8000E+01
  -8.930  0.0000E+00  0.0000E+00  0.8000E+01
  -8.920  0.0000E+00  0.0000E+00  0.8000E+01
  -8.910  0.0000E+00  0.0000E+00  0.8000E+01
  -8.900  0.0000E+00  0.0000E+00  0.8000E+01
  -8.890  0.0000E+00  0.0000E+00  0.8000E+01
  -8.880  0.0000E+00  0.0000E+00  0.8000E+01
  -8.870  0.0000E+00  0.0000E+00  0.8000E+01
  -8.860  0.0000E+00  0.0000E+00  0.8000E+01
  -8.850  0.0000E+00  0.0000E+00  0.8000E+01
  -8.840  0.0000E+00  0.0000E+00  0.8000E+01
  -8.830  0.0000E+00  0.0000E+00  0.8000E+01
  -8.820  0.0000E+00  0.0000E+00  0.8000E+01
  -8.810  0.0000E+00  0.0000E+00  0.8000E+01
  -8.800  0.0000E+00  0.0000E+00  0.8000E+01
  -8.790  0.0000E+00  0.0000E+00  0.8000E+01
  -8.780  0.0000E+00  0.0000E+00  0.8000E+01
  -8.770  0.0000E+00  0.0000E+00  0.8000E+01
  -8.760  0.0000E+00  0.0000E+00  0.8000E+01
  -8.750  0.0000E+00  0.0000E+00  0.8000E+01
  -8.740  0.0000E+00  0.0000E+00  0.8000E+01
  -8.730  0.0000E+00  0.0000E+00  0.8000E+01
  -8.720  0.0000E+00  0.0000E+00  0.8000E+01
  -8.710  0.0000E+00  0.0000E+00  0.8000E+01
  -8.700  0.0000E+00  0.0000E+00  0.8000E+01
  -8.690  0.0000E+00  0.0000E+00  0.8000E+01
  -8.680  0.0000E+00  0.0000E+00  0.8000E+01
  -8.670  0.0000E+00  0.0000E+00  0.8000E+01
  -8.660  0.0000E+00  0.0000E+00  0.8000E+01
  -8.650  0.0000E+00  0.0000E+00  0.8000E+01
  -8.640  0.0000E+00  0.0000E+00  0.8000E+01
  -8.630  0.0000E+00  0.0000E+00  0.8000E+01
  -8.620  0.0000E+00  0.0000E+00  0.8000E+01
  -8.610  0.0000E+00  0.0000E+00  0.8000E+01
  -8.600  0.0000E+00  0.0000E+00  0.8000E+01
  -8.590  0.0000E+00  0.0000E+00  0.8000E+01
  -8.580  0.0000E+00  0.0000E+00  0.8000E+01
  -8.570  0.0000E+00  0.0000E+00  0.8000E+01
  -8.560  0.0000E+00  0.0000E+00  0.8000E+01
  -8.550  0.0000E+00  0.0000E+00  0.8000E+01
  -8.540  0.0000E+00  0.0000E+00  0.8000E+01
  -8.530  0.0000E+00  0.0000E+00  0.8000E+01
  -8.520  0.0000E+00  0.0000E+00  0.8000E+01
  -8.510  0.0000E+00  0.0000E+00  0.8000E+01
  -8.500  0.0000E+00  0.0000E+00  0.8000E+01
  -8.490  0.0000E+00  0.0000E+00  0.8000E+01
  -8.480  0.0000E+00  0.0000E+00  0.8000E+01
  -8.470  0.0000E+00  0.0000E+00  0.8000E+01
  -8.460  0.0000E+00  0.0000E+00  0.8000E+01
  -8.450  0.0000E+00  0.0000E+00  0.8000E+01
  -8.440  0.0000E+00  0.0000E+00  0.8000E+01
  -8.430  0.0000E+00  0.0000E+00  0.8000E+01
  -8.420  0.0000E+00  0.0000E+00  0.8000E+01
  -8.410  0.0000E+00  0.0000E+00  0.8000E+01
  -8.400  0.0000E+00  0.0000E+00  0.8000E+01
  -8.390  0.0000E+00  0.0000E+00  0.8000E+01
  -8.380  0.0000E+00  0.0000E+00  0.8000E+01
  -8.370  0.0000E+00  0.0000E+00  0.8000E+01
  -8.360  0.0000E+00  0.0000E+00  0.8000E+01
  -8.350  0.0000E+00  0.0000E+00  0.8000E+01
  -8.340  0.0000E+00  0.0000E+00  0.8000E+01
  -8.330  0.0000E+00  0.0000E+00  0.8000E+01
  -8.320  0.0000E+00  0.0000E+00  0.8000E+01
  -8.310  0.0000E+00  0.0000E+00  0.8000E+01
  -8.300  0.0000E+00  0.0000E+00  0.8000E+01
  -8.290  0.0000E+00  0.0000E+00  0.8000E+01
  -8.280  0.0000E+00  0.0000E+00  0.8000E+01
  -8.270  0.0000E+00  0.0000E+00  0.8000E+01
  -8.260  0.0000E+00  0.0000E+00  0.8000E+01
  -8.250  0.0000E+00  0.0000E+00  0.8000E+01
  -8.240  0.0000E+00  0.0000E+00  0.8000E+01
  -8.230  0.0000E+00  0.0000E+00  0.8000E+01
  -8.220  0.0000E+00  0.0000E+00  0.8000E+01
  -8.210  0.0000E+00  0.0000E+00  0.8000E+01
  -8.200  0.0000E+00  0.0000E+00  0.8000E+01
  -8.190  0.0000E+00  0.0000E+00  0.8000E+01
  -8.180  0.0000E+00  0.0000E+00  0.8000E+01
  -8.170  0.0000E+00  0.0000E+00  0.8000E+01
  -8.160  0.0000E+00  0.0000E+00  0.8000E+01
  -8.150  0.0000E+00  0.0000E+00  0.8000E+01
  -8.140  0.0000E+00  0.0000E+00  0.8000E+01
  -8.130  0.0000E+00  0.0000E+00  0.8000E+01
  -8.120  0.0000E+00  0.0000E+00  0.8000E+01
  -8.110  0.0000E+00  0.0000E+00  0.8000E+01
  -8.100  0.0000E+00  0.0000E+00  0.8000E+01
  -8.090  0.0000E+00  0.0000E+00  0.8000E+01
  -8.080  0.0000E+00  0.0000E+00  0.8000E+01
  -8.070  0.0000E+00  0.0000E+00  0.8000E+01
  -8.060  0.0000E+00  0.0000E+00  0.8000E+01
  -8.050  0.0000E+00  0.0000E+00  0.8000E+01
  -8.040  0.0000E+00  0.0000E+00  0.8000E+01
  -8.030  0.0000E+00  0.0000E+00  0.8000E+01
  -8.020  0.0000E+00  0.0000E+00  0.8000E+01
  -8.010  0.0000E+00  0.0000E+00  0.8000E+01
  -8.000  0.0000E+00  0.0000E+00  0.8000E+01
  -7.990  0.0000E+00  0.0000E+00  0.8000E+01
  -7.980  0.0000E+00  0.0000E+00  0.8000E+01
  -7.970  0.0000E+00  0.0000E+00  0.8000E+01
  -7.960  0.0000E+00  0.0000E+00  0.8000E+01
  -7.950  0.0000E+00  0.0000E+00  0.8000E+01
  -7.940  0.0000E+00  0.0000E+00  0.8000E+01
  -7.930  0.0000E+00  0.0000E+00  0.8000E+01
  -7.920  0.0000E+00  0.0000E+00  0.8000E+01
  -7.910  0.0000E+00  0.0000E+00  0.8000E+01
  -7.900  0.0000E+00  0.0000E+00  0.8000E+01
  -7.890  0.0000E+00  0.0000E+00  0.8000E+01
  -7.880  0.0000E+00  0.0000E+00  0.8000E+01
  -7.870  0.0000E+00  0.0000E+00  0.8000E+01
  -7.860  0.0000E+00  0.0000E+00  0.8000E+01
  -7.850  0.0000E+00  0.0000E+00  0.8000E+01
  -7.840  0.0000E+00  0.0000E+00  0.8000E+01
  -7.830  0.0000E+00  0.0000E+00  0.8000E+01
  -7.820  0.0000E+00  0.0000E+00  0.8000E+01
  -7.810  0.0000E+00  0.0000E+00  0.8000E+01
  -7.800  0.0000E+00  0.0000E+00  0.8000E+01
  -7.790  0.0000E+00  0.0000E+00  0.8000E+01
  -7.780  0.0000E+00  0.0000E+00  0.8000E+01
  -7.770  0.0000E+00  0.0000E+00  0.8000E+01
  -7.760  0.0000E+00  0.0000E+00  0.8000E+01
  -7.750  0.0000E+00  0.0000E+00  0.8000E+01
  -7.740  0.0000E+00  0.0000E+00  0.8000E+01
  -7.730  0.0000E+00  0.0000E+00  0.8000E+01
  -7.720  0.0000E+00  0.0000E+00  0.8000E+01
  -7.710  0.0000E+00  0.0000E+00  0.8000E+01
  -7.700  0.0000E+00  0.0000E+00  0.8000E+01
  -7.690  0.0000E+00  0.0000E+00  0.8000E+01
  -7.680  0.0000E+00  0.0000E+00  0.8000E+01
  -7.670  0.0000E+00  0.0000E+00  0.8000E+01
  -7.660  0.0000E+00  0.0000E+00  0.8000E+01
  -7.650  0.0000E+00  0.0000E+00  0.8000E+01
  -7.640  0.0000E+00  0.0000E+00  0.8000E+01
  -7.630  0.0000E+00  0.0000E+00  0.8000E+01
  -7.620  0.0000E+00  0.0000E+00  0.8000E+01
  -7.610  0.0000E+00  0.0000E+00  0.8000E+01
  -7.600  0.0000E+00  0.0000E+00  0.8000E+01
  -7.590  0.0000E+00  0.0000E+00  0.8000E+01
  -7.580  0.0000E+00  0.0000E+00  0.8000E+01
  -7.570  0.0000E+00  0.0000E+00  0.8000E+01
  -7.560  0.0000E+00  0.0000E+00  0.8000E+01
  -7.550  0.0000E+00  0.0000E+00  0.8000E+01
  -7.540  0.0000E+00  0.0000E+00  0.8000E+01
  -7.530  0.0000E+00  0.0000E+00  0.8000E+01
  -7.520  0.0000E+00  0.0000E+00  0.8000E+01
  -7.510  0.0000E+00  0.0000E+00  0.8000E+01
  -7.500  0.0000E+00  0.0000E+00  0.8000E+01
  -7.490  0.0000E+00  0.0000E+00  0.8000E+01
  -7.480  0.0000E+00  0.0000E+00  0.8000E+01
  -7.470  0.4630E-03  0.0000E+00  0.8000E+01
  -7.460  0.3599E-01  0.0000E+00  0.8000E+01
  -7.450  0.3082E+00  0.8896E-02  0.8002E+01
  -7.440  0.8949E+00  0.1052E+00  0.8008E+01
  -7.430  0.1716E+01  0.4985E+00  0.8024E+01
  -7.420  0.2359E+01  0.1211E+01  0.8052E+01
  -7.410  0.2726E+01  0.1990E+01  0.8094E+01
  -7.400  0.2903E+01  0.2484E+01  0.8145E+01
  -7.390  0.2996E+01  0.2713E+01  0.8201E+01
  -7.380  0.3153E+01  0.2741E+01  0.8259E+01
  -7.370  0.3299E+01  0.2762E+01  0.8319E+01
  -7.360  0.3587E+01  0.2842E+01  0.8381E+01
  -7.350  0.4086E+01  0.2936E+01  0.8448E+01
  -7.340  0.4623E+01  0.3155E+01  0.8522E+01
  -7.330  0.5280E+01  0.3541E+01  0.8604E+01
  -7.320  0.5917E+01  0.3939E+01  0.8698E+01
  -7.310  0.6099E+01  0.4376E+01  0.8800E+01
  -7.300  0.5809E+01  0.4967E+01  0.8907E+01
  -7.290  0.5297E+01  0.5470E+01  0.9014E+01
  -7.280  0.5092E+01  0.5706E+01  0.9122E+01
  -7.270  0.5376E+01  0.5701E+01  0.9231E+01
  -7.260  0.6241E+01  0.5738E+01  0.9346E+01
  -7.250  0.7068E+01  0.6187E+01  0.9472E+01
  -7.240  0.8051E+01  0.7015E+01  0.9613E+01
  -7.230  0.8750E+01  0.8061E+01  0.9773E+01
  -7.220  0.8598E+01  0.8274E+01  0.9942E+01
  -7.210  0.8237E+01  0.8354E+01  0.1011E+02
  -7.200  0.7804E+01  0.8383E+01  0.1027E+02
  -7.190  0.7526E+01  0.8320E+01  0.1043E+02
  -7.180  0.7412E+01  0.8177E+01  0.1059E+02
  -7.170  0.7431E+01  0.7956E+01  0.1075E+02
  -7.160  0.7487E+01  0.7714E+01  0.1090E+02
  -7.150  0.7485E+01  0.7510E+01  0.1105E+02
  -7.140  0.7751E+01  0.7481E+01  0.1120E+02
  -7.130  0.8142E+01  0.7762E+01  0.1136E+02
  -7.120  0.9064E+01  0.8282E+01  0.1152E+02
  -7.110  0.1147E+02  0.8785E+01  0.1171E+02
  -7.100  0.1241E+02  0.9457E+01  0.1192E+02
  -7.090  0.1192E+02  0.1147E+02  0.1215E+02
  -7.080  0.1168E+02  0.1250E+02  0.1238E+02
  -7.070  0.1270E+02  0.1234E+02  0.1263E+02
  -7.060  0.1304E+02  0.1166E+02  0.1288E+02
  -7.050  0.1320E+02  0.1091E+02  0.1313E+02
  -7.040  0.1323E+02  0.1096E+02  0.1337E+02
  -7.030  0.1238E+02  0.1115E+02  0.1361E+02
  -7.020  0.1063E+02  0.1150E+02  0.1384E+02
  -7.010  0.9092E+01  0.1196E+02  0.1405E+02
  -7.000  0.8483E+01  0.1189E+02  0.1426E+02
  -6.990  0.9092E+01  0.1194E+02  0.1446E+02
  -6.980  0.9791E+01  0.9846E+01  0.1467E+02
  -6.970  0.1430E+02  0.1065E+02  0.1489E+02
  -6.960  0.1207E+02  0.1123E+02  0.1513E+02
  -6.950  0.1281E+02  0.1213E+02  0.1537E+02
  -6.940  0.1353E+02  0.1273E+02  0.1563E+02
  -6.930  0.1423E+02  0.1299E+02  0.1590E+02
  -6.920  0.1545E+02  0.1291E+02  0.1618E+02
  -6.910  0.1777E+02  0.1292E+02  0.1647E+02
  -6.900  0.1977E+02  0.1354E+02  0.1679E+02
  -6.890  0.2308E+02  0.1552E+02  0.1715E+02
  -6.880  0.2096E+02  0.1901E+02  0.1753E+02
  -6.870  0.2462E+02  0.2255E+02  0.1797E+02
  -6.860  0.2678E+02  0.2515E+02  0.1846E+02
  -6.850  0.2416E+02  0.2384E+02  0.1897E+02
  -6.840  0.2063E+02  0.2362E+02  0.1943E+02
  -6.830  0.1758E+02  0.2264E+02  0.1986E+02
  -6.820  0.1578E+02  0.2145E+02  0.2025E+02
  -6.810  0.1462E+02  0.1993E+02  0.2060E+02
  -6.800  0.1384E+02  0.1828E+02  0.2094E+02
  -6.790  0.1835E+02  0.1626E+02  0.2127E+02
  -6.780  0.2476E+02  0.1981E+02  0.2166E+02
  -6.770  0.2334E+02  0.2161E+02  0.2212E+02
  -6.760  0.1929E+02  0.1958E+02  0.2255E+02
  -6.750  0.1613E+02  0.1730E+02  0.2291E+02
  -6.740  0.1391E+02  0.1552E+02  0.2322E+02
  -6.730  0.1914E+02  0.1424E+02  0.2351E+02
  -6.720  0.1876E+02  0.1354E+02  0.2381E+02
  -6.710  0.1959E+02  0.1360E+02  0.2413E+02
  -6.700  0.2649E+02  0.2189E+02  0.2451E+02
  -6.690  0.4473E+02  0.2860E+02  0.2512E+02
  -6.680  0.4157E+02  0.2280E+02  0.2587E+02
  -6.670  0.3592E+02  0.2588E+02  0.2649E+02
  -6.660  0.3392E+02  0.3364E+02  0.2714E+02
  -6.650  0.3309E+02  0.3981E+02  0.2784E+02
  -6.640  0.2831E+02  0.3724E+02  0.2854E+02
  -6.630  0.2716E+02  0.3249E+02  0.2916E+02
  -6.620  0.3635E+02  0.2991E+02  0.2977E+02
  -6.610  0.5135E+02  0.3546E+02  0.3053E+02
  -6.600  0.4919E+02  0.4481E+02  0.3146E+02
  -6.590  0.3774E+02  0.4774E+02  0.3238E+02
  -6.580  0.3444E+02  0.4679E+02  0.3323E+02
  -6.570  0.3113E+02  0.3953E+02  0.3397E+02
  -6.560  0.4888E+02  0.3955E+02  0.3473E+02
  -6.550  0.4623E+02  0.4406E+02  0.3561E+02
  -6.540  0.4726E+02  0.4499E+02  0.3653E+02
  -6.530  0.4402E+02  0.4537E+02  0.3743E+02
  -6.520  0.4267E+02  0.4952E+02  0.3834E+02
  -6.510  0.4378E+02  0.5423E+02  0.3929E+02
  -6.500  0.4323E+02  0.4862E+02  0.4024E+02
  -6.490  0.4596E+02  0.4615E+02  0.4116E+02
  -6.480  0.4661E+02  0.4869E+02  0.4209E+02
  -6.470  0.5048E+02  0.5303E+02  0.4309E+02
  -6.460  0.5549E+02  0.6715E+02  0.4425E+02
  -6.450  0.5700E+02  0.6185E+02  0.4550E+02
  -6.440  0.5478E+02  0.6536E+02  0.4674E+02
  -6.430  0.5234E+02  0.5565E+02  0.4786E+02
  -6.420  0.5346E+02  0.5332E+02  0.4894E+02
  -6.410  0.6542E+02  0.4974E+02  0.5001E+02
  -6.400  0.7039E+02  0.7891E+02  0.5150E+02
  -6.390  0.6690E+02  0.7079E+02  0.5301E+02
  -6.380  0.6289E+02  0.6066E+02  0.5439E+02
  -6.370  0.3497E+02  0.5381E+02  0.5537E+02
  -6.360  0.4172E+02  0.4415E+02  0.5623E+02
  -6.350  0.4949E+02  0.4090E+02  0.5709E+02
  -6.340  0.6084E+02  0.5423E+02  0.5813E+02
  -6.330  0.5871E+02  0.5345E+02  0.5928E+02
  -6.320  0.5847E+02  0.5461E+02  0.6042E+02
  -6.310  0.7736E+02  0.8426E+02  0.6173E+02
  -6.300  0.8007E+02  0.9501E+02  0.6342E+02
  -6.290  0.7940E+02  0.9566E+02  0.6528E+02
  -6.280  0.7631E+02  0.8512E+02  0.6691E+02
  -6.270  0.7514E+02  0.8216E+02  0.6854E+02
  -6.260  0.5513E+02  0.6059E+02  0.6990E+02
  -6.250  0.4029E+02  0.4255E+02  0.7089E+02
  -6.240  0.3438E+02  0.4318E+02  0.7159E+02
  -6.230  0.4735E+00  0.2098E-02  0.7200E+02
  -6.220  0.0000E+00  0.0000E+00  0.7200E+02
  -6.210  0.0000E+00  0.0000E+00  0.7200E+02
  -6.200  0.0000E+00  0.0000E+00  0.7200E+02
  -6.190  0.0000E+00  0.0000E+00  0.7200E+02
  -6.180  0.0000E+00  0.0000E+00  0.7200E+02
  -6.170  0.0000E+00  0.0000E+00  0.7200E+02
  -6.160  0.0000E+00  0.0000E+00  0.7200E+02
  -6.150  0.0000E+00  0.0000E+00  0.7200E+02
  -6.140  0.0000E+00  0.0000E+00  0.7200E+02
  -6.130  0.0000E+00  0.0000E+00  0.7200E+02
  -6.120  0.0000E+00  0.0000E+00  0.7200E+02
  -6.110  0.0000E+00  0.0000E+00  0.7200E+02
  -6.100  0.0000E+00  0.0000E+00  0.7200E+02
  -6.090  0.0000E+00  0.0000E+00  0.7200E+02
  -6.080  0.0000E+00  0.0000E+00  0.7200E+02
  -6.070  0.0000E+00  0.0000E+00  0.7200E+02
  -6.060  0.0000E+00  0.0000E+00  0.7200E+02
  -6.050  0.0000E+00  0.0000E+00  0.7200E+02
  -6.040  0.0000E+00  0.0000E+00  0.7200E+02
  -6.030  0.0000E+00  0.0000E+00  0.7200E+02
  -6.020  0.0000E+00  0.0000E+00  0.7200E+02
  -6.010  0.0000E+00  0.0000E+00  0.7200E+02
  -6.000  0.0000E+00  0.0000E+00  0.7200E+02
  -5.990  0.0000E+00  0.0000E+00  0.7200E+02
  -5.980  0.0000E+00  0.0000E+00  0.7200E+02
  -5.970  0.0000E+00  0.0000E+00  0.7200E+02
  -5.960  0.0000E+00  0.0000E+00  0.7200E+02
  -5.950  0.0000E+00  0.0000E+00  0.7200E+02
  -5.940  0.0000E+00  0.0000E+00  0.7200E+02
  -5.930  0.0000E+00  0.0000E+00  0.7200E+02
  -5.920  0.0000E+00  0.0000E+00  0.7200E+02
  -5.910  0.0000E+00  0.0000E+00  0.7200E+02
  -5.900  0.0000E+00  0.0000E+00  0.7200E+02
  -5.890  0.0000E+00  0.0000E+00  0.7200E+02
  -5.880  0.0000E+00  0.0000E+00  0.7200E+02
  -5.870  0.0000E+00  0.0000E+00  0.7200E+02
  -5.860  0.0000E+00  0.0000E+00  0.7200E+02
  -5.850  0.0000E+00  0.0000E+00  0.7200E+02
  -5.840  0.0000E+00  0.0000E+00  0.7200E+02
  -5.830  0.0000E+00  0.0000E+00  0.7200E+02
  -5.820  0.0000E+00  0.0000E+00  0.7200E+02
  -5.810  0.0000E+00  0.0000E+00  0.7200E+02
  -5.800  0.0000E+00  0.0000E+00  0.7200E+02
  -5.790  0.0000E+00  0.0000E+00  0.7200E+02
  -5.780  0.0000E+00  0.0000E+00  0.7200E+02
  -5.770  0.0000E+00  0.0000E+00  0.7200E+02
  -5.760  0.0000E+00  0.0000E+00  0.7200E+02
  -5.750  0.0000E+00  0.0000E+00  0.7200E+02
  -5.740  0.0000E+00  0.0000E+00  0.7200E+02
  -5.730  0.0000E+00  0.0000E+00  0.7200E+02
  -5.720  0.0000E+00  0.0000E+00  0.7200E+02
  -5.710  0.0000E+00  0.0000E+00  0.7200E+02
  -5.700  0.0000E+00  0.0000E+00  0.7200E+02
  -5.690  0.0000E+00  0.0000E+00  0.7200E+02
  -5.680  0.0000E+00  0.0000E+00  0.7200E+02
  -5.670  0.0000E+00  0.0000E+00  0.7200E+02
  -5.660  0.0000E+00  0.0000E+00  0.7200E+02
  -5.650  0.0000E+00  0.0000E+00  0.7200E+02
  -5.640  0.0000E+00  0.0000E+00  0.7200E+02
  -5.630  0.0000E+00  0.0000E+00  0.7200E+02
  -5.620  0.0000E+00  0.0000E+00  0.7200E+02
  -5.610  0.0000E+00  0.0000E+00  0.7200E+02
  -5.600  0.0000E+00  0.0000E+00  0.7200E+02
  -5.590  0.0000E+00  0.0000E+00  0.7200E+02
  -5.580  0.0000E+00  0.0000E+00  0.7200E+02
  -5.570  0.0000E+00  0.0000E+00  0.7200E+02
  -5.560  0.0000E+00  0.0000E+00  0.7200E+02
  -5.550  0.0000E+00  0.0000E+00  0.7200E+02
  -5.540  0.0000E+00  0.0000E+00  0.7200E+02
  -5.530  0.0000E+00  0.0000E+00  0.7200E+02
  -5.520  0.0000E+00  0.0000E+00  0.7200E+02
  -5.510  0.0000E+00  0.0000E+00  0.7200E+02
  -5.500  0.0000E+00  0.0000E+00  0.7200E+02
  -5.490  0.0000E+00  0.0000E+00  0.7200E+02
  -5.480  0.0000E+00  0.0000E+00  0.7200E+02
  -5.470  0.0000E+00  0.0000E+00  0.7200E+02
  -5.460  0.0000E+00  0.0000E+00  0.7200E+02
  -5.450  0.0000E+00  0.0000E+00  0.7200E+02
  -5.440  0.0000E+00  0.0000E+00  0.7200E+02
  -5.430  0.0000E+00  0.0000E+00  0.7200E+02
  -5.420  0.0000E+00  0.0000E+00  0.7200E+02
  -5.410  0.0000E+00  0.0000E+00  0.7200E+02
  -5.400  0.0000E+00  0.0000E+00  0.7200E+02
  -5.390  0.0000E+00  0.0000E+00  0.7200E+02
  -5.380  0.0000E+00  0.0000E+00  0.7200E+02
  -5.370  0.0000E+00  0.0000E+00  0.7200E+02
  -5.360  0.0000E+00  0.0000E+00  0.7200E+02
  -5.350  0.0000E+00  0.0000E+00  0.7200E+02
  -5.340  0.0000E+00  0.0000E+00  0.7200E+02
  -5.330  0.0000E+00  0.0000E+00  0.7200E+02
  -5.320  0.0000E+00  0.0000E+00  0.7200E+02
  -5.310  0.0000E+00  0.0000E+00  0.7200E+02
  -5.300  0.0000E+00  0.0000E+00  0.7200E+02
  -5.290  0.0000E+00  0.0000E+00  0.7200E+02
  -5.280  0.0000E+00  0.0000E+00  0.7200E+02
  -5.270  0.0000E+00  0.0000E+00  0.7200E+02
  -5.260  0.0000E+00  0.0000E+00  0.7200E+02
  -5.250  0.0000E+00  0.0000E+00  0.7200E+02
  -5.240  0.0000E+00  0.0000E+00  0.7200E+02
  -5.230  0.0000E+00  0.0000E+00  0.7200E+02
  -5.220  0.0000E+00  0.0000E+00  0.7200E+02
  -5.210  0.0000E+00  0.0000E+00  0.7200E+02
  -5.200  0.0000E+00  0.0000E+00  0.7200E+02
  -5.190  0.0000E+00  0.0000E+00  0.7200E+02
  -5.180  0.0000E+00  0.0000E+00  0.7200E+02
  -5.170  0.0000E+00  0.0000E+00  0.7200E+02
  -5.160  0.0000E+00  0.0000E+00  0.7200E+02
  -5.150  0.0000E+00  0.0000E+00  0.7200E+02
  -5.140  0.0000E+00  0.0000E+00  0.7200E+02
  -5.130  0.0000E+00  0.0000E+00  0.7200E+02
  -5.120  0.0000E+00  0.0000E+00  0.7200E+02
  -5.110  0.0000E+00  0.0000E+00  0.7200E+02
  -5.100  0.0000E+00  0.0000E+00  0.7200E+02
  -5.090  0.0000E+00  0.0000E+00  0.7200E+02
  -5.080  0.0000E+00  0.0000E+00  0.7200E+02
  -5.070  0.0000E+00  0.0000E+00  0.7200E+02
  -5.060  0.0000E+00  0.0000E+00  0.7200E+02
  -5.050  0.0000E+00  0.0000E+00  0.7200E+02
  -5.040  0.0000E+00  0.0000E+00  0.7200E+02
  -5.030  0.0000E+00  0.0000E+00  0.7200E+02
  -5.020  0.0000E+00  0.0000E+00  0.7200E+02
  -5.010  0.0000E+00  0.0000E+00  0.7200E+02
  -5.000  0.0000E+00  0.0000E+00  0.7200E+02
  -4.990  0.0000E+00  0.0000E+00  0.7200E+02
  -4.980  0.0000E+00  0.0000E+00  0.7200E+02
  -4.970  0.0000E+00  0.0000E+00  0.7200E+02
  -4.960  0.0000E+00  0.0000E+00  0.7200E+02
  -4.950  0.0000E+00  0.0000E+00  0.7200E+02
  -4.940  0.0000E+00  0.0000E+00  0.7200E+02
  -4.930  0.0000E+00  0.0000E+00  0.7200E+02
  -4.920  0.0000E+00  0.0000E+00  0.7200E+02
  -4.910  0.0000E+00  0.0000E+00  0.7200E+02
  -4.900  0.0000E+00  0.0000E+00  0.7200E+02
  -4.890  0.0000E+00  0.0000E+00  0.7200E+02
  -4.880  0.0000E+00  0.0000E+00  0.7200E+02
  -4.870  0.0000E+00  0.0000E+00  0.7200E+02
  -4.860  0.0000E+00  0.0000E+00  0.7200E+02
  -4.850  0.0000E+00  0.0000E+00  0.7200E+02
  -4.840  0.0000E+00  0.0000E+00  0.7200E+02
  -4.830  0.0000E+00  0.0000E+00  0.7200E+02
  -4.820  0.0000E+00  0.0000E+00  0.7200E+02
  -4.810  0.0000E+00  0.0000E+00  0.7200E+02
  -4.800  0.0000E+00  0.0000E+00  0.7200E+02
  -4.790  0.0000E+00  0.0000E+00  0.7200E+02
  -4.780  0.0000E+00  0.0000E+00  0.7200E+02
  -4.770  0.0000E+00  0.0000E+00  0.7200E+02
  -4.760  0.0000E+00  0.0000E+00  0.7200E+02
  -4.750  0.0000E+00  0.0000E+00  0.7200E+02
  -4.740  0.0000E+00  0.0000E+00  0.7200E+02
  -4.730  0.0000E+00  0.0000E+00  0.7200E+02
  -4.720  0.0000E+00  0.0000E+00  0.7200E+02
  -4.710  0.0000E+00  0.0000E+00  0.7200E+02
  -4.700  0.0000E+00  0.0000E+00  0.7200E+02
  -4.690  0.0000E+00  0.0000E+00  0.7200E+02
  -4.680  0.0000E+00  0.0000E+00  0.7200E+02
  -4.670  0.0000E+00  0.0000E+00  0.7200E+02
  -4.660  0.0000E+00  0.0000E+00  0.7200E+02
  -4.650  0.0000E+00  0.0000E+00  0.7200E+02
  -4.640  0.0000E+00  0.0000E+00  0.7200E+02
  -4.630  0.0000E+00  0.0000E+00  0.7200E+02
  -4.620  0.0000E+00  0.0000E+00  0.7200E+02
  -4.610  0.0000E+00  0.0000E+00  0.7200E+02
  -4.600  0.0000E+00  0.0000E+00  0.7200E+02
  -4.590  0.0000E+00  0.0000E+00  0.7200E+02
  -4.580  0.0000E+00  0.0000E+00  0.7200E+02
  -4.570  0.0000E+00  0.0000E+00  0.7200E+02
  -4.560  0.0000E+00  0.0000E+00  0.7200E+02
  -4.550  0.0000E+00  0.0000E+00  0.7200E+02
  -4.540  0.0000E+00  0.0000E+00  0.7200E+02
  -4.530  0.0000E+00  0.0000E+00  0.7200E+02
  -4.520  0.0000E+00  0.0000E+00  0.7200E+02
  -4.510  0.0000E+00  0.0000E+00  0.7200E+02
  -4.500  0.0000E+00  0.0000E+00  0.7200E+02
  -4.490  0.0000E+00  0.0000E+00  0.7200E+02
  -4.480  0.0000E+00  0.0000E+00  0.7200E+02
  -4.470  0.0000E+00  0.0000E+00  0.7200E+02
  -4.460  0.0000E+00  0.0000E+00  0.7200E+02
  -4.450  0.0000E+00  0.0000E+00  0.7200E+02
  -4.440  0.0000E+00  0.0000E+00  0.7200E+02
  -4.430  0.0000E+00  0.0000E+00  0.7200E+02
  -4.420  0.0000E+00  0.0000E+00  0.7200E+02
  -4.410  0.0000E+00  0.0000E+00  0.7200E+02
  -4.400  0.0000E+00  0.0000E+00  0.7200E+02
  -4.390  0.0000E+00  0.0000E+00  0.7200E+02
  -4.380  0.0000E+00  0.0000E+00  0.7200E+02
  -4.370  0.0000E+00  0.0000E+00  0.7200E+02
  -4.360  0.0000E+00  0.0000E+00  0.7200E+02
  -4.350  0.0000E+00  0.0000E+00  0.7200E+02
  -4.340  0.0000E+00  0.0000E+00  0.7200E+02
  -4.330  0.0000E+00  0.0000E+00  0.7200E+02
  -4.320  0.0000E+00  0.0000E+00  0.7200E+02
  -4.310  0.0000E+00  0.0000E+00  0.7200E+02
  -4.300  0.0000E+00  0.0000E+00  0.7200E+02
  -4.290  0.0000E+00  0.0000E+00  0.7200E+02
  -4.280  0.0000E+00  0.0000E+00  0.7200E+02
  -4.270  0.0000E+00  0.0000E+00  0.7200E+02
  -4.260  0.0000E+00  0.0000E+00  0.7200E+02
  -4.250  0.0000E+00  0.0000E+00  0.7200E+02
  -4.240  0.0000E+00  0.0000E+00  0.7200E+02
  -4.230  0.0000E+00  0.0000E+00  0.7200E+02
  -4.220  0.0000E+00  0.0000E+00  0.7200E+02
  -4.210  0.0000E+00  0.0000E+00  0.7200E+02
  -4.200  0.0000E+00  0.0000E+00  0.7200E+02
  -4.190  0.0000E+00  0.0000E+00  0.7200E+02
  -4.180  0.0000E+00  0.0000E+00  0.7200E+02
  -4.170  0.0000E+00  0.0000E+00  0.7200E+02
  -4.160  0.0000E+00  0.0000E+00  0.7200E+02
  -4.150  0.0000E+00  0.0000E+00  0.7200E+02
  -4.140  0.0000E+00  0.0000E+00  0.7200E+02
  -4.130  0.0000E+00  0.0000E+00  0.7200E+02
  -4.120  0.0000E+00  0.0000E+00  0.7200E+02
  -4.110  0.0000E+00  0.0000E+00  0.7200E+02
  -4.100  0.0000E+00  0.0000E+00  0.7200E+02
  -4.090  0.0000E+00  0.0000E+00  0.7200E+02
  -4.080  0.0000E+00  0.0000E+00  0.7200E+02
  -4.070  0.0000E+00  0.0000E+00  0.7200E+02
  -4.060  0.0000E+00  0.0000E+00  0.7200E+02
  -4.050  0.0000E+00  0.0000E+00  0.7200E+02
  -4.040  0.0000E+00  0.0000E+00  0.7200E+02
  -4.030  0.0000E+00  0.0000E+00  0.7200E+02
  -4.020  0.0000E+00  0.0000E+00  0.7200E+02
  -4.010  0.0000E+00  0.0000E+00  0.7200E+02
  -4.000  0.0000E+00  0.0000E+00  0.7200E+02
  -3.990  0.0000E+00  0.0000E+00  0.7200E+02
  -3.980  0.0000E+00  0.0000E+00  0.7200E+02
  -3.970  0.0000E+00  0.0000E+00  0.7200E+02
  -3.960  0.0000E+00  0.0000E+00  0.7200E+02
  -3.950  0.0000E+00  0.0000E+00  0.7200E+02
  -3.940  0.0000E+00  0.0000E+00  0.7200E+02
  -3.930  0.0000E+00  0.0000E+00  0.7200E+02
  -3.920  0.0000E+00  0.0000E+00  0.7200E+02
  -3.910  0.0000E+00  0.0000E+00  0.7200E+02
  -3.900  0.0000E+00  0.0000E+00  0.7200E+02
  -3.890  0.0000E+00  0.0000E+00  0.7200E+02
  -3.880  0.0000E+00  0.0000E+00  0.7200E+02
  -3.870  0.0000E+00  0.0000E+00  0.7200E+02
  -3.860  0.0000E+00  0.0000E+00  0.7200E+02
  -3.850  0.0000E+00  0.0000E+00  0.7200E+02
  -3.840  0.0000E+00  0.0000E+00  0.7200E+02
  -3.830  0.0000E+00  0.0000E+00  0.7200E+02
  -3.820  0.0000E+00  0.0000E+00  0.7200E+02
  -3.810  0.0000E+00  0.0000E+00  0.7200E+02
  -3.800  0.0000E+00  0.0000E+00  0.7200E+02
  -3.790  0.0000E+00  0.0000E+00  0.7200E+02
  -3.780  0.0000E+00  0.0000E+00  0.7200E+02
  -3.770  0.0000E+00  0.0000E+00  0.7200E+02
  -3.760  0.0000E+00  0.0000E+00  0.7200E+02
  -3.750  0.0000E+00  0.0000E+00  0.7200E+02
  -3.740  0.0000E+00  0.0000E+00  0.7200E+02
  -3.730  0.0000E+00  0.0000E+00  0.7200E+02
  -3.720  0.0000E+00  0.0000E+00  0.7200E+02
  -3.710  0.0000E+00  0.0000E+00  0.7200E+02
  -3.700  0.0000E+00  0.0000E+00  0.7200E+02
  -3.690  0.0000E+00  0.0000E+00  0.7200E+02
  -3.680  0.0000E+00  0.0000E+00  0.7200E+02
  -3.670  0.0000E+00  0.0000E+00  0.7200E+02
  -3.660  0.0000E+00  0.0000E+00  0.7200E+02
  -3.650  0.0000E+00  0.0000E+00  0.7200E+02
  -3.640  0.0000E+00  0.0000E+00  0.7200E+02
  -3.630  0.0000E+00  0.0000E+00  0.7200E+02
  -3.620  0.0000E+00  0.0000E+00  0.7200E+02
  -3.610  0.0000E+00  0.0000E+00  0.7200E+02
  -3.600  0.0000E+00  0.0000E+00  0.7200E+02
  -3.590  0.0000E+00  0.0000E+00  0.7200E+02
  -3.580  0.0000E+00  0.0000E+00  0.7200E+02
  -3.570  0.0000E+00  0.0000E+00  0.7200E+02
  -3.560  0.0000E+00  0.0000E+00  0.7200E+02
  -3.550  0.0000E+00  0.0000E+00  0.7200E+02
  -3.540  0.0000E+00  0.0000E+00  0.7200E+02
  -3.530  0.0000E+00  0.0000E+00  0.7200E+02
  -3.520  0.0000E+00  0.0000E+00  0.7200E+02
  -3.510  0.0000E+00  0.0000E+00  0.7200E+02
  -3.500  0.0000E+00  0.0000E+00  0.7200E+02
  -3.490  0.0000E+00  0.0000E+00  0.7200E+02
  -3.480  0.0000E+00  0.0000E+00  0.7200E+02
  -3.470  0.0000E+00  0.0000E+00  0.7200E+02
  -3.460  0.0000E+00  0.0000E+00  0.7200E+02
  -3.450  0.0000E+00  0.0000E+00  0.7200E+02
  -3.440  0.0000E+00  0.0000E+00  0.7200E+02
  -3.430  0.0000E+00  0.0000E+00  0.7200E+02
  -3.420  0.0000E+00  0.0000E+00  0.7200E+02
  -3.410  0.0000E+00  0.0000E+00  0.7200E+02
  -3.400  0.0000E+00  0.0000E+00  0.7200E+02
  -3.390  0.0000E+00  0.0000E+00  0.7200E+02
  -3.380  0.0000E+00  0.0000E+00  0.7200E+02
  -3.370  0.0000E+00  0.0000E+00  0.7200E+02
  -3.360  0.0000E+00  0.0000E+00  0.7200E+02
  -3.350  0.0000E+00  0.0000E+00  0.7200E+02
  -3.340  0.0000E+00  0.0000E+00  0.7200E+02
  -3.330  0.0000E+00  0.0000E+00  0.7200E+02
  -3.320  0.0000E+00  0.0000E+00  0.7200E+02
  -3.310  0.0000E+00  0.0000E+00  0.7200E+02
  -3.300  0.0000E+00  0.0000E+00  0.7200E+02
  -3.290  0.0000E+00  0.0000E+00  0.7200E+02
  -3.280  0.0000E+00  0.0000E+00  0.7200E+02
  -3.270  0.0000E+00  0.0000E+00  0.7200E+02
  -3.260  0.0000E+00  0.0000E+00  0.7200E+02
  -3.250  0.0000E+00  0.0000E+00  0.7200E+02
  -3.240  0.0000E+00  0.0000E+00  0.7200E+02
  -3.230  0.0000E+00  0.0000E+00  0.7200E+02
  -3.220  0.0000E+00  0.0000E+00  0.7200E+02
  -3.210  0.0000E+00  0.0000E+00  0.7200E+02
  -3.200  0.0000E+00  0.0000E+00  0.7200E+02
  -3.190  0.0000E+00  0.0000E+00  0.7200E+02
  -3.180  0.0000E+00  0.0000E+00  0.7200E+02
  -3.170  0.0000E+00  0.0000E+00  0.7200E+02
  -3.160  0.0000E+00  0.0000E+00  0.7200E+02
  -3.150  0.0000E+00  0.0000E+00  0.7200E+02
  -3.140  0.0000E+00  0.0000E+00  0.7200E+02
  -3.130  0.0000E+00  0.0000E+00  0.7200E+02
  -3.120  0.0000E+00  0.0000E+00  0.7200E+02
  -3.110  0.0000E+00  0.0000E+00  0.7200E+02
  -3.100  0.0000E+00  0.0000E+00  0.7200E+02
  -3.090  0.0000E+00  0.0000E+00  0.7200E+02
  -3.080  0.0000E+00  0.0000E+00  0.7200E+02
  -3.070  0.0000E+00  0.0000E+00  0.7200E+02
  -3.060  0.0000E+00  0.0000E+00  0.7200E+02
  -3.050  0.0000E+00  0.0000E+00  0.7200E+02
  -3.040  0.0000E+00  0.0000E+00  0.7200E+02
  -3.030  0.0000E+00  0.0000E+00  0.7200E+02
  -3.020  0.0000E+00  0.0000E+00  0.7200E+02
  -3.010  0.0000E+00  0.0000E+00  0.7200E+02
  -3.000  0.0000E+00  0.0000E+00  0.7200E+02
  -2.990  0.0000E+00  0.0000E+00  0.7200E+02
  -2.980  0.0000E+00  0.0000E+00  0.7200E+02
  -2.970  0.0000E+00  0.0000E+00  0.7200E+02
  -2.960  0.0000E+00  0.0000E+00  0.7200E+02
  -2.950  0.0000E+00  0.0000E+00  0.7200E+02
  -2.940  0.0000E+00  0.0000E+00  0.7200E+02
  -2.930  0.0000E+00  0.0000E+00  0.7200E+02
  -2.920  0.0000E+00  0.0000E+00  0.7200E+02
  -2.910  0.0000E+00  0.0000E+00  0.7200E+02
  -2.900  0.0000E+00  0.0000E+00  0.7200E+02
  -2.890  0.0000E+00  0.0000E+00  0.7200E+02
  -2.880  0.0000E+00  0.0000E+00  0.7200E+02
  -2.870  0.0000E+00  0.0000E+00  0.7200E+02
  -2.860  0.0000E+00  0.0000E+00  0.7200E+02
  -2.850  0.0000E+00  0.0000E+00  0.7200E+02
  -2.840  0.0000E+00  0.0000E+00  0.7200E+02
  -2.830  0.0000E+00  0.0000E+00  0.7200E+02
  -2.820  0.0000E+00  0.0000E+00  0.7200E+02
  -2.810  0.0000E+00  0.0000E+00  0.7200E+02
  -2.800  0.0000E+00  0.0000E+00  0.7200E+02
  -2.790  0.0000E+00  0.0000E+00  0.7200E+02
  -2.780  0.0000E+00  0.0000E+00  0.7200E+02
  -2.770  0.0000E+00  0.0000E+00  0.7200E+02
  -2.760  0.0000E+00  0.0000E+00  0.7200E+02
  -2.750  0.0000E+00  0.0000E+00  0.7200E+02
  -2.740  0.0000E+00  0.0000E+00  0.7200E+02
  -2.730  0.0000E+00  0.0000E+00  0.7200E+02
  -2.720  0.0000E+00  0.0000E+00  0.7200E+02
  -2.710  0.0000E+00  0.0000E+00  0.7200E+02
  -2.700  0.0000E+00  0.0000E+00  0.7200E+02
  -2.690  0.0000E+00  0.0000E+00  0.7200E+02
  -2.680  0.0000E+00  0.0000E+00  0.7200E+02
  -2.670  0.0000E+00  0.0000E+00  0.7200E+02
  -2.660  0.0000E+00  0.0000E+00  0.7200E+02
  -2.650  0.0000E+00  0.0000E+00  0.7200E+02
  -2.640  0.0000E+00  0.0000E+00  0.7200E+02
  -2.630  0.0000E+00  0.0000E+00  0.7200E+02
  -2.620  0.0000E+00  0.0000E+00  0.7200E+02
  -2.610  0.0000E+00  0.0000E+00  0.7200E+02
  -2.600  0.0000E+00  0.0000E+00  0.7200E+02
  -2.590  0.0000E+00  0.0000E+00  0.7200E+02
  -2.580  0.0000E+00  0.0000E+00  0.7200E+02
  -2.570  0.0000E+00  0.0000E+00  0.7200E+02
  -2.560  0.0000E+00  0.0000E+00  0.7200E+02
  -2.550  0.0000E+00  0.0000E+00  0.7200E+02
  -2.540  0.0000E+00  0.0000E+00  0.7200E+02
  -2.530  0.0000E+00  0.0000E+00  0.7200E+02
  -2.520  0.0000E+00  0.0000E+00  0.7200E+02
  -2.510  0.0000E+00  0.0000E+00  0.7200E+02
  -2.500  0.0000E+00  0.0000E+00  0.7200E+02
  -2.490  0.0000E+00  0.0000E+00  0.7200E+02
  -2.480  0.0000E+00  0.0000E+00  0.7200E+02
  -2.470  0.0000E+00  0.0000E+00  0.7200E+02
  -2.460  0.0000E+00  0.0000E+00  0.7200E+02
  -2.450  0.0000E+00  0.0000E+00  0.7200E+02
  -2.440  0.0000E+00  0.0000E+00  0.7200E+02
  -2.430  0.0000E+00  0.0000E+00  0.7200E+02
  -2.420  0.0000E+00  0.0000E+00  0.7200E+02
  -2.410  0.0000E+00  0.0000E+00  0.7200E+02
  -2.400  0.0000E+00  0.0000E+00  0.7200E+02
  -2.390  0.0000E+00  0.0000E+00  0.7200E+02
  -2.380  0.0000E+00  0.0000E+00  0.7200E+02
  -2.370  0.0000E+00  0.0000E+00  0.7200E+02
  -2.360  0.0000E+00  0.0000E+00  0.7200E+02
  -2.350  0.0000E+00  0.0000E+00  0.7200E+02
  -2.340  0.0000E+00  0.0000E+00  0.7200E+02
  -2.330  0.0000E+00  0.0000E+00  0.7200E+02
  -2.320  0.0000E+00  0.0000E+00  0.7200E+02
  -2.310  0.0000E+00  0.0000E+00  0.7200E+02
  -2.300  0.0000E+00  0.0000E+00  0.7200E+02
  -2.290  0.0000E+00  0.0000E+00  0.7200E+02
  -2.280  0.0000E+00  0.0000E+00  0.7200E+02
  -2.270  0.0000E+00  0.0000E+00  0.7200E+02
  -2.260  0.0000E+00  0.0000E+00  0.7200E+02
  -2.250  0.0000E+00  0.0000E+00  0.7200E+02
  -2.240  0.0000E+00  0.0000E+00  0.7200E+02
  -2.230  0.0000E+00  0.0000E+00  0.7200E+02
  -2.220  0.0000E+00  0.0000E+00  0.7200E+02
  -2.210  0.0000E+00  0.0000E+00  0.7200E+02
  -2.200  0.0000E+00  0.0000E+00  0.7200E+02
  -2.190  0.0000E+00  0.0000E+00  0.7200E+02
  -2.180  0.0000E+00  0.0000E+00  0.7200E+02
  -2.170  0.0000E+00  0.0000E+00  0.7200E+02
  -2.160  0.0000E+00  0.0000E+00  0.7200E+02
  -2.150  0.0000E+00  0.0000E+00  0.7200E+02
  -2.140  0.0000E+00  0.0000E+00  0.7200E+02
  -2.130  0.0000E+00  0.0000E+00  0.7200E+02
  -2.120  0.0000E+00  0.0000E+00  0.7200E+02
  -2.110  0.0000E+00  0.0000E+00  0.7200E+02
  -2.100  0.0000E+00  0.0000E+00  0.7200E+02
  -2.090  0.0000E+00  0.0000E+00  0.7200E+02
  -2.080  0.0000E+00  0.0000E+00  0.7200E+02
  -2.070  0.0000E+00  0.0000E+00  0.7200E+02
  -2.060  0.0000E+00  0.0000E+00  0.7200E+02
  -2.050  0.0000E+00  0.0000E+00  0.7200E+02
  -2.040  0.0000E+00  0.0000E+00  0.7200E+02
  -2.030  0.0000E+00  0.0000E+00  0.7200E+02
  -2.020  0.0000E+00  0.0000E+00  0.7200E+02
  -2.010  0.0000E+00  0.0000E+00  0.7200E+02
  -2.000  0.0000E+00  0.0000E+00  0.7200E+02
  -1.990  0.0000E+00  0.0000E+00  0.7200E+02
  -1.980  0.0000E+00  0.0000E+00  0.7200E+02
  -1.970  0.0000E+00  0.0000E+00  0.7200E+02
  -1.960  0.0000E+00  0.0000E+00  0.7200E+02
  -1.950  0.0000E+00  0.0000E+00  0.7200E+02
  -1.940  0.0000E+00  0.0000E+00  0.7200E+02
  -1.930  0.0000E+00  0.0000E+00  0.7200E+02
  -1.920  0.0000E+00  0.0000E+00  0.7200E+02
  -1.910  0.0000E+00  0.0000E+00  0.7200E+02
  -1.900  0.0000E+00  0.0000E+00  0.7200E+02
  -1.890  0.0000E+00  0.0000E+00  0.7200E+02
  -1.880  0.0000E+00  0.0000E+00  0.7200E+02
  -1.870  0.0000E+00  0.0000E+00  0.7200E+02
  -1.860  0.0000E+00  0.0000E+00  0.7200E+02
  -1.850  0.0000E+00  0.0000E+00  0.7200E+02
  -1.840  0.0000E+00  0.0000E+00  0.7200E+02
  -1.830  0.0000E+00  0.0000E+00  0.7200E+02
  -1.820  0.0000E+00  0.0000E+00  0.7200E+02
  -1.810  0.0000E+00  0.0000E+00  0.7200E+02
  -1.800  0.0000E+00  0.0000E+00  0.7200E+02
  -1.790  0.0000E+00  0.0000E+00  0.7200E+02
  -1.780  0.0000E+00  0.0000E+00  0.7200E+02
  -1.770  0.0000E+00  0.0000E+00  0.7200E+02
  -1.760  0.0000E+00  0.0000E+00  0.7200E+02
  -1.750  0.0000E+00  0.0000E+00  0.7200E+02
  -1.740  0.0000E+00  0.0000E+00  0.7200E+02
  -1.730  0.0000E+00  0.0000E+00  0.7200E+02
  -1.720  0.0000E+00  0.0000E+00  0.7200E+02
  -1.710  0.0000E+00  0.0000E+00  0.7200E+02
  -1.700  0.0000E+00  0.0000E+00  0.7200E+02
  -1.690  0.0000E+00  0.0000E+00  0.7200E+02
  -1.680  0.0000E+00  0.0000E+00  0.7200E+02
  -1.670  0.0000E+00  0.0000E+00  0.7200E+02
  -1.660  0.0000E+00  0.0000E+00  0.7200E+02
  -1.650  0.0000E+00  0.0000E+00  0.7200E+02
  -1.640  0.0000E+00  0.0000E+00  0.7200E+02
  -1.630  0.0000E+00  0.0000E+00  0.7200E+02
  -1.620  0.0000E+00  0.0000E+00  0.7200E+02
  -1.610  0.0000E+00  0.0000E+00  0.7200E+02
  -1.600  0.0000E+00  0.0000E+00  0.7200E+02
  -1.590  0.0000E+00  0.0000E+00  0.7200E+02
  -1.580  0.0000E+00  0.0000E+00  0.7200E+02
  -1.570  0.0000E+00  0.0000E+00  0.7200E+02
  -1.560  0.0000E+00  0.0000E+00  0.7200E+02
  -1.550  0.0000E+00  0.0000E+00  0.7200E+02
  -1.540  0.0000E+00  0.0000E+00  0.7200E+02
  -1.530  0.0000E+00  0.0000E+00  0.7200E+02
  -1.520  0.0000E+00  0.0000E+00  0.7200E+02
  -1.510  0.0000E+00  0.0000E+00  0.7200E+02
  -1.500  0.0000E+00  0.0000E+00  0.7200E+02
  -1.490  0.0000E+00  0.0000E+00  0.7200E+02
  -1.480  0.0000E+00  0.0000E+00  0.7200E+02
  -1.470  0.0000E+00  0.0000E+00  0.7200E+02
  -1.460  0.0000E+00  0.0000E+00  0.7200E+02
  -1.450  0.0000E+00  0.0000E+00  0.7200E+02
  -1.440  0.0000E+00  0.0000E+00  0.7200E+02
  -1.430  0.0000E+00  0.0000E+00  0.7200E+02
  -1.420  0.0000E+00  0.0000E+00  0.7200E+02
  -1.410  0.0000E+00  0.0000E+00  0.7200E+02
  -1.400  0.0000E+00  0.0000E+00  0.7200E+02
  -1.390  0.0000E+00  0.0000E+00  0.7200E+02
  -1.380  0.0000E+00  0.0000E+00  0.7200E+02
  -1.370  0.0000E+00  0.0000E+00  0.7200E+02
  -1.360  0.0000E+00  0.0000E+00  0.7200E+02
  -1.350  0.0000E+00  0.0000E+00  0.7200E+02
  -1.340  0.0000E+00  0.0000E+00  0.7200E+02
  -1.330  0.0000E+00  0.0000E+00  0.7200E+02
  -1.320  0.0000E+00  0.0000E+00  0.7200E+02
  -1.310  0.0000E+00  0.0000E+00  0.7200E+02
  -1.300  0.0000E+00  0.0000E+00  0.7200E+02
  -1.290  0.0000E+00  0.0000E+00  0.7200E+02
  -1.280  0.0000E+00  0.0000E+00  0.7200E+02
  -1.270  0.0000E+00  0.0000E+00  0.7200E+02
  -1.260  0.0000E+00  0.0000E+00  0.7200E+02
  -1.250  0.0000E+00  0.0000E+00  0.7200E+02
  -1.240  0.0000E+00  0.0000E+00  0.7200E+02
  -1.230  0.0000E+00  0.0000E+00  0.7200E+02
  -1.220  0.0000E+00  0.0000E+00  0.7200E+02
  -1.210  0.0000E+00  0.0000E+00  0.7200E+02
  -1.200  0.0000E+00  0.0000E+00  0.7200E+02
  -1.190  0.0000E+00  0.0000E+00  0.7200E+02
  -1.180  0.0000E+00  0.0000E+00  0.7200E+02
  -1.170  0.0000E+00  0.0000E+00  0.7200E+02
  -1.160  0.0000E+00  0.0000E+00  0.7200E+02
  -1.150  0.0000E+00  0.0000E+00  0.7200E+02
  -1.140  0.0000E+00  0.0000E+00  0.7200E+02
  -1.130  0.0000E+00  0.0000E+00  0.7200E+02
  -1.120  0.0000E+00  0.0000E+00  0.7200E+02
  -1.110  0.0000E+00  0.0000E+00  0.7200E+02
  -1.100  0.0000E+00  0.0000E+00  0.7200E+02
  -1.090  0.0000E+00  0.0000E+00  0.7200E+02
  -1.080  0.0000E+00  0.0000E+00  0.7200E+02
  -1.070  0.0000E+00  0.0000E+00  0.7200E+02
  -1.060  0.0000E+00  0.0000E+00  0.7200E+02
  -1.050  0.0000E+00  0.0000E+00  0.7200E+02
  -1.040  0.0000E+00  0.0000E+00  0.7200E+02
  -1.030  0.0000E+00  0.0000E+00  0.7200E+02
  -1.020  0.0000E+00  0.0000E+00  0.7200E+02
  -1.010  0.0000E+00  0.0000E+00  0.7200E+02
  -1.000  0.0000E+00  0.0000E+00  0.7200E+02
  -0.990  0.0000E+00  0.0000E+00  0.7200E+02
  -0.980  0.0000E+00  0.0000E+00  0.7200E+02
  -0.970  0.0000E+00  0.0000E+00  0.7200E+02
  -0.960  0.0000E+00  0.0000E+00  0.7200E+02
  -0.950  0.0000E+00  0.0000E+00  0.7200E+02
  -0.940  0.0000E+00  0.0000E+00  0.7200E+02
  -0.930  0.0000E+00  0.0000E+00  0.7200E+02
  -0.920  0.0000E+00  0.0000E+00  0.7200E+02
  -0.910  0.0000E+00  0.0000E+00  0.7200E+02
  -0.900  0.0000E+00  0.0000E+00  0.7200E+02
  -0.890  0.0000E+00  0.0000E+00  0.7200E+02
  -0.880  0.0000E+00  0.0000E+00  0.7200E+02
  -0.870  0.0000E+00  0.0000E+00  0.7200E+02
  -0.860  0.0000E+00  0.0000E+00  0.7200E+02
  -0.850  0.0000E+00  0.0000E+00  0.7200E+02
  -0.840  0.0000E+00  0.0000E+00  0.7200E+02
  -0.830  0.0000E+00  0.0000E+00  0.7200E+02
  -0.820  0.0000E+00  0.0000E+00  0.7200E+02
  -0.810  0.0000E+00  0.0000E+00  0.7200E+02
  -0.800  0.0000E+00  0.0000E+00  0.7200E+02
  -0.790  0.0000E+00  0.0000E+00  0.7200E+02
  -0.780  0.0000E+00  0.0000E+00  0.7200E+02
  -0.770  0.0000E+00  0.0000E+00  0.7200E+02
  -0.760  0.0000E+00  0.0000E+00  0.7200E+02
  -0.750  0.0000E+00  0.0000E+00  0.7200E+02
  -0.740  0.0000E+00  0.0000E+00  0.7200E+02
  -0.730  0.0000E+00  0.0000E+00  0.7200E+02
  -0.720  0.0000E+00  0.0000E+00  0.7200E+02
  -0.710  0.0000E+00  0.0000E+00  0.7200E+02
  -0.700  0.3438E-01  0.0000E+00  0.7200E+02
  -0.690  0.9914E+01  0.6677E+01  0.7206E+02
  -0.680  0.4230E+02  0.2583E+02  0.7241E+02
  -0.670  0.1076E+03  0.8040E+02  0.7366E+02
  -0.660  0.1312E+03  0.1312E+03  0.7597E+02
  -0.650  0.1464E+03  0.1400E+03  0.7876E+02
  -0.640  0.1885E+03  0.1769E+03  0.8213E+02
  -0.630  0.1821E+03  0.1805E+03  0.8582E+02
  -0.620  0.2120E+03  0.2036E+03  0.8970E+02
  -0.610  0.1572E+03  0.1846E+03  0.9357E+02
  -0.600  0.1887E+03  0.1646E+03  0.9675E+02
  -0.590  0.2455E+03  0.2103E+03  0.1009E+03
  -0.580  0.3467E+03  0.3096E+03  0.1069E+03
  -0.570  0.2898E+03  0.3178E+03  0.1134E+03
  -0.560  0.3416E+03  0.3434E+03  0.1196E+03
  -0.550  0.3823E+03  0.3971E+03  0.1271E+03
  -0.540  0.4438E+03  0.4157E+03  0.1350E+03
  -0.530  0.5526E+03  0.5700E+03  0.1457E+03
  -0.520  0.6129E+03  0.5503E+03  0.1561E+03
  -0.510  0.2531E+03  0.2837E+03  0.1641E+03
  -0.500  0.1559E+03  0.1774E+03  0.1691E+03
  -0.490  0.2412E+03  0.2029E+03  0.1731E+03
  -0.480  0.2782E+03  0.2991E+03  0.1784E+03
  -0.470  0.1402E+03  0.1451E+03  0.1823E+03
  -0.460  0.2063E+03  0.2610E+03  0.1858E+03
  -0.450  0.2941E+03  0.2105E+03  0.1899E+03
  -0.440  0.2020E+03  0.1970E+03  0.1939E+03
  -0.430  0.1663E+03  0.1882E+03  0.1976E+03
  -0.420  0.1936E+03  0.1982E+03  0.2014E+03
  -0.410  0.1644E+03  0.1407E+03  0.2051E+03
  -0.400  0.1578E+03  0.1266E+03  0.2081E+03
  -0.390  0.1264E+03  0.1595E+03  0.2114E+03
  -0.380  0.1179E+03  0.1208E+03  0.2136E+03
  -0.370  0.1530E+03  0.1492E+03  0.2166E+03
  -0.360  0.1468E+03  0.1453E+03  0.2195E+03
  -0.350  0.1600E+03  0.1515E+03  0.2224E+03
  -0.340  0.1114E+03  0.1343E+03  0.2253E+03
  -0.330  0.1272E+03  0.1129E+03  0.2276E+03
  -0.320  0.8473E+02  0.8530E+02  0.2297E+03
  -0.310  0.8255E+02  0.8131E+02  0.2314E+03
  -0.300  0.9124E+02  0.1122E+03  0.2330E+03
  -0.290  0.1380E+03  0.1187E+03  0.2353E+03
  -0.280  0.1414E+03  0.1565E+03  0.2382E+03
  -0.270  0.1182E+03  0.1267E+03  0.2409E+03
  -0.260  0.1630E+03  0.1533E+03  0.2434E+03
  -0.250  0.1279E+03  0.1211E+03  0.2460E+03
  -0.240  0.1426E+03  0.1521E+03  0.2490E+03
  -0.230  0.2487E+03  0.2525E+03  0.2525E+03
  -0.220  0.1458E+03  0.1312E+03  0.2558E+03
  -0.210  0.1565E+03  0.3333E+03  0.2615E+03
  -0.200  0.2857E+03  0.2581E+03  0.2653E+03
  -0.190  0.2589E+03  0.3357E+03  0.2729E+03
  -0.180  0.3082E+03  0.3076E+03  0.2790E+03
  -0.170  0.4637E+03  0.4739E+03  0.2873E+03
  -0.160  0.3643E+03  0.3425E+03  0.2951E+03
  -0.150  0.5558E+03  0.5628E+03  0.3032E+03
  -0.140  0.5043E+03  0.4880E+03  0.3125E+03
  -0.130  0.3773E+03  0.3788E+03  0.3224E+03
  -0.120  0.3872E+03  0.4855E+03  0.3304E+03
  -0.110  0.2031E+03  0.2475E+03  0.3390E+03
  -0.100  0.3450E+03  0.3407E+03  0.3444E+03
  -0.090  0.1006E+03  0.1031E+03  0.3489E+03
  -0.080  0.7223E+02  0.6958E+02  0.3505E+03
  -0.070  0.6092E+02  0.7085E+02  0.3519E+03
  -0.060  0.9481E+02  0.8156E+02  0.3533E+03
  -0.050  0.8014E+02  0.8357E+02  0.3550E+03
  -0.040  0.7073E+02  0.7353E+02  0.3566E+03
  -0.030  0.5374E+02  0.5949E+02  0.3579E+03
  -0.020  0.4162E+02  0.4433E+02  0.3589E+03
  -0.010  0.4943E+02  0.4542E+02  0.3597E+03
   0.000  0.6518E+02  0.6329E+02  0.3608E+03
   0.010  0.1010E+03  0.1027E+03  0.3625E+03
   0.020  0.4429E+02  0.5969E+02  0.3640E+03
   0.030  0.3350E+02  0.2336E+02  0.3647E+03
   0.040  0.6585E+02  0.7929E+02  0.3661E+03
   0.050  0.6339E+02  0.6154E+02  0.3674E+03
   0.060  0.7060E+02  0.7164E+02  0.3688E+03
   0.070  0.5597E+02  0.6737E+02  0.3703E+03
   0.080  0.6738E+02  0.5952E+02  0.3713E+03
   0.090  0.6148E+02  0.5896E+02  0.3726E+03
   0.100  0.5372E+02  0.5454E+02  0.3737E+03
   0.110  0.5073E+02  0.5162E+02  0.3748E+03
   0.120  0.6518E+02  0.6295E+02  0.3759E+03
   0.130  0.8599E+02  0.8528E+02  0.3774E+03
   0.140  0.6432E+02  0.6697E+02  0.3789E+03
   0.150  0.5125E+02  0.5541E+02  0.3801E+03
   0.160  0.2970E+02  0.3225E+02  0.3810E+03
   0.170  0.1660E+02  0.1810E+02  0.3814E+03
   0.180  0.1710E+02  0.2248E+02  0.3818E+03
   0.190  0.4522E+01  0.4776E+01  0.3819E+03
   0.200  0.1585E+01  0.1697E+01  0.3820E+03
   0.210  0.1679E+00  0.1910E+00  0.3820E+03
   0.220  0.0000E+00  0.0000E+00  0.3820E+03
   0.230  0.0000E+00  0.0000E+00  0.3820E+03
   0.240  0.0000E+00  0.0000E+00  0.3820E+03
   0.250  0.0000E+00  0.0000E+00  0.3820E+03
   0.260  0.0000E+00  0.0000E+00  0.3820E+03
   0.270  0.0000E+00  0.0000E+00  0.3820E+03
   0.280  0.0000E+00  0.0000E+00  0.3820E+03
   0.290  0.0000E+00  0.0000E+00  0.3820E+03
   0.300  0.0000E+00  0.0000E+00  0.3820E+03
   0.310  0.0000E+00  0.0000E+00  0.3820E+03
   0.320  0.0000E+00  0.0000E+00  0.3820E+03
   0.330  0.0000E+00  0.0000E+00  0.3820E+03
   0.340  0.0000E+00  0.0000E+00  0.3820E+03
   0.350  0.0000E+00  0.0000E+00  0.3820E+03
   0.360  0.5768E-04  0.0000E+00  0.3820E+03
   0.370  0.2503E-02  0.2470E-03  0.3820E+03
   0.380  0.1359E-01  0.4098E-02  0.3820E+03
   0.390  0.3650E-01  0.1739E-01  0.3820E+03
   0.400  0.7125E-01  0.4201E-01  0.3820E+03
   0.410  0.1180E+00  0.7796E-01  0.3820E+03
   0.420  0.1776E+00  0.1252E+00  0.3820E+03
   0.430  0.2503E+00  0.1842E+00  0.3820E+03
   0.440  0.3362E+00  0.2558E+00  0.3820E+03
   0.450  0.4351E+00  0.3400E+00  0.3820E+03
   0.460  0.5472E+00  0.4368E+00  0.3820E+03
   0.470  0.6725E+00  0.5462E+00  0.3820E+03
   0.480  0.8108E+00  0.6684E+00  0.3821E+03
   0.490  0.9964E+00  0.8032E+00  0.3821E+03
   0.500  0.1422E+01  0.1001E+01  0.3821E+03
   0.510  0.1960E+01  0.1440E+01  0.3821E+03
   0.520  0.2672E+01  0.1942E+01  0.3822E+03
   0.530  0.3601E+01  0.2552E+01  0.3822E+03
   0.540  0.4207E+01  0.3464E+01  0.3823E+03
   0.550  0.4465E+01  0.4117E+01  0.3824E+03
   0.560  0.4379E+01  0.4415E+01  0.3825E+03
   0.570  0.3962E+01  0.4363E+01  0.3825E+03
   0.580  0.3614E+01  0.3969E+01  0.3826E+03
   0.590  0.3769E+01  0.3577E+01  0.3827E+03
   0.600  0.4025E+01  0.3688E+01  0.3828E+03
   0.610  0.4278E+01  0.3932E+01  0.3828E+03
   0.620  0.4546E+01  0.4185E+01  0.3829E+03
   0.630  0.4831E+01  0.4436E+01  0.3830E+03
   0.640  0.5131E+01  0.4710E+01  0.3831E+03
   0.650  0.5448E+01  0.4997E+01  0.3832E+03
   0.660  0.5781E+01  0.5301E+01  0.3833E+03
   0.670  0.6129E+01  0.5622E+01  0.3834E+03
   0.680  0.6472E+01  0.5957E+01  0.3836E+03
   0.690  0.6804E+01  0.6292E+01  0.3837E+03
   0.700  0.7341E+01  0.6606E+01  0.3838E+03
   0.710  0.8313E+01  0.7082E+01  0.3840E+03
   0.720  0.9725E+01  0.8022E+01  0.3841E+03
   0.730  0.1141E+02  0.9427E+01  0.3843E+03
   0.740  0.1232E+02  0.1115E+02  0.3845E+03
   0.750  0.1245E+02  0.1187E+02  0.3848E+03
   0.760  0.1253E+02  0.1213E+02  0.3850E+03
   0.770  0.1283E+02  0.1213E+02  0.3853E+03
   0.780  0.1275E+02  0.1234E+02  0.3855E+03
   0.790  0.1245E+02  0.1262E+02  0.3858E+03
   0.800  0.1233E+02  0.1228E+02  0.3860E+03
   0.810  0.1254E+02  0.1193E+02  0.3863E+03
   0.820  0.1281E+02  0.1215E+02  0.3865E+03
   0.830  0.1303E+02  0.1244E+02  0.3868E+03
   0.840  0.1322E+02  0.1269E+02  0.3870E+03
   0.850  0.1338E+02  0.1290E+02  0.3873E+03
   0.860  0.1352E+02  0.1308E+02  0.3876E+03
   0.870  0.1363E+02  0.1323E+02  0.3878E+03
   0.880  0.1372E+02  0.1337E+02  0.3881E+03
   0.890  0.1378E+02  0.1349E+02  0.3884E+03
   0.900  0.1380E+02  0.1359E+02  0.3886E+03
   0.910  0.1391E+02  0.1368E+02  0.3889E+03
   0.920  0.1531E+02  0.1417E+02  0.3892E+03
   0.930  0.1666E+02  0.1569E+02  0.3895E+03
   0.940  0.1823E+02  0.1698E+02  0.3898E+03
   0.950  0.1966E+02  0.1831E+02  0.3902E+03
   0.960  0.2096E+02  0.1930E+02  0.3906E+03
   0.970  0.2262E+02  0.2009E+02  0.3910E+03
   0.980  0.2691E+02  0.2096E+02  0.3915E+03
   0.990  0.3011E+02  0.2264E+02  0.3920E+03
   1.000  0.3678E+02  0.2433E+02  0.3925E+03
   1.010  0.3825E+02  0.3149E+02  0.3932E+03
   1.020  0.3900E+02  0.3874E+02  0.3940E+03
   1.030  0.2725E+02  0.4320E+02  0.3948E+03
   1.040  0.3501E+02  0.3832E+02  0.3955E+03
   1.050  0.4591E+02  0.3369E+02  0.3963E+03
   1.060  0.5491E+02  0.4946E+02  0.3973E+03
   1.070  0.6770E+02  0.5921E+02  0.3985E+03
   1.080  0.5414E+02  0.6751E+02  0.3997E+03
   1.090  0.5916E+02  0.5762E+02  0.4010E+03
   1.100  0.4074E+02  0.3663E+02  0.4020E+03
   1.110  0.4938E+02  0.3661E+02  0.4028E+03
   1.120  0.3507E+02  0.3556E+02  0.4036E+03
   1.130  0.2756E+02  0.3546E+02  0.4043E+03
   1.140  0.2477E+02  0.2637E+02  0.4049E+03
   1.150  0.1987E+02  0.2270E+02  0.4053E+03
   1.160  0.1316E+02  0.2170E+02  0.4057E+03
   1.170  0.1457E+02  0.2204E+02  0.4061E+03
   1.180  0.2338E+02  0.2221E+02  0.4065E+03
   1.190  0.3021E+02  0.2315E+02  0.4070E+03
   1.200  0.3497E+02  0.2546E+02  0.4075E+03
   1.210  0.3675E+02  0.2853E+02  0.4082E+03
   1.220  0.3473E+02  0.2914E+02  0.4088E+03
   1.230  0.3510E+02  0.2705E+02  0.4094E+03
   1.240  0.3498E+02  0.2551E+02  0.4101E+03
   1.250  0.3310E+02  0.2711E+02  0.4107E+03
   1.260  0.2993E+02  0.2865E+02  0.4113E+03
   1.270  0.2768E+02  0.2939E+02  0.4118E+03
   1.280  0.2546E+02  0.2920E+02  0.4124E+03
   1.290  0.2362E+02  0.2816E+02  0.4129E+03
   1.300  0.2250E+02  0.2661E+02  0.4134E+03
   1.310  0.2176E+02  0.2444E+02  0.4139E+03
   1.320  0.2105E+02  0.2205E+02  0.4143E+03
   1.330  0.2087E+02  0.2034E+02  0.4148E+03
   1.340  0.2132E+02  0.1875E+02  0.4152E+03
   1.350  0.2395E+02  0.1724E+02  0.4156E+03
   1.360  0.1712E+02  0.1594E+02  0.4160E+03
   1.370  0.1527E+02  0.2214E+02  0.4163E+03
   1.380  0.1381E+02  0.2188E+02  0.4167E+03
   1.390  0.1275E+02  0.2123E+02  0.4170E+03
   1.400  0.1212E+02  0.2038E+02  0.4173E+03
   1.410  0.1195E+02  0.1861E+02  0.4177E+03
   1.420  0.1238E+02  0.1991E+02  0.4180E+03
   1.430  0.1294E+02  0.1155E+02  0.4182E+03
   1.440  0.1378E+02  0.1123E+02  0.4185E+03
   1.450  0.1483E+02  0.1135E+02  0.4187E+03
   1.460  0.1612E+02  0.1183E+02  0.4190E+03
   1.470  0.1870E+02  0.1245E+02  0.4193E+03
   1.480  0.2029E+02  0.1317E+02  0.4196E+03
   1.490  0.2029E+02  0.1378E+02  0.4200E+03
   1.500  0.1867E+02  0.1425E+02  0.4203E+03
   1.510  0.1608E+02  0.1461E+02  0.4206E+03
   1.520  0.1409E+02  0.1483E+02  0.4209E+03
   1.530  0.1332E+02  0.1491E+02  0.4212E+03
   1.540  0.1265E+02  0.1484E+02  0.4215E+03
   1.550  0.1180E+02  0.1462E+02  0.4218E+03
   1.560  0.1099E+02  0.1427E+02  0.4220E+03
   1.570  0.1062E+02  0.1378E+02  0.4223E+03
   1.580  0.1042E+02  0.1323E+02  0.4225E+03
   1.590  0.1038E+02  0.1257E+02  0.4227E+03
   1.600  0.1049E+02  0.1175E+02  0.4230E+03
   1.610  0.1074E+02  0.1100E+02  0.4232E+03
   1.620  0.1088E+02  0.1058E+02  0.4234E+03
   1.630  0.1424E+02  0.1034E+02  0.4236E+03
   1.640  0.1125E+02  0.1025E+02  0.4239E+03
   1.650  0.1150E+02  0.1023E+02  0.4241E+03
   1.660  0.1031E+02  0.1037E+02  0.4243E+03
   1.670  0.9115E+01  0.1067E+02  0.4245E+03
   1.680  0.8960E+01  0.1282E+02  0.4247E+03
   1.690  0.9046E+01  0.1107E+02  0.4249E+03
   1.700  0.9101E+01  0.1182E+02  0.4251E+03
   1.710  0.9920E+01  0.1178E+02  0.4253E+03
   1.720  0.9929E+01  0.1152E+02  0.4255E+03
   1.730  0.8052E+01  0.1095E+02  0.4257E+03
   1.740  0.6321E+01  0.1031E+02  0.4259E+03
   1.750  0.6141E+01  0.1046E+02  0.4261E+03
   1.760  0.6490E+01  0.1070E+02  0.4263E+03
   1.770  0.6852E+01  0.8099E+01  0.4264E+03
   1.780  0.7344E+01  0.5122E+01  0.4266E+03
   1.790  0.8050E+01  0.5017E+01  0.4267E+03
   1.800  0.9215E+01  0.5297E+01  0.4268E+03
   1.810  0.1077E+02  0.5591E+01  0.4270E+03
   1.820  0.1344E+02  0.5908E+01  0.4271E+03
   1.830  0.1780E+02  0.6329E+01  0.4274E+03
   1.840  0.1831E+02  0.6757E+01  0.4276E+03
   1.850  0.1948E+02  0.7163E+01  0.4279E+03
   1.860  0.2011E+02  0.7545E+01  0.4281E+03
   1.870  0.1896E+02  0.7901E+01  0.4284E+03
   1.880  0.1706E+02  0.8233E+01  0.4287E+03
   1.890  0.1529E+02  0.8540E+01  0.4289E+03
   1.900  0.1291E+02  0.8835E+01  0.4292E+03
   1.910  0.1058E+02  0.9144E+01  0.4294E+03
   1.920  0.9832E+01  0.9612E+01  0.4296E+03
   1.930  0.9354E+01  0.1005E+02  0.4297E+03
   1.940  0.9201E+01  0.1032E+02  0.4299E+03
   1.950  0.9385E+01  0.1042E+02  0.4301E+03
   1.960  0.9335E+01  0.1036E+02  0.4303E+03
   1.970  0.1070E+02  0.1014E+02  0.4305E+03
   1.980  0.8699E+01  0.9758E+01  0.4307E+03
   1.990  0.8202E+01  0.9301E+01  0.4309E+03
   2.000  0.7965E+01  0.8940E+01  0.4311E+03
   2.010  0.8381E+01  0.8625E+01  0.4313E+03
   2.020  0.8943E+01  0.8352E+01  0.4314E+03
   2.030  0.9055E+01  0.8114E+01  0.4316E+03
   2.040  0.8742E+01  0.7906E+01  0.4318E+03
   2.050  0.7855E+01  0.7749E+01  0.4319E+03
   2.060  0.7432E+01  0.7622E+01  0.4321E+03
   2.070  0.6965E+01  0.7517E+01  0.4322E+03
   2.080  0.6596E+01  0.7429E+01  0.4324E+03
   2.090  0.6466E+01  0.7395E+01  0.4325E+03
   2.100  0.6474E+01  0.7424E+01  0.4327E+03
   2.110  0.6496E+01  0.7475E+01  0.4328E+03
   2.120  0.6488E+01  0.7537E+01  0.4329E+03
   2.130  0.6902E+01  0.7604E+01  0.4331E+03
   2.140  0.7201E+01  0.7660E+01  0.4332E+03
   2.150  0.7722E+01  0.7731E+01  0.4334E+03
   2.160  0.7761E+01  0.7817E+01  0.4335E+03
   2.170  0.7148E+01  0.7845E+01  0.4337E+03
   2.180  0.6727E+01  0.7819E+01  0.4338E+03
   2.190  0.7009E+01  0.7740E+01  0.4340E+03
   2.200  0.8086E+01  0.7596E+01  0.4341E+03
   2.210  0.9024E+01  0.7341E+01  0.4343E+03
   2.220  0.9804E+01  0.6675E+01  0.4345E+03
   2.230  0.1039E+02  0.5957E+01  0.4346E+03
   2.240  0.1084E+02  0.8295E+01  0.4348E+03
   2.250  0.1068E+02  0.6987E+01  0.4350E+03
   2.260  0.1024E+02  0.6315E+01  0.4351E+03
   2.270  0.9275E+01  0.6289E+01  0.4353E+03
   2.280  0.8147E+01  0.6321E+01  0.4355E+03
   2.290  0.7376E+01  0.6369E+01  0.4356E+03
   2.300  0.6850E+01  0.6412E+01  0.4357E+03
   2.310  0.6572E+01  0.6435E+01  0.4359E+03
   2.320  0.6354E+01  0.6438E+01  0.4360E+03
   2.330  0.6180E+01  0.6417E+01  0.4361E+03
   2.340  0.6066E+01  0.6362E+01  0.4362E+03
   2.350  0.7051E+01  0.6298E+01  0.4364E+03
   2.360  0.1028E+02  0.6297E+01  0.4365E+03
   2.370  0.1391E+02  0.6334E+01  0.4367E+03
   2.380  0.1600E+02  0.6357E+01  0.4369E+03
   2.390  0.1613E+02  0.6367E+01  0.4371E+03
   2.400  0.1428E+02  0.6365E+01  0.4374E+03
   2.410  0.1184E+02  0.6351E+01  0.4376E+03
   2.420  0.1012E+02  0.6324E+01  0.4377E+03
   2.430  0.1004E+02  0.6284E+01  0.4379E+03
   2.440  0.1056E+02  0.6229E+01  0.4381E+03
   2.450  0.1098E+02  0.6165E+01  0.4382E+03
   2.460  0.1125E+02  0.6138E+01  0.4384E+03
   2.470  0.1171E+02  0.6784E+01  0.4386E+03
   2.480  0.1251E+02  0.7363E+01  0.4388E+03
   2.490  0.1354E+02  0.7747E+01  0.4390E+03
   2.500  0.1469E+02  0.7944E+01  0.4392E+03
   2.510  0.1570E+02  0.8118E+01  0.4394E+03
   2.520  0.1462E+02  0.8471E+01  0.4397E+03
   2.530  0.1424E+02  0.8844E+01  0.4399E+03
   2.540  0.1347E+02  0.9243E+01  0.4402E+03
   2.550  0.1287E+02  0.9731E+01  0.4404E+03
   2.560  0.1254E+02  0.1023E+02  0.4406E+03
   2.570  0.1232E+02  0.1062E+02  0.4408E+03
   2.580  0.1278E+02  0.1104E+02  0.4411E+03
   2.590  0.1428E+02  0.1150E+02  0.4413E+03
   2.600  0.1681E+02  0.1198E+02  0.4416E+03
   2.610  0.1884E+02  0.1244E+02  0.4419E+03
   2.620  0.1744E+02  0.1289E+02  0.4422E+03
   2.630  0.1625E+02  0.1333E+02  0.4425E+03
   2.640  0.1581E+02  0.1386E+02  0.4428E+03
   2.650  0.1540E+02  0.1597E+02  0.4431E+03
   2.660  0.1531E+02  0.1725E+02  0.4434E+03
   2.670  0.1559E+02  0.1794E+02  0.4438E+03
   2.680  0.1631E+02  0.1881E+02  0.4441E+03
   2.690  0.1887E+02  0.2094E+02  0.4445E+03
   2.700  0.1942E+02  0.2383E+02  0.4449E+03
   2.710  0.1992E+02  0.2623E+02  0.4454E+03
   2.720  0.2059E+02  0.2725E+02  0.4458E+03
   2.730  0.2163E+02  0.2741E+02  0.4463E+03
   2.740  0.2272E+02  0.2945E+02  0.4468E+03
   2.750  0.2378E+02  0.3235E+02  0.4474E+03
   2.760  0.2475E+02  0.3742E+02  0.4480E+03
   2.770  0.2430E+02  0.3963E+02  0.4486E+03
   2.780  0.2407E+02  0.3702E+02  0.4492E+03
   2.790  0.2662E+02  0.2280E+02  0.4498E+03
   2.800  0.3033E+02  0.1869E+02  0.4503E+03
   2.810  0.2610E+02  0.1725E+02  0.4508E+03
   2.820  0.2243E+02  0.1584E+02  0.4512E+03
   2.830  0.2201E+02  0.1470E+02  0.4516E+03
   2.840  0.2638E+02  0.1347E+02  0.4520E+03
   2.850  0.2285E+02  0.1589E+02  0.4523E+03
   2.860  0.2414E+02  0.4286E+02  0.4529E+03
   2.870  0.2279E+02  0.2977E+02  0.4535E+03
   2.880  0.3151E+02  0.2774E+02  0.4541E+03
   2.890  0.3152E+02  0.2093E+02  0.4546E+03
   2.900  0.2334E+02  0.1531E+02  0.4551E+03
   2.910  0.1699E+02  0.1707E+02  0.4554E+03
   2.920  0.1447E+02  0.1882E+02  0.4558E+03
   2.930  0.1584E+02  0.1916E+02  0.4561E+03
   2.940  0.1860E+02  0.1922E+02  0.4565E+03
   2.950  0.1873E+02  0.1808E+02  0.4569E+03
   2.960  0.1839E+02  0.1735E+02  0.4572E+03
   2.970  0.1619E+02  0.1792E+02  0.4576E+03
   2.980  0.1314E+02  0.1994E+02  0.4579E+03
   2.990  0.1385E+02  0.2317E+02  0.4583E+03
   3.000  0.1402E+02  0.2490E+02  0.4586E+03
   3.010  0.1397E+02  0.2553E+02  0.4590E+03
   3.020  0.1413E+02  0.2623E+02  0.4594E+03
   3.030  0.1499E+02  0.2669E+02  0.4598E+03
   3.040  0.1680E+02  0.2684E+02  0.4603E+03
   3.050  0.1887E+02  0.2709E+02  0.4607E+03
   3.060  0.2092E+02  0.2709E+02  0.4612E+03
   3.070  0.2270E+02  0.2653E+02  0.4617E+03
   3.080  0.2287E+02  0.2546E+02  0.4622E+03
   3.090  0.2326E+02  0.2438E+02  0.4626E+03
   3.100  0.2305E+02  0.2506E+02  0.4631E+03
   3.110  0.2337E+02  0.2402E+02  0.4636E+03
   3.120  0.2398E+02  0.2294E+02  0.4641E+03
   3.130  0.2505E+02  0.2271E+02  0.4645E+03
   3.140  0.2795E+02  0.2314E+02  0.4650E+03
   3.150  0.3072E+02  0.1851E+02  0.4655E+03
   3.160  0.3175E+02  0.1675E+02  0.4660E+03
   3.170  0.3113E+02  0.1255E+02  0.4665E+03
   3.180  0.2962E+02  0.1347E+02  0.4669E+03
   3.190  0.2769E+02  0.1455E+02  0.4674E+03
   3.200  0.2633E+02  0.1535E+02  0.4678E+03
   3.210  0.2552E+02  0.1588E+02  0.4682E+03
   3.220  0.2476E+02  0.1614E+02  0.4686E+03
   3.230  0.2457E+02  0.1615E+02  0.4690E+03
   3.240  0.2498E+02  0.1605E+02  0.4694E+03
   3.250  0.2494E+02  0.1646E+02  0.4698E+03
   3.260  0.2471E+02  0.1844E+02  0.4702E+03
   3.270  0.2660E+02  0.2519E+02  0.4707E+03
   3.280  0.3354E+02  0.2877E+02  0.4713E+03
   3.290  0.2385E+02  0.2970E+02  0.4719E+03
   3.300  0.2475E+02  0.3298E+02  0.4724E+03
   3.310  0.2543E+02  0.3807E+02  0.4730E+03
   3.320  0.2689E+02  0.3573E+02  0.4737E+03
   3.330  0.2649E+02  0.3468E+02  0.4743E+03
   3.340  0.2799E+02  0.3375E+02  0.4749E+03
   3.350  0.2915E+02  0.3574E+02  0.4755E+03
   3.360  0.2837E+02  0.3371E+02  0.4762E+03
   3.370  0.2840E+02  0.3001E+02  0.4768E+03
   3.380  0.2720E+02  0.2969E+02  0.4773E+03
   3.390  0.2662E+02  0.3024E+02  0.4779E+03
   3.400  0.2583E+02  0.3100E+02  0.4785E+03
   3.410  0.2594E+02  0.3146E+02  0.4790E+03
   3.420  0.2623E+02  0.3314E+02  0.4796E+03
   3.430  0.2687E+02  0.3365E+02  0.4802E+03
   3.440  0.2729E+02  0.3290E+02  0.4808E+03
   3.450  0.2755E+02  0.3291E+02  0.4814E+03
   3.460  0.2818E+02  0.3399E+02  0.4820E+03
   3.470  0.2892E+02  0.3485E+02  0.4827E+03
   3.480  0.2978E+02  0.3321E+02  0.4833E+03
   3.490  0.3056E+02  0.3215E+02  0.4839E+03
   3.500  0.2893E+02  0.3130E+02  0.4845E+03
   3.510  0.2977E+02  0.3072E+02  0.4852E+03
   3.520  0.3089E+02  0.3037E+02  0.4858E+03
   3.530  0.3189E+02  0.3051E+02  0.4864E+03
   3.540  0.3278E+02  0.3054E+02  0.4870E+03
   3.550  0.3329E+02  0.2958E+02  0.4876E+03
   3.560  0.3391E+02  0.2993E+02  0.4883E+03
   3.570  0.3477E+02  0.3109E+02  0.4889E+03
   3.580  0.3524E+02  0.3090E+02  0.4896E+03
   3.590  0.3464E+02  0.3089E+02  0.4902E+03
   3.600  0.3382E+02  0.2986E+02  0.4909E+03
   3.610  0.3268E+02  0.3162E+02  0.4915E+03
   3.620  0.3203E+02  0.3001E+02  0.4922E+03
   3.630  0.3194E+02  0.2940E+02  0.4928E+03
   3.640  0.3202E+02  0.2949E+02  0.4934E+03
   3.650  0.3301E+02  0.2955E+02  0.4940E+03
   3.660  0.3137E+02  0.2928E+02  0.4946E+03
   3.670  0.3080E+02  0.2913E+02  0.4952E+03
   3.680  0.2976E+02  0.2896E+02  0.4958E+03
   3.690  0.2903E+02  0.3462E+02  0.4964E+03
   3.700  0.2713E+02  0.3469E+02  0.4970E+03
   3.710  0.2719E+02  0.3325E+02  0.4976E+03
   3.720  0.2739E+02  0.2463E+02  0.4982E+03
   3.730  0.2660E+02  0.2051E+02  0.4987E+03
   3.740  0.2721E+02  0.2109E+02  0.4992E+03
   3.750  0.2773E+02  0.2268E+02  0.4996E+03
   3.760  0.2747E+02  0.2531E+02  0.5002E+03
   3.770  0.2610E+02  0.2621E+02  0.5007E+03
   3.780  0.2440E+02  0.2655E+02  0.5012E+03
   3.790  0.2439E+02  0.3247E+02  0.5017E+03
   3.800  0.2635E+02  0.3800E+02  0.5023E+03
   3.810  0.2969E+02  0.3731E+02  0.5030E+03
   3.820  0.3069E+02  0.3617E+02  0.5037E+03
   3.830  0.2838E+02  0.3271E+02  0.5043E+03
   3.840  0.2836E+02  0.2887E+02  0.5049E+03
   3.850  0.3011E+02  0.2556E+02  0.5055E+03
   3.860  0.3955E+02  0.3164E+02  0.5061E+03
   3.870  0.4332E+02  0.3462E+02  0.5070E+03
   3.880  0.5053E+02  0.3545E+02  0.5078E+03
   3.890  0.4547E+02  0.3739E+02  0.5086E+03
   3.900  0.4873E+02  0.3938E+02  0.5095E+03
   3.910  0.4179E+02  0.4930E+02  0.5104E+03
   3.920  0.3691E+02  0.4265E+02  0.5113E+03
   3.930  0.3251E+02  0.3303E+02  0.5120E+03
   3.940  0.3151E+02  0.2744E+02  0.5126E+03
   3.950  0.2984E+02  0.2682E+02  0.5132E+03
   3.960  0.2577E+02  0.2446E+02  0.5137E+03
   3.970  0.2438E+02  0.2288E+02  0.5142E+03
   3.980  0.2387E+02  0.2247E+02  0.5147E+03
   3.990  0.2488E+02  0.2315E+02  0.5152E+03
   4.000  0.2657E+02  0.2391E+02  0.5157E+03
   4.010  0.2694E+02  0.2377E+02  0.5162E+03
   4.020  0.2123E+02  0.2446E+02  0.5167E+03
   4.030  0.2064E+02  0.2441E+02  0.5171E+03
   4.040  0.2065E+02  0.2430E+02  0.5176E+03
   4.050  0.2117E+02  0.2467E+02  0.5180E+03
   4.060  0.2196E+02  0.2510E+02  0.5185E+03
   4.070  0.2302E+02  0.2575E+02  0.5190E+03
   4.080  0.2394E+02  0.2688E+02  0.5195E+03
   4.090  0.2448E+02  0.2853E+02  0.5200E+03
   4.100  0.2695E+02  0.2880E+02  0.5205E+03
   4.110  0.2603E+02  0.3048E+02  0.5211E+03
   4.120  0.3020E+02  0.2692E+02  0.5217E+03
   4.130  0.2937E+02  0.2793E+02  0.5222E+03
   4.140  0.2972E+02  0.2938E+02  0.5228E+03
   4.150  0.3020E+02  0.3079E+02  0.5234E+03
   4.160  0.3077E+02  0.3252E+02  0.5240E+03
   4.170  0.3152E+02  0.3503E+02  0.5247E+03
   4.180  0.3145E+02  0.3415E+02  0.5253E+03
   4.190  0.3146E+02  0.3302E+02  0.5260E+03
   4.200  0.3099E+02  0.3206E+02  0.5266E+03
   4.210  0.3216E+02  0.3115E+02  0.5273E+03
   4.220  0.3344E+02  0.3106E+02  0.5279E+03
   4.230  0.3234E+02  0.3065E+02  0.5285E+03
   4.240  0.3198E+02  0.3020E+02  0.5292E+03
   4.250  0.3227E+02  0.3010E+02  0.5298E+03
   4.260  0.3167E+02  0.3113E+02  0.5304E+03
   4.270  0.3140E+02  0.3138E+02  0.5310E+03
   4.280  0.3178E+02  0.3255E+02  0.5317E+03
   4.290  0.3182E+02  0.3427E+02  0.5323E+03
   4.300  0.3240E+02  0.3369E+02  0.5330E+03
   4.310  0.3179E+02  0.3368E+02  0.5336E+03
   4.320  0.3055E+02  0.3689E+02  0.5343E+03
   4.330  0.2920E+02  0.3331E+02  0.5350E+03
   4.340  0.2873E+02  0.3336E+02  0.5356E+03
   4.350  0.2964E+02  0.3403E+02  0.5362E+03
   4.360  0.3537E+02  0.3344E+02  0.5369E+03
   4.370  0.3676E+02  0.3292E+02  0.5376E+03
   4.380  0.3880E+02  0.3200E+02  0.5383E+03
   4.390  0.3868E+02  0.3012E+02  0.5390E+03
   4.400  0.3604E+02  0.2983E+02  0.5396E+03
   4.410  0.3352E+02  0.2929E+02  0.5403E+03
   4.420  0.3437E+02  0.2765E+02  0.5409E+03
   4.430  0.3716E+02  0.2714E+02  0.5415E+03
   4.440  0.3389E+02  0.2653E+02  0.5422E+03
   4.450  0.3262E+02  0.2571E+02  0.5428E+03
   4.460  0.3081E+02  0.2580E+02  0.5433E+03
   4.470  0.2972E+02  0.2516E+02  0.5439E+03
   4.480  0.2755E+02  0.2350E+02  0.5444E+03
   4.490  0.2543E+02  0.2217E+02  0.5449E+03
   4.500  0.2309E+02  0.2178E+02  0.5454E+03
   4.510  0.2077E+02  0.2244E+02  0.5458E+03
   4.520  0.1879E+02  0.2430E+02  0.5462E+03
   4.530  0.1778E+02  0.2634E+02  0.5467E+03
   4.540  0.1738E+02  0.2730E+02  0.5471E+03
   4.550  0.2079E+02  0.2810E+02  0.5476E+03
   4.560  0.2306E+02  0.2582E+02  0.5481E+03
   4.570  0.2412E+02  0.2755E+02  0.5486E+03
   4.580  0.2128E+02  0.2735E+02  0.5491E+03
   4.590  0.2219E+02  0.2764E+02  0.5496E+03
   4.600  0.2373E+02  0.2698E+02  0.5501E+03
   4.610  0.2470E+02  0.2659E+02  0.5506E+03
   4.620  0.2610E+02  0.2693E+02  0.5511E+03
   4.630  0.2688E+02  0.2732E+02  0.5516E+03
   4.640  0.2781E+02  0.2708E+02  0.5522E+03
   4.650  0.2807E+02  0.2749E+02  0.5527E+03
   4.660  0.2806E+02  0.2849E+02  0.5533E+03
   4.670  0.2876E+02  0.3077E+02  0.5539E+03
   4.680  0.2866E+02  0.3114E+02  0.5545E+03
   4.690  0.3117E+02  0.3127E+02  0.5551E+03
   4.700  0.3134E+02  0.2982E+02  0.5557E+03
   4.710  0.2902E+02  0.2846E+02  0.5563E+03
   4.720  0.2760E+02  0.2926E+02  0.5569E+03
   4.730  0.2924E+02  0.3325E+02  0.5575E+03
   4.740  0.3095E+02  0.3410E+02  0.5581E+03
   4.750  0.4382E+02  0.3474E+02  0.5588E+03
   4.760  0.3121E+02  0.4052E+02  0.5596E+03
   4.770  0.3271E+02  0.3113E+02  0.5603E+03
   4.780  0.2414E+02  0.2313E+02  0.5608E+03
   4.790  0.2310E+02  0.2091E+02  0.5613E+03
   4.800  0.2740E+02  0.1941E+02  0.5617E+03
   4.810  0.3160E+02  0.1830E+02  0.5622E+03
   4.820  0.2684E+02  0.1735E+02  0.5627E+03
   4.830  0.2353E+02  0.1656E+02  0.5631E+03
   4.840  0.2326E+02  0.1594E+02  0.5635E+03
   4.850  0.2994E+02  0.1549E+02  0.5639E+03
   4.860  0.2428E+02  0.1513E+02  0.5644E+03
   4.870  0.2104E+02  0.1485E+02  0.5647E+03
   4.880  0.1834E+02  0.1461E+02  0.5651E+03
   4.890  0.1639E+02  0.1439E+02  0.5654E+03
   4.900  0.2129E+02  0.1419E+02  0.5657E+03
   4.910  0.1713E+02  0.1391E+02  0.5660E+03
   4.920  0.1773E+02  0.1373E+02  0.5664E+03
   4.930  0.2131E+02  0.1752E+02  0.5667E+03
   4.940  0.1994E+02  0.1291E+02  0.5671E+03
   4.950  0.1819E+02  0.1308E+02  0.5674E+03
   4.960  0.1761E+02  0.1344E+02  0.5677E+03
   4.970  0.1726E+02  0.1520E+02  0.5680E+03
   4.980  0.1776E+02  0.1620E+02  0.5683E+03
   4.990  0.1832E+02  0.1479E+02  0.5687E+03
   5.000  0.1809E+02  0.1493E+02  0.5690E+03
   5.010  0.1695E+02  0.1525E+02  0.5693E+03
   5.020  0.1633E+02  0.1546E+02  0.5697E+03
   5.030  0.1572E+02  0.1631E+02  0.5700E+03
   5.040  0.1546E+02  0.1831E+02  0.5703E+03
   5.050  0.1540E+02  0.1988E+02  0.5707E+03
   5.060  0.1518E+02  0.1676E+02  0.5710E+03
   5.070  0.1480E+02  0.1341E+02  0.5713E+03
   5.080  0.1427E+02  0.1196E+02  0.5716E+03
   5.090  0.1341E+02  0.1098E+02  0.5718E+03
   5.100  0.1233E+02  0.1043E+02  0.5721E+03
   5.110  0.1154E+02  0.9877E+01  0.5723E+03
   5.120  0.1111E+02  0.9443E+01  0.5725E+03
   5.130  0.1316E+02  0.8828E+01  0.5727E+03
   5.140  0.1451E+02  0.8119E+01  0.5729E+03
   5.150  0.2250E+02  0.7381E+01  0.5732E+03
   5.160  0.2123E+02  0.7202E+01  0.5735E+03
   5.170  0.1443E+02  0.9822E+01  0.5737E+03
   5.180  0.1011E+02  0.1356E+02  0.5740E+03
   5.190  0.9525E+01  0.1444E+02  0.5742E+03
   5.200  0.9096E+01  0.1205E+02  0.5744E+03
   5.210  0.8676E+01  0.9800E+01  0.5746E+03
   5.220  0.8213E+01  0.8189E+01  0.5748E+03
   5.230  0.7707E+01  0.8243E+01  0.5750E+03
   5.240  0.7159E+01  0.8730E+01  0.5751E+03
   5.250  0.6573E+01  0.9235E+01  0.5753E+03
   5.260  0.5979E+01  0.9758E+01  0.5755E+03
   5.270  0.5418E+01  0.1028E+02  0.5756E+03
   5.280  0.5156E+01  0.1075E+02  0.5758E+03
   5.290  0.5331E+01  0.1103E+02  0.5759E+03
   5.300  0.6113E+01  0.1076E+02  0.5761E+03
   5.310  0.6443E+01  0.1003E+02  0.5763E+03
   5.320  0.7194E+01  0.9411E+01  0.5764E+03
   5.330  0.8211E+01  0.8595E+01  0.5766E+03
   5.340  0.1033E+02  0.7727E+01  0.5768E+03
   5.350  0.1318E+02  0.6808E+01  0.5770E+03
   5.360  0.1508E+02  0.5837E+01  0.5772E+03
   5.370  0.1522E+02  0.4812E+01  0.5774E+03
   5.380  0.1447E+02  0.3926E+01  0.5776E+03
   5.390  0.1356E+02  0.8507E+01  0.5778E+03
   5.400  0.1300E+02  0.4549E+01  0.5779E+03
   5.410  0.1188E+02  0.1079E+02  0.5781E+03
   5.420  0.1074E+02  0.2397E+02  0.5784E+03
   5.430  0.9580E+01  0.2777E+02  0.5788E+03
   5.440  0.8407E+01  0.2170E+02  0.5791E+03
   5.450  0.7218E+01  0.1466E+02  0.5794E+03
   5.460  0.6001E+01  0.1969E+02  0.5796E+03
   5.470  0.5105E+01  0.2939E+02  0.5799E+03
   5.480  0.4515E+01  0.2631E+02  0.5803E+03
   5.490  0.3971E+01  0.9878E+01  0.5805E+03
   5.500  0.3517E+01  0.6464E+01  0.5806E+03
   5.510  0.3195E+01  0.4299E+01  0.5807E+03
   5.520  0.3223E+01  0.2261E+01  0.5808E+03
   5.530  0.3434E+01  0.1335E+01  0.5808E+03
   5.540  0.3421E+01  0.6524E+00  0.5809E+03
   5.550  0.3227E+01  0.2120E+00  0.5809E+03
   5.560  0.2851E+01  0.1366E-01  0.5809E+03
   5.570  0.2291E+01  0.0000E+00  0.5810E+03
   5.580  0.1536E+01  0.0000E+00  0.5810E+03
   5.590  0.6824E+00  0.0000E+00  0.5810E+03
   5.600  0.3107E+00  0.0000E+00  0.5810E+03
   5.610  0.1477E+00  0.0000E+00  0.5810E+03
   5.620  0.4566E-01  0.0000E+00  0.5810E+03
   5.630  0.4096E-02  0.0000E+00  0.5810E+03
   5.640  0.6710E-03  0.0000E+00  0.5810E+03
   5.650  0.1319E-03  0.0000E+00  0.5810E+03
   5.660  0.0000E+00  0.0000E+00  0.5810E+03
   5.670  0.0000E+00  0.0000E+00  0.5810E+03
   5.680  0.0000E+00  0.0000E+00  0.5810E+03
   5.690  0.0000E+00  0.0000E+00  0.5810E+03
   5.700  0.0000E+00  0.0000E+00  0.5810E+03
   5.710  0.0000E+00  0.0000E+00  0.5810E+03
   5.720  0.0000E+00  0.0000E+00  0.5810E+03
   5.730  0.0000E+00  0.0000E+00  0.5810E+03
   5.740  0.0000E+00  0.0000E+00  0.5810E+03
   5.750  0.0000E+00  0.0000E+00  0.5810E+03
   5.760  0.0000E+00  0.0000E+00  0.5810E+03
   5.770  0.0000E+00  0.0000E+00  0.5810E+03
   5.780  0.0000E+00  0.0000E+00  0.5810E+03
   5.790  0.0000E+00  0.0000E+00  0.5810E+03
   5.800  0.0000E+00  0.0000E+00  0.5810E+03
   5.810  0.0000E+00  0.0000E+00  0.5810E+03
   5.820  0.0000E+00  0.0000E+00  0.5810E+03
   5.830  0.0000E+00  0.0000E+00  0.5810E+03
   5.840  0.0000E+00  0.0000E+00  0.5810E+03
   5.850  0.0000E+00  0.0000E+00  0.5810E+03
   5.860  0.0000E+00  0.0000E+00  0.5810E+03
   5.870  0.0000E+00  0.0000E+00  0.5810E+03
   5.880  0.0000E+00  0.0000E+00  0.5810E+03
   5.890  0.0000E+00  0.0000E+00  0.5810E+03
   5.900  0.0000E+00  0.0000E+00  0.5810E+03
   5.910  0.0000E+00  0.0000E+00  0.5810E+03
   5.920  0.0000E+00  0.0000E+00  0.5810E+03
   5.930  0.0000E+00  0.0000E+00  0.5810E+03
   5.940  0.0000E+00  0.0000E+00  0.5810E+03
   5.950  0.0000E+00  0.0000E+00  0.5810E+03
   5.960  0.0000E+00  0.0000E+00  0.5810E+03
   5.970  0.0000E+00  0.0000E+00  0.5810E+03
   5.980  0.0000E+00  0.0000E+00  0.5810E+03
   5.990  0.0000E+00  0.0000E+00  0.5810E+03
   6.000  0.0000E+00  0.0000E+00  0.5810E+03
   6.010  0.0000E+00  0.0000E+00  0.5810E+03
   6.020  0.0000E+00  0.0000E+00  0.5810E+03
   6.030  0.0000E+00  0.0000E+00  0.5810E+03
   6.040  0.0000E+00  0.0000E+00  0.5810E+03
   6.050  0.0000E+00  0.0000E+00  0.5810E+03
   6.060  0.0000E+00  0.0000E+00  0.5810E+03
   6.070  0.0000E+00  0.0000E+00  0.5810E+03
   6.080  0.0000E+00  0.0000E+00  0.5810E+03
   6.090  0.0000E+00  0.0000E+00  0.5810E+03
   6.100  0.0000E+00  0.0000E+00  0.5810E+03
   6.110  0.0000E+00  0.0000E+00  0.5810E+03
   6.120  0.0000E+00  0.0000E+00  0.5810E+03
   6.130  0.0000E+00  0.0000E+00  0.5810E+03
   6.140  0.0000E+00  0.0000E+00  0.5810E+03
   6.150  0.0000E+00  0.0000E+00  0.5810E+03
   6.160  0.0000E+00  0.0000E+00  0.5810E+03
   6.170  0.0000E+00  0.0000E+00  0.5810E+03
   6.180  0.0000E+00  0.0000E+00  0.5810E+03
   6.190  0.0000E+00  0.0000E+00  0.5810E+03
   6.200  0.0000E+00  0.0000E+00  0.5810E+03
   6.210  0.0000E+00  0.0000E+00  0.5810E+03
   6.220  0.0000E+00  0.0000E+00  0.5810E+03
   6.230  0.0000E+00  0.0000E+00  0.5810E+03
   6.240  0.0000E+00  0.0000E+00  0.5810E+03
   6.250  0.0000E+00  0.0000E+00  0.5810E+03
   6.260  0.0000E+00  0.0000E+00  0.5810E+03
   6.270  0.0000E+00  0.0000E+00  0.5810E+03
   6.280  0.0000E+00  0.0000E+00  0.5810E+03
   6.290  0.0000E+00  0.0000E+00  0.5810E+03
   6.300  0.0000E+00  0.0000E+00  0.5810E+03
   6.310  0.0000E+00  0.0000E+00  0.5810E+03
   6.320  0.0000E+00  0.0000E+00  0.5810E+03
   6.330  0.0000E+00  0.0000E+00  0.5810E+03
   6.340  0.0000E+00  0.0000E+00  0.5810E+03
   6.350  0.0000E+00  0.0000E+00  0.5810E+03
   6.360  0.0000E+00  0.0000E+00  0.5810E+03
   6.370  0.0000E+00  0.0000E+00  0.5810E+03
   6.380  0.0000E+00  0.0000E+00  0.5810E+03
   6.390  0.0000E+00  0.0000E+00  0.5810E+03
   6.400  0.0000E+00  0.0000E+00  0.5810E+03
   6.410  0.0000E+00  0.0000E+00  0.5810E+03
   6.420  0.0000E+00  0.0000E+00  0.5810E+03
   6.430  0.0000E+00  0.0000E+00  0.5810E+03
   6.440  0.0000E+00  0.0000E+00  0.5810E+03
   6.450  0.0000E+00  0.0000E+00  0.5810E+03
   6.460  0.0000E+00  0.0000E+00  0.5810E+03
   6.470  0.0000E+00  0.0000E+00  0.5810E+03
   6.480  0.0000E+00  0.0000E+00  0.5810E+03
   6.490  0.0000E+00  0.0000E+00  0.5810E+03
   6.500  0.0000E+00  0.0000E+00  0.5810E+03
   6.510  0.0000E+00  0.0000E+00  0.5810E+03
   6.520  0.0000E+00  0.0000E+00  0.5810E+03
   6.530  0.0000E+00  0.0000E+00  0.5810E+03
   6.540  0.0000E+00  0.1285E-01  0.5810E+03
   6.550  0.0000E+00  0.1497E+01  0.5810E+03
   6.560  0.0000E+00  0.7682E+01  0.5810E+03
   6.570  0.0000E+00  0.2603E+02  0.5812E+03
   6.580  0.0000E+00  0.3888E+02  0.5815E+03
   6.590  0.0000E+00  0.1469E+02  0.5818E+03
   6.600  0.0000E+00  0.2405E+02  0.5820E+03
   6.610  0.0000E+00  0.3421E+02  0.5823E+03
   6.620  0.0000E+00  0.5688E+02  0.5827E+03
   6.630  0.0000E+00  0.6491E+02  0.5833E+03
   6.640  0.0000E+00  0.1511E+02  0.5839E+03
   6.650  0.0000E+00  0.4715E+00  0.5840E+03
   6.660  0.0000E+00  0.4809E-03  0.5840E+03
   6.670  0.0000E+00  0.0000E+00  0.5840E+03
   6.680  0.0000E+00  0.0000E+00  0.5840E+03
   6.690  0.0000E+00  0.0000E+00  0.5840E+03
   6.700  0.0000E+00  0.0000E+00  0.5840E+03
   6.710  0.0000E+00  0.0000E+00  0.5840E+03
   6.720  0.0000E+00  0.0000E+00  0.5840E+03
   6.730  0.0000E+00  0.0000E+00  0.5840E+03
   6.740  0.0000E+00  0.0000E+00  0.5840E+03
   6.750  0.0000E+00  0.0000E+00  0.5840E+03
   6.760  0.0000E+00  0.0000E+00  0.5840E+03
   6.770  0.0000E+00  0.0000E+00  0.5840E+03
   6.780  0.0000E+00  0.0000E+00  0.5840E+03
   6.790  0.0000E+00  0.0000E+00  0.5840E+03
   6.800  0.0000E+00  0.0000E+00  0.5840E+03
   6.810  0.0000E+00  0.0000E+00  0.5840E+03
   6.820  0.0000E+00  0.0000E+00  0.5840E+03
   6.830  0.0000E+00  0.0000E+00  0.5840E+03
   6.840  0.0000E+00  0.0000E+00  0.5840E+03
   6.850  0.0000E+00  0.0000E+00  0.5840E+03
   6.860  0.0000E+00  0.0000E+00  0.5840E+03
   6.870  0.0000E+00  0.0000E+00  0.5840E+03
   6.880  0.0000E+00  0.0000E+00  0.5840E+03
   6.890  0.0000E+00  0.0000E+00  0.5840E+03
   6.900  0.0000E+00  0.0000E+00  0.5840E+03
   6.910  0.0000E+00  0.0000E+00  0.5840E+03
   6.920  0.0000E+00  0.0000E+00  0.5840E+03
   6.930  0.0000E+00  0.0000E+00  0.5840E+03
   6.940  0.0000E+00  0.0000E+00  0.5840E+03
   6.950  0.0000E+00  0.0000E+00  0.5840E+03
   6.960  0.0000E+00  0.0000E+00  0.5840E+03
   6.970  0.0000E+00  0.0000E+00  0.5840E+03
   6.980  0.0000E+00  0.0000E+00  0.5840E+03
   6.990  0.0000E+00  0.0000E+00  0.5840E+03
   7.000  0.0000E+00  0.0000E+00  0.5840E+03
   7.010  0.0000E+00  0.0000E+00  0.5840E+03
   7.020  0.0000E+00  0.0000E+00  0.5840E+03
   7.030  0.0000E+00  0.0000E+00  0.5840E+03
   7.040  0.0000E+00  0.0000E+00  0.5840E+03
   7.050  0.0000E+00  0.0000E+00  0.5840E+03
   7.060  0.0000E+00  0.0000E+00  0.5840E+03
   7.070  0.0000E+00  0.0000E+00  0.5840E+03
   7.080  0.0000E+00  0.0000E+00  0.5840E+03
   7.090  0.0000E+00  0.0000E+00  0.5840E+03
   7.100  0.0000E+00  0.0000E+00  0.5840E+03
   7.110  0.0000E+00  0.0000E+00  0.5840E+03
   7.120  0.0000E+00  0.0000E+00  0.5840E+03
   7.130  0.0000E+00  0.0000E+00  0.5840E+03
   7.140  0.0000E+00  0.0000E+00  0.5840E+03
   7.150  0.0000E+00  0.0000E+00  0.5840E+03
   7.160  0.0000E+00  0.0000E+00  0.5840E+03
   7.170  0.0000E+00  0.0000E+00  0.5840E+03
   7.180  0.0000E+00  0.0000E+00  0.5840E+03
   7.190  0.0000E+00  0.0000E+00  0.5840E+03
   7.200  0.0000E+00  0.0000E+00  0.5840E+03
   7.210  0.0000E+00  0.0000E+00  0.5840E+03
   7.220  0.0000E+00  0.0000E+00  0.5840E+03
   7.230  0.0000E+00  0.0000E+00  0.5840E+03
   7.240  0.0000E+00  0.0000E+00  0.5840E+03
   7.250  0.0000E+00  0.0000E+00  0.5840E+03
   7.260  0.0000E+00  0.0000E+00  0.5840E+03
   7.270  0.0000E+00  0.0000E+00  0.5840E+03
   7.280  0.0000E+00  0.0000E+00  0.5840E+03
   7.290  0.0000E+00  0.0000E+00  0.5840E+03
   7.300  0.0000E+00  0.0000E+00  0.5840E+03
   7.310  0.0000E+00  0.0000E+00  0.5840E+03
   7.320  0.0000E+00  0.0000E+00  0.5840E+03
   7.330  0.0000E+00  0.0000E+00  0.5840E+03
   7.340  0.0000E+00  0.0000E+00  0.5840E+03
   7.350  0.0000E+00  0.0000E+00  0.5840E+03
   7.360  0.0000E+00  0.0000E+00  0.5840E+03
   7.370  0.0000E+00  0.0000E+00  0.5840E+03
   7.380  0.0000E+00  0.0000E+00  0.5840E+03
   7.390  0.0000E+00  0.0000E+00  0.5840E+03
   7.400  0.0000E+00  0.0000E+00  0.5840E+03
   7.410  0.0000E+00  0.0000E+00  0.5840E+03
   7.420  0.0000E+00  0.0000E+00  0.5840E+03
   7.430  0.0000E+00  0.0000E+00  0.5840E+03
   7.440  0.0000E+00  0.0000E+00  0.5840E+03
   7.450  0.0000E+00  0.0000E+00  0.5840E+03
   7.460  0.0000E+00  0.0000E+00  0.5840E+03
   7.470  0.0000E+00  0.0000E+00  0.5840E+03
   7.480  0.8885E-05  0.0000E+00  0.5840E+03
   7.490  0.7600E-04  0.0000E+00  0.5840E+03
   7.500  0.2090E-03  0.2909E-04  0.5840E+03
   7.510  0.4263E-03  0.1228E-03  0.5840E+03
   7.520  0.8720E-03  0.2811E-03  0.5840E+03
   7.530  0.1576E-02  0.5822E-03  0.5840E+03
   7.540  0.2540E-02  0.1133E-02  0.5840E+03
   7.550  0.3762E-02  0.1935E-02  0.5840E+03
   7.560  0.5243E-02  0.2988E-02  0.5840E+03
   7.570  0.6983E-02  0.4292E-02  0.5840E+03
   7.580  0.8982E-02  0.5847E-02  0.5840E+03
   7.590  0.1124E-01  0.7652E-02  0.5840E+03
   7.600  0.1376E-01  0.9708E-02  0.5840E+03
   7.610  0.1653E-01  0.1202E-01  0.5840E+03
   7.620  0.1957E-01  0.1457E-01  0.5840E+03
   7.630  0.2286E-01  0.1738E-01  0.5840E+03
   7.640  0.2641E-01  0.2044E-01  0.5840E+03
   7.650  0.3022E-01  0.2375E-01  0.5840E+03
   7.660  0.3429E-01  0.2731E-01  0.5840E+03
   7.670  0.3862E-01  0.3113E-01  0.5840E+03
   7.680  0.4321E-01  0.3519E-01  0.5840E+03
   7.690  0.4805E-01  0.3950E-01  0.5840E+03
   7.700  0.5316E-01  0.4407E-01  0.5840E+03
   7.710  0.5852E-01  0.4888E-01  0.5840E+03
   7.720  0.6414E-01  0.5395E-01  0.5840E+03
   7.730  0.7003E-01  0.5927E-01  0.5840E+03
   7.740  0.7617E-01  0.6483E-01  0.5840E+03
   7.750  0.8257E-01  0.7065E-01  0.5840E+03
   7.760  0.8922E-01  0.7672E-01  0.5840E+03
   7.770  0.9614E-01  0.8304E-01  0.5840E+03
   7.780  0.1033E+00  0.8961E-01  0.5840E+03
   7.790  0.1108E+00  0.9644E-01  0.5840E+03
   7.800  0.1184E+00  0.1035E+00  0.5840E+03
   7.810  0.1264E+00  0.1108E+00  0.5840E+03
   7.820  0.1346E+00  0.1184E+00  0.5840E+03
   7.830  0.1431E+00  0.1262E+00  0.5840E+03
   7.840  0.1518E+00  0.1343E+00  0.5840E+03
   7.850  0.1608E+00  0.1426E+00  0.5840E+03
   7.860  0.1700E+00  0.1512E+00  0.5840E+03
   7.870  0.1795E+00  0.1600E+00  0.5840E+03
   7.880  0.1885E+00  0.1691E+00  0.5840E+03
   7.890  0.1975E+00  0.1785E+00  0.5840E+03
   7.900  0.2076E+00  0.1874E+00  0.5841E+03
   7.910  0.2188E+00  0.1962E+00  0.5841E+03
   7.920  0.2318E+00  0.2060E+00  0.5841E+03
   7.930  0.2463E+00  0.2172E+00  0.5841E+03
   7.940  0.2599E+00  0.2301E+00  0.5841E+03
   7.950  0.2727E+00  0.2449E+00  0.5841E+03
   7.960  0.2849E+00  0.2588E+00  0.5841E+03
   7.970  0.2964E+00  0.2718E+00  0.5841E+03
   7.980  0.3075E+00  0.2843E+00  0.5841E+03
   7.990  0.3183E+00  0.2961E+00  0.5841E+03
   8.000  0.3287E+00  0.3074E+00  0.5841E+03
   8.010  0.3388E+00  0.3184E+00  0.5841E+03
   8.020  0.3487E+00  0.3290E+00  0.5841E+03
   8.030  0.3584E+00  0.3394E+00  0.5841E+03
   8.040  0.3679E+00  0.3495E+00  0.5841E+03
   8.050  0.3772E+00  0.3594E+00  0.5841E+03
   8.060  0.3862E+00  0.3691E+00  0.5841E+03
   8.070  0.3951E+00  0.3785E+00  0.5842E+03
   8.080  0.4037E+00  0.3878E+00  0.5842E+03
   8.090  0.4122E+00  0.3969E+00  0.5842E+03
   8.100  0.4204E+00  0.4058E+00  0.5842E+03
   8.110  0.4285E+00  0.4144E+00  0.5842E+03
   8.120  0.4363E+00  0.4229E+00  0.5842E+03
   8.130  0.4439E+00  0.4311E+00  0.5842E+03
   8.140  0.4513E+00  0.4392E+00  0.5842E+03
   8.150  0.4585E+00  0.4470E+00  0.5842E+03
   8.160  0.4653E+00  0.4546E+00  0.5842E+03
   8.170  0.4698E+00  0.4621E+00  0.5842E+03
   8.180  0.4720E+00  0.4690E+00  0.5842E+03
   8.190  0.4722E+00  0.4736E+00  0.5843E+03
   8.200  0.4714E+00  0.4759E+00  0.5843E+03
   8.210  0.4727E+00  0.4759E+00  0.5843E+03
   8.220  0.4746E+00  0.4753E+00  0.5843E+03
   8.230  0.4778E+00  0.4766E+00  0.5843E+03
   8.240  0.4809E+00  0.4786E+00  0.5843E+03
   8.250  0.4838E+00  0.4820E+00  0.5843E+03
   8.260  0.4865E+00  0.4851E+00  0.5843E+03
   8.270  0.4895E+00  0.4881E+00  0.5843E+03
   8.280  0.4930E+00  0.4909E+00  0.5843E+03
   8.290  0.4968E+00  0.4941E+00  0.5844E+03
   8.300  0.5015E+00  0.4977E+00  0.5844E+03
   8.310  0.5069E+00  0.5017E+00  0.5844E+03
   8.320  0.5133E+00  0.5066E+00  0.5844E+03
   8.330  0.5205E+00  0.5124E+00  0.5844E+03
   8.340  0.5287E+00  0.5190E+00  0.5844E+03
   8.350  0.5382E+00  0.5266E+00  0.5844E+03
   8.360  0.5495E+00  0.5352E+00  0.5844E+03
   8.370  0.5619E+00  0.5454E+00  0.5844E+03
   8.380  0.5750E+00  0.5572E+00  0.5844E+03
   8.390  0.5883E+00  0.5702E+00  0.5845E+03
   8.400  0.6017E+00  0.5836E+00  0.5845E+03
   8.410  0.6153E+00  0.5972E+00  0.5845E+03
   8.420  0.6291E+00  0.6109E+00  0.5845E+03
   8.430  0.6428E+00  0.6248E+00  0.5845E+03
   8.440  0.6565E+00  0.6389E+00  0.5845E+03
   8.450  0.6705E+00  0.6529E+00  0.5845E+03
   8.460  0.6847E+00  0.6670E+00  0.5845E+03
   8.470  0.6991E+00  0.6813E+00  0.5846E+03
   8.480  0.7139E+00  0.6959E+00  0.5846E+03
   8.490  0.7290E+00  0.7108E+00  0.5846E+03
   8.500  0.7445E+00  0.7260E+00  0.5846E+03
   8.510  0.7603E+00  0.7416E+00  0.5846E+03
   8.520  0.7766E+00  0.7575E+00  0.5846E+03
   8.530  0.7934E+00  0.7738E+00  0.5846E+03
   8.540  0.8106E+00  0.7906E+00  0.5847E+03
   8.550  0.8284E+00  0.8080E+00  0.5847E+03
   8.560  0.8467E+00  0.8258E+00  0.5847E+03
   8.570  0.8655E+00  0.8442E+00  0.5847E+03
   8.580  0.8848E+00  0.8631E+00  0.5847E+03
   8.590  0.9047E+00  0.8826E+00  0.5848E+03
   8.600  0.9250E+00  0.9026E+00  0.5848E+03
   8.610  0.9458E+00  0.9230E+00  0.5848E+03
   8.620  0.9672E+00  0.9441E+00  0.5848E+03
   8.630  0.9890E+00  0.9656E+00  0.5848E+03
   8.640  0.1011E+01  0.9876E+00  0.5848E+03
   8.650  0.1034E+01  0.1010E+01  0.5849E+03
   8.660  0.1058E+01  0.1033E+01  0.5849E+03
   8.670  0.1081E+01  0.1057E+01  0.5849E+03
   8.680  0.1106E+01  0.1081E+01  0.5849E+03
   8.690  0.1131E+01  0.1106E+01  0.5850E+03
   8.700  0.1156E+01  0.1131E+01  0.5850E+03
   8.710  0.1182E+01  0.1157E+01  0.5850E+03
   8.720  0.1208E+01  0.1183E+01  0.5850E+03
   8.730  0.1235E+01  0.1210E+01  0.5850E+03
   8.740  0.1263E+01  0.1237E+01  0.5851E+03
   8.750  0.1290E+01  0.1265E+01  0.5851E+03
   8.760  0.1317E+01  0.1293E+01  0.5851E+03
   8.770  0.1358E+01  0.1321E+01  0.5851E+03
   8.780  0.1416E+01  0.1349E+01  0.5852E+03
   8.790  0.1492E+01  0.1391E+01  0.5852E+03
   8.800  0.1588E+01  0.1452E+01  0.5852E+03
   8.810  0.1701E+01  0.1532E+01  0.5853E+03
   8.820  0.1830E+01  0.1634E+01  0.5853E+03
   8.830  0.1976E+01  0.1752E+01  0.5853E+03
   8.840  0.2142E+01  0.1887E+01  0.5854E+03
   8.850  0.2318E+01  0.2040E+01  0.5854E+03
   8.860  0.2608E+01  0.2209E+01  0.5855E+03
   8.870  0.3175E+01  0.2391E+01  0.5855E+03
   8.880  0.5067E+01  0.2728E+01  0.5856E+03
   8.890  0.5593E+01  0.3402E+01  0.5857E+03
   8.900  0.5528E+01  0.5890E+01  0.5858E+03
   8.910  0.5545E+01  0.5783E+01  0.5859E+03
   8.920  0.5714E+01  0.5738E+01  0.5860E+03
   8.930  0.6108E+01  0.5803E+01  0.5861E+03
   8.940  0.6441E+01  0.6174E+01  0.5862E+03
   8.950  0.6652E+01  0.6580E+01  0.5864E+03
   8.960  0.6835E+01  0.6831E+01  0.5865E+03
   8.970  0.6981E+01  0.7046E+01  0.5866E+03
   8.980  0.7037E+01  0.7182E+01  0.5868E+03
   8.990  0.7070E+01  0.7233E+01  0.5869E+03
   9.000  0.7091E+01  0.7258E+01  0.5871E+03
   9.010  0.7088E+01  0.7267E+01  0.5872E+03
   9.020  0.7148E+01  0.7239E+01  0.5873E+03
   9.030  0.7180E+01  0.7259E+01  0.5875E+03
   9.040  0.7198E+01  0.7249E+01  0.5876E+03
   9.050  0.7103E+01  0.7224E+01  0.5878E+03
   9.060  0.6917E+01  0.7032E+01  0.5879E+03
   9.070  0.6719E+01  0.6779E+01  0.5881E+03
   9.080  0.7314E+01  0.6524E+01  0.5882E+03
   9.090  0.7245E+01  0.7011E+01  0.5883E+03
   9.100  0.5430E+01  0.6993E+01  0.5885E+03
   9.110  0.5337E+01  0.5340E+01  0.5886E+03
   9.120  0.5614E+01  0.5135E+01  0.5887E+03
   9.130  0.5922E+01  0.5395E+01  0.5888E+03
   9.140  0.6226E+01  0.5698E+01  0.5889E+03
   9.150  0.6492E+01  0.5989E+01  0.5890E+03
   9.160  0.6726E+01  0.6228E+01  0.5892E+03
   9.170  0.6998E+01  0.6451E+01  0.5893E+03
   9.180  0.7288E+01  0.6671E+01  0.5894E+03
   9.190  0.7589E+01  0.6957E+01  0.5896E+03
   9.200  0.7903E+01  0.7243E+01  0.5897E+03
   9.210  0.8208E+01  0.7527E+01  0.5899E+03
   9.220  0.8489E+01  0.7828E+01  0.5900E+03
   9.230  0.8772E+01  0.8145E+01  0.5902E+03
   9.240  0.9060E+01  0.8459E+01  0.5904E+03
   9.250  0.9347E+01  0.8762E+01  0.5906E+03
   9.260  0.9694E+01  0.9056E+01  0.5907E+03
   9.270  0.1005E+02  0.9356E+01  0.5909E+03
   9.280  0.1041E+02  0.9655E+01  0.5911E+03
   9.290  0.1076E+02  0.1000E+02  0.5913E+03
   9.300  0.1114E+02  0.1039E+02  0.5915E+03
   9.310  0.1153E+02  0.1078E+02  0.5918E+03
   9.320  0.1194E+02  0.1116E+02  0.5920E+03
   9.330  0.1237E+02  0.1156E+02  0.5922E+03
   9.340  0.1281E+02  0.1199E+02  0.5925E+03
   9.350  0.1322E+02  0.1243E+02  0.5927E+03
   9.360  0.1369E+02  0.1289E+02  0.5930E+03
   9.370  0.1432E+02  0.1334E+02  0.5933E+03
   9.380  0.1490E+02  0.1375E+02  0.5935E+03
   9.390  0.1550E+02  0.1428E+02  0.5938E+03
   9.400  0.1612E+02  0.1511E+02  0.5941E+03
   9.410  0.1657E+02  0.1593E+02  0.5944E+03
   9.420  0.1679E+02  0.1672E+02  0.5948E+03
   9.430  0.1678E+02  0.1726E+02  0.5951E+03
   9.440  0.1658E+02  0.1756E+02  0.5955E+03
   9.450  0.1647E+02  0.1762E+02  0.5958E+03
   9.460  0.1659E+02  0.1736E+02  0.5961E+03
   9.470  0.1692E+02  0.1728E+02  0.5965E+03
   9.480  0.1727E+02  0.1760E+02  0.5968E+03
   9.490  0.1703E+02  0.1809E+02  0.5972E+03
   9.500  0.1596E+02  0.1746E+02  0.5975E+03
   9.510  0.1746E+02  0.1636E+02  0.5978E+03
   9.520  0.1661E+02  0.1883E+02  0.5982E+03
   9.530  0.1842E+02  0.1555E+02  0.5985E+03
   9.540  0.1903E+02  0.1733E+02  0.5989E+03
   9.550  0.1798E+02  0.1827E+02  0.5993E+03
   9.560  0.1641E+02  0.1769E+02  0.5996E+03
   9.570  0.1589E+02  0.1607E+02  0.5999E+03
   9.580  0.1530E+02  0.1588E+02  0.6003E+03
   9.590  0.1487E+02  0.1576E+02  0.6006E+03
   9.600  0.1472E+02  0.1587E+02  0.6009E+03
   9.610  0.1431E+02  0.1495E+02  0.6012E+03
   9.620  0.1412E+02  0.1467E+02  0.6015E+03
   9.630  0.1460E+02  0.1484E+02  0.6018E+03
   9.640  0.1516E+02  0.1509E+02  0.6021E+03
   9.650  0.1565E+02  0.1525E+02  0.6024E+03
   9.660  0.1592E+02  0.1534E+02  0.6027E+03
   9.670  0.1598E+02  0.1553E+02  0.6030E+03
   9.680  0.1556E+02  0.1601E+02  0.6033E+03
   9.690  0.1452E+02  0.1637E+02  0.6036E+03
   9.700  0.1339E+02  0.1567E+02  0.6039E+03
   9.710  0.1375E+02  0.1349E+02  0.6042E+03
   9.720  0.1480E+02  0.1255E+02  0.6045E+03
   9.730  0.1562E+02  0.1342E+02  0.6047E+03
   9.740  0.1628E+02  0.1479E+02  0.6050E+03
   9.750  0.1691E+02  0.1560E+02  0.6054E+03
   9.760  0.1755E+02  0.1628E+02  0.6057E+03
   9.770  0.1818E+02  0.1692E+02  0.6060E+03
   9.780  0.1881E+02  0.1753E+02  0.6064E+03
   9.790  0.1977E+02  0.1812E+02  0.6068E+03
   9.800  0.1996E+02  0.1886E+02  0.6072E+03
   9.810  0.1947E+02  0.1908E+02  0.6075E+03
   9.820  0.1889E+02  0.1920E+02  0.6079E+03
   9.830  0.1853E+02  0.1918E+02  0.6083E+03
   9.840  0.1843E+02  0.1906E+02  0.6087E+03
   9.850  0.1854E+02  0.1872E+02  0.6091E+03
   9.860  0.1883E+02  0.1841E+02  0.6094E+03
   9.870  0.1970E+02  0.1829E+02  0.6098E+03
   9.880  0.2570E+02  0.1860E+02  0.6102E+03
   9.890  0.3575E+02  0.2283E+02  0.6107E+03
   9.900  0.4963E+02  0.3293E+02  0.6114E+03
   9.910  0.5711E+02  0.4527E+02  0.6123E+03
   9.920  0.5616E+02  0.5661E+02  0.6134E+03
   9.930  0.4313E+02  0.5757E+02  0.6145E+03
   9.940  0.3694E+02  0.5090E+02  0.6155E+03
   9.950  0.3602E+02  0.4416E+02  0.6163E+03
   9.960  0.2881E+02  0.3648E+02  0.6170E+03
   9.970  0.2917E+02  0.2843E+02  0.6176E+03
   9.980  0.3265E+02  0.2747E+02  0.6182E+03
   9.990  0.3296E+02  0.3115E+02  0.6188E+03
  10.000  0.3046E+02  0.3237E+02  0.6195E+03
  10.010  0.3071E+02  0.3000E+02  0.6201E+03
  10.020  0.3119E+02  0.2866E+02  0.6207E+03
  10.030  0.3156E+02  0.2933E+02  0.6213E+03
  10.040  0.3185E+02  0.3019E+02  0.6219E+03
  10.050  0.3205E+02  0.3119E+02  0.6225E+03
  10.060  0.3206E+02  0.3194E+02  0.6232E+03
  10.070  0.3201E+02  0.3249E+02  0.6238E+03
  10.080  0.3187E+02  0.3274E+02  0.6245E+03
  10.090  0.3181E+02  0.3258E+02  0.6251E+03
  10.100  0.3200E+02  0.3211E+02  0.6258E+03
  10.110  0.3302E+02  0.3206E+02  0.6264E+03
  10.120  0.3333E+02  0.3239E+02  0.6271E+03
  10.130  0.3864E+02  0.3181E+02  0.6277E+03
  10.140  0.3513E+02  0.3150E+02  0.6284E+03
  10.150  0.2984E+02  0.3344E+02  0.6291E+03
  10.160  0.2836E+02  0.3303E+02  0.6297E+03
  10.170  0.2821E+02  0.2911E+02  0.6303E+03
  10.180  0.2866E+02  0.2815E+02  0.6308E+03
  10.190  0.2841E+02  0.2832E+02  0.6314E+03
  10.200  0.2721E+02  0.2806E+02  0.6320E+03
  10.210  0.2515E+02  0.2711E+02  0.6325E+03
  10.220  0.2260E+02  0.2577E+02  0.6330E+03
  10.230  0.2116E+02  0.2391E+02  0.6335E+03
  10.240  0.2050E+02  0.2136E+02  0.6339E+03
  10.250  0.2009E+02  0.2122E+02  0.6343E+03
  10.260  0.1975E+02  0.2110E+02  0.6347E+03
  10.270  0.1965E+02  0.2098E+02  0.6351E+03
  10.280  0.1950E+02  0.2092E+02  0.6356E+03
  10.290  0.1937E+02  0.2079E+02  0.6360E+03
  10.300  0.1927E+02  0.2060E+02  0.6364E+03
  10.310  0.1921E+02  0.2032E+02  0.6368E+03
  10.320  0.1920E+02  0.2001E+02  0.6371E+03
  10.330  0.1889E+02  0.1981E+02  0.6375E+03
  10.340  0.2138E+02  0.1884E+02  0.6379E+03
  10.350  0.2900E+02  0.2270E+02  0.6384E+03
  10.360  0.2907E+02  0.3163E+02  0.6390E+03
  10.370  0.2785E+02  0.2700E+02  0.6395E+03
  10.380  0.2864E+02  0.2796E+02  0.6401E+03
  10.390  0.3094E+02  0.2836E+02  0.6407E+03
  10.400  0.2989E+02  0.3200E+02  0.6413E+03
  10.410  0.2714E+02  0.2660E+02  0.6418E+03
  10.420  0.2450E+02  0.2433E+02  0.6424E+03
  10.430  0.2144E+02  0.2621E+02  0.6428E+03
  10.440  0.1869E+02  0.2291E+02  0.6433E+03
  10.450  0.1698E+02  0.1902E+02  0.6437E+03
  10.460  0.1623E+02  0.1737E+02  0.6440E+03
  10.470  0.1730E+02  0.1659E+02  0.6444E+03
  10.480  0.1882E+02  0.1655E+02  0.6447E+03
  10.490  0.1852E+02  0.1706E+02  0.6451E+03
  10.500  0.1742E+02  0.1792E+02  0.6454E+03
  10.510  0.1694E+02  0.1847E+02  0.6458E+03
  10.520  0.1655E+02  0.1843E+02  0.6461E+03
  10.530  0.1614E+02  0.1822E+02  0.6465E+03
  10.540  0.1559E+02  0.1784E+02  0.6468E+03
  10.550  0.1508E+02  0.1706E+02  0.6471E+03
  10.560  0.1474E+02  0.1615E+02  0.6474E+03
  10.570  0.1453E+02  0.1540E+02  0.6477E+03
  10.580  0.1438E+02  0.1474E+02  0.6480E+03
  10.590  0.1443E+02  0.1417E+02  0.6483E+03
  10.600  0.1450E+02  0.1387E+02  0.6486E+03
  10.610  0.1470E+02  0.1395E+02  0.6489E+03
  10.620  0.1497E+02  0.1391E+02  0.6492E+03
  10.630  0.1529E+02  0.1398E+02  0.6495E+03
  10.640  0.1568E+02  0.1416E+02  0.6498E+03
  10.650  0.1634E+02  0.1435E+02  0.6501E+03
  10.660  0.1721E+02  0.1446E+02  0.6504E+03
  10.670  0.1753E+02  0.1477E+02  0.6507E+03
  10.680  0.1787E+02  0.1545E+02  0.6510E+03
  10.690  0.1813E+02  0.1667E+02  0.6514E+03
  10.700  0.1775E+02  0.1880E+02  0.6517E+03
  10.710  0.1723E+02  0.1911E+02  0.6521E+03
  10.720  0.1666E+02  0.1813E+02  0.6525E+03
  10.730  0.1626E+02  0.1677E+02  0.6528E+03
  10.740  0.1694E+02  0.1533E+02  0.6531E+03
  10.750  0.1808E+02  0.1412E+02  0.6534E+03
  10.760  0.1900E+02  0.1396E+02  0.6538E+03
  10.770  0.2024E+02  0.1560E+02  0.6541E+03
  10.780  0.2025E+02  0.1688E+02  0.6545E+03
  10.790  0.1889E+02  0.1817E+02  0.6548E+03
  10.800  0.1743E+02  0.2007E+02  0.6552E+03
  10.810  0.1621E+02  0.2000E+02  0.6556E+03
  10.820  0.1472E+02  0.1916E+02  0.6559E+03
  10.830  0.1147E+02  0.1838E+02  0.6563E+03
  10.840  0.1208E+02  0.1613E+02  0.6566E+03
  10.850  0.1030E+02  0.1420E+02  0.6568E+03
  10.860  0.9671E+01  0.1214E+02  0.6571E+03
  10.870  0.1057E+02  0.9705E+01  0.6573E+03
  10.880  0.1292E+02  0.7835E+01  0.6575E+03
  10.890  0.1296E+02  0.7461E+01  0.6577E+03
  10.900  0.1199E+02  0.1111E+02  0.6579E+03
  10.910  0.1103E+02  0.1189E+02  0.6581E+03
  10.920  0.1027E+02  0.1204E+02  0.6583E+03
  10.930  0.1002E+02  0.1269E+02  0.6586E+03
  10.940  0.1009E+02  0.1315E+02  0.6588E+03
  10.950  0.1044E+02  0.1215E+02  0.6590E+03
  10.960  0.1445E+02  0.1170E+02  0.6593E+03
  10.970  0.9114E+01  0.1203E+02  0.6595E+03
  10.980  0.8392E+01  0.1174E+02  0.6597E+03
  10.990  0.8639E+01  0.1046E+02  0.6599E+03
  11.000  0.9509E+01  0.1481E+02  0.6601E+03
  11.010  0.1133E+02  0.8856E+01  0.6603E+03
  11.020  0.1310E+02  0.9375E+01  0.6605E+03
  11.030  0.1503E+02  0.1080E+02  0.6608E+03
  11.040  0.1766E+02  0.1242E+02  0.6611E+03
  11.050  0.2013E+02  0.1456E+02  0.6614E+03
  11.060  0.2249E+02  0.1666E+02  0.6617E+03
  11.070  0.2635E+02  0.1859E+02  0.6622E+03
  11.080  0.2395E+02  0.2251E+02  0.6626E+03
  11.090  0.2079E+02  0.2597E+02  0.6631E+03
  11.100  0.1965E+02  0.2349E+02  0.6636E+03
  11.110  0.1813E+02  0.2134E+02  0.6640E+03
  11.120  0.1589E+02  0.1865E+02  0.6644E+03
  11.130  0.1331E+02  0.1697E+02  0.6647E+03
  11.140  0.1064E+02  0.1477E+02  0.6650E+03
  11.150  0.8818E+01  0.1274E+02  0.6652E+03
  11.160  0.7956E+01  0.1083E+02  0.6654E+03
  11.170  0.7490E+01  0.9122E+01  0.6656E+03
  11.180  0.7301E+01  0.8329E+01  0.6657E+03
  11.190  0.7105E+01  0.8071E+01  0.6659E+03
  11.200  0.6961E+01  0.7857E+01  0.6661E+03
  11.210  0.6861E+01  0.7558E+01  0.6662E+03
  11.220  0.7164E+01  0.6986E+01  0.6663E+03
  11.230  0.7706E+01  0.6778E+01  0.6665E+03
  11.240  0.8098E+01  0.6690E+01  0.6666E+03
  11.250  0.8331E+01  0.6863E+01  0.6668E+03
  11.260  0.8405E+01  0.6881E+01  0.6669E+03
  11.270  0.8324E+01  0.6842E+01  0.6671E+03
  11.280  0.8221E+01  0.6819E+01  0.6672E+03
  11.290  0.8353E+01  0.6817E+01  0.6674E+03
  11.300  0.8469E+01  0.6838E+01  0.6675E+03
  11.310  0.8604E+01  0.6883E+01  0.6677E+03
  11.320  0.8778E+01  0.6992E+01  0.6678E+03
  11.330  0.9073E+01  0.8227E+01  0.6680E+03
  11.340  0.9407E+01  0.1056E+02  0.6682E+03
  11.350  0.9677E+01  0.1157E+02  0.6684E+03
  11.360  0.1015E+02  0.1203E+02  0.6686E+03
  11.370  0.1100E+02  0.1247E+02  0.6689E+03
  11.380  0.1204E+02  0.1293E+02  0.6691E+03
  11.390  0.1326E+02  0.1351E+02  0.6694E+03
  11.400  0.1476E+02  0.1422E+02  0.6696E+03
  11.410  0.1640E+02  0.1560E+02  0.6699E+03
  11.420  0.1821E+02  0.1726E+02  0.6703E+03
  11.430  0.2022E+02  0.1880E+02  0.6706E+03
  11.440  0.2250E+02  0.2057E+02  0.6711E+03
  11.450  0.2466E+02  0.2250E+02  0.6715E+03
  11.460  0.2729E+02  0.2464E+02  0.6720E+03
  11.470  0.2912E+02  0.2693E+02  0.6725E+03
  11.480  0.3053E+02  0.2868E+02  0.6731E+03
  11.490  0.3187E+02  0.2998E+02  0.6737E+03
  11.500  0.3382E+02  0.3138E+02  0.6744E+03
  11.510  0.3209E+02  0.3250E+02  0.6750E+03
  11.520  0.2947E+02  0.3124E+02  0.6756E+03
  11.530  0.2820E+02  0.2878E+02  0.6762E+03
  11.540  0.2673E+02  0.2780E+02  0.6768E+03
  11.550  0.2507E+02  0.2680E+02  0.6773E+03
  11.560  0.2361E+02  0.2586E+02  0.6778E+03
  11.570  0.2387E+02  0.2381E+02  0.6783E+03
  11.580  0.2479E+02  0.2264E+02  0.6788E+03
  11.590  0.2476E+02  0.2159E+02  0.6793E+03
  11.600  0.2463E+02  0.2179E+02  0.6797E+03
  11.610  0.2497E+02  0.2253E+02  0.6802E+03
  11.620  0.2431E+02  0.2282E+02  0.6807E+03
  11.630  0.2530E+02  0.2295E+02  0.6811E+03
  11.640  0.2239E+02  0.2442E+02  0.6816E+03
  11.650  0.2311E+02  0.2309E+02  0.6821E+03
  11.660  0.2478E+02  0.2209E+02  0.6826E+03
  11.670  0.2679E+02  0.2296E+02  0.6830E+03
  11.680  0.2861E+02  0.2454E+02  0.6836E+03
  11.690  0.2957E+02  0.2627E+02  0.6841E+03
  11.700  0.3122E+02  0.2772E+02  0.6847E+03
  11.710  0.3152E+02  0.3010E+02  0.6853E+03
  11.720  0.2894E+02  0.3038E+02  0.6859E+03
  11.730  0.2644E+02  0.2723E+02  0.6865E+03
  11.740  0.2389E+02  0.2608E+02  0.6870E+03
  11.750  0.2197E+02  0.2720E+02  0.6875E+03
  11.760  0.2096E+02  0.2720E+02  0.6880E+03
  11.770  0.2060E+02  0.2401E+02  0.6884E+03
  11.780  0.2198E+02  0.2236E+02  0.6889E+03
  11.790  0.2235E+02  0.2182E+02  0.6893E+03
  11.800  0.2099E+02  0.2207E+02  0.6897E+03
  11.810  0.1983E+02  0.2187E+02  0.6902E+03
  11.820  0.1921E+02  0.2196E+02  0.6906E+03
  11.830  0.1849E+02  0.2145E+02  0.6910E+03
  11.840  0.1752E+02  0.2046E+02  0.6914E+03
  11.850  0.1638E+02  0.1922E+02  0.6917E+03
  11.860  0.1506E+02  0.1780E+02  0.6921E+03
  11.870  0.1393E+02  0.1659E+02  0.6924E+03
  11.880  0.1349E+02  0.1558E+02  0.6927E+03
  11.890  0.1290E+02  0.1466E+02  0.6930E+03
  11.900  0.1204E+02  0.1375E+02  0.6932E+03
  11.910  0.1086E+02  0.1276E+02  0.6935E+03
  11.920  0.9453E+01  0.1203E+02  0.6937E+03
  11.930  0.8657E+01  0.1126E+02  0.6939E+03
  11.940  0.7962E+01  0.1032E+02  0.6941E+03
  11.950  0.7317E+01  0.9338E+01  0.6943E+03
  11.960  0.6765E+01  0.8404E+01  0.6945E+03
  11.970  0.6357E+01  0.7625E+01  0.6946E+03
  11.980  0.5993E+01  0.7101E+01  0.6947E+03
  11.990  0.6072E+01  0.6650E+01  0.6949E+03
  12.000  0.5516E+01  0.6750E+01  0.6950E+03
  12.010  0.4980E+01  0.6359E+01  0.6951E+03
  12.020  0.4489E+01  0.5951E+01  0.6952E+03
  12.030  0.4040E+01  0.5521E+01  0.6953E+03
  12.040  0.3633E+01  0.5067E+01  0.6954E+03
  12.050  0.3267E+01  0.4587E+01  0.6955E+03
  12.060  0.2943E+01  0.4082E+01  0.6956E+03
  12.070  0.2652E+01  0.3550E+01  0.6956E+03
  12.080  0.2373E+01  0.2985E+01  0.6957E+03
  12.090  0.2101E+01  0.2516E+01  0.6957E+03
  12.100  0.1892E+01  0.2250E+01  0.6958E+03
  12.110  0.1662E+01  0.1988E+01  0.6958E+03
  12.120  0.1444E+01  0.1720E+01  0.6959E+03
  12.130  0.1241E+01  0.1482E+01  0.6959E+03
  12.140  0.1054E+01  0.1264E+01  0.6959E+03
  12.150  0.8819E+00  0.1063E+01  0.6959E+03
  12.160  0.7253E+00  0.8801E+00  0.6959E+03
  12.170  0.5842E+00  0.7143E+00  0.6960E+03
  12.180  0.4584E+00  0.5660E+00  0.6960E+03
  12.190  0.3479E+00  0.4351E+00  0.6960E+03
  12.200  0.2529E+00  0.3216E+00  0.6960E+03
  12.210  0.1732E+00  0.2256E+00  0.6960E+03
  12.220  0.1089E+00  0.1470E+00  0.6960E+03
  12.230  0.5999E-01  0.8579E-01  0.6960E+03
  12.240  0.2645E-01  0.4201E-01  0.6960E+03
  12.250  0.8265E-02  0.1566E-01  0.6960E+03
  12.260  0.2065E-02  0.4455E-02  0.6960E+03
  12.270  0.2369E-03  0.7171E-03  0.6960E+03
  12.280  0.3937E-05  0.8649E-04  0.6960E+03
  12.290  0.0000E+00  0.0000E+00  0.6960E+03
  12.300  0.0000E+00  0.0000E+00  0.6960E+03
  12.310  0.0000E+00  0.0000E+00  0.6960E+03
  12.320  0.0000E+00  0.0000E+00  0.6960E+03
  12.330  0.0000E+00  0.0000E+00  0.6960E+03
  12.340  0.0000E+00  0.0000E+00  0.6960E+03
  12.350  0.0000E+00  0.0000E+00  0.6960E+03
  12.360  0.0000E+00  0.0000E+00  0.6960E+03
  12.370  0.0000E+00  0.0000E+00  0.6960E+03
  12.380  0.0000E+00  0.0000E+00  0.6960E+03
  12.390  0.0000E+00  0.0000E+00  0.6960E+03
  12.400  0.0000E+00  0.0000E+00  0.6960E+03
  12.410  0.0000E+00  0.0000E+00  0.6960E+03
  12.420  0.0000E+00  0.0000E+00  0.6960E+03
  12.430  0.0000E+00  0.0000E+00  0.6960E+03
  12.440  0.0000E+00  0.0000E+00  0.6960E+03
  12.450  0.0000E+00  0.0000E+00  0.6960E+03
  12.460  0.0000E+00  0.0000E+00  0.6960E+03
  12.470  0.0000E+00  0.0000E+00  0.6960E+03
  12.480  0.0000E+00  0.0000E+00  0.6960E+03
  12.490  0.0000E+00  0.0000E+00  0.6960E+03
  12.500  0.0000E+00  0.0000E+00  0.6960E+03
  12.510  0.0000E+00  0.0000E+00  0.6960E+03
  12.520  0.0000E+00  0.0000E+00  0.6960E+03
  12.530  0.0000E+00  0.0000E+00  0.6960E+03
  12.540  0.0000E+00  0.0000E+00  0.6960E+03
  12.550  0.0000E+00  0.0000E+00  0.6960E+03
  12.560  0.0000E+00  0.0000E+00  0.6960E+03
  12.570  0.0000E+00  0.0000E+00  0.6960E+03
  12.580  0.0000E+00  0.0000E+00  0.6960E+03
  12.590  0.0000E+00  0.0000E+00  0.6960E+03
  12.600  0.0000E+00  0.0000E+00  0.6960E+03
  12.610  0.0000E+00  0.0000E+00  0.6960E+03
  12.620  0.0000E+00  0.0000E+00  0.6960E+03
  12.630  0.0000E+00  0.0000E+00  0.6960E+03
  12.640  0.0000E+00  0.0000E+00  0.6960E+03
  12.650  0.0000E+00  0.0000E+00  0.6960E+03
  12.660  0.0000E+00  0.0000E+00  0.6960E+03
  12.670  0.0000E+00  0.0000E+00  0.6960E+03
  12.680  0.0000E+00  0.0000E+00  0.6960E+03
  12.690  0.0000E+00  0.0000E+00  0.6960E+03
  12.700  0.0000E+00  0.0000E+00  0.6960E+03
  12.710  0.0000E+00  0.0000E+00  0.6960E+03
  12.720  0.0000E+00  0.0000E+00  0.6960E+03
  12.730  0.0000E+00  0.0000E+00  0.6960E+03
  12.740  0.0000E+00  0.0000E+00  0.6960E+03
  12.750  0.0000E+00  0.0000E+00  0.6960E+03
  12.760  0.0000E+00  0.0000E+00  0.6960E+03
  12.770  0.0000E+00  0.0000E+00  0.6960E+03
  12.780  0.0000E+00  0.0000E+00  0.6960E+03
  12.790  0.0000E+00  0.0000E+00  0.6960E+03
  12.800  0.0000E+00  0.0000E+00  0.6960E+03
  12.810  0.0000E+00  0.0000E+00  0.6960E+03
  12.820  0.0000E+00  0.0000E+00  0.6960E+03
  12.830  0.0000E+00  0.0000E+00  0.6960E+03
  12.840  0.0000E+00  0.0000E+00  0.6960E+03
  12.850  0.0000E+00  0.0000E+00  0.6960E+03
  12.860  0.0000E+00  0.0000E+00  0.6960E+03
  12.870  0.0000E+00  0.0000E+00  0.6960E+03
  12.880  0.0000E+00  0.0000E+00  0.6960E+03
  12.890  0.0000E+00  0.0000E+00  0.6960E+03
  12.900  0.0000E+00  0.0000E+00  0.6960E+03
  12.910  0.0000E+00  0.0000E+00  0.6960E+03
  12.920  0.0000E+00  0.0000E+00  0.6960E+03
  12.930  0.0000E+00  0.0000E+00  0.6960E+03
  12.940  0.0000E+00  0.0000E+00  0.6960E+03
  12.950  0.0000E+00  0.0000E+00  0.6960E+03
  12.960  0.0000E+00  0.0000E+00  0.6960E+03
  12.970  0.0000E+00  0.0000E+00  0.6960E+03
  12.980  0.0000E+00  0.0000E+00  0.6960E+03
  12.990  0.0000E+00  0.0000E+00  0.6960E+03
  13.000  0.0000E+00  0.0000E+00  0.6960E+03
  13.010  0.0000E+00  0.0000E+00  0.6960E+03
  13.020  0.0000E+00  0.0000E+00  0.6960E+03
  13.030  0.0000E+00  0.0000E+00  0.6960E+03
  13.040  0.0000E+00  0.0000E+00  0.6960E+03
  13.050  0.0000E+00  0.0000E+00  0.6960E+03
  13.060  0.0000E+00  0.0000E+00  0.6960E+03
  13.070  0.0000E+00  0.0000E+00  0.6960E+03
  13.080  0.0000E+00  0.0000E+00  0.6960E+03
  13.090  0.0000E+00  0.0000E+00  0.6960E+03
  13.100  0.0000E+00  0.0000E+00  0.6960E+03
  13.110  0.0000E+00  0.0000E+00  0.6960E+03
  13.120  0.0000E+00  0.0000E+00  0.6960E+03
  13.130  0.0000E+00  0.0000E+00  0.6960E+03
  13.140  0.0000E+00  0.0000E+00  0.6960E+03
  13.150  0.0000E+00  0.0000E+00  0.6960E+03
  13.160  0.0000E+00  0.0000E+00  0.6960E+03
  13.170  0.0000E+00  0.0000E+00  0.6960E+03
  13.180  0.0000E+00  0.0000E+00  0.6960E+03
  13.190  0.0000E+00  0.0000E+00  0.6960E+03
  13.200  0.0000E+00  0.0000E+00  0.6960E+03
  13.210  0.0000E+00  0.0000E+00  0.6960E+03
  13.220  0.0000E+00  0.0000E+00  0.6960E+03
  13.230  0.0000E+00  0.0000E+00  0.6960E+03
  13.240  0.0000E+00  0.0000E+00  0.6960E+03
  13.250  0.0000E+00  0.0000E+00  0.6960E+03
  13.260  0.0000E+00  0.0000E+00  0.6960E+03
  13.270  0.0000E+00  0.0000E+00  0.6960E+03
  13.280  0.0000E+00  0.0000E+00  0.6960E+03
  13.290  0.0000E+00  0.0000E+00  0.6960E+03
  13.300  0.0000E+00  0.0000E+00  0.6960E+03
  13.310  0.0000E+00  0.0000E+00  0.6960E+03
  13.320  0.0000E+00  0.0000E+00  0.6960E+03
  13.330  0.0000E+00  0.0000E+00  0.6960E+03
  13.340  0.0000E+00  0.0000E+00  0.6960E+03
  13.350  0.0000E+00  0.0000E+00  0.6960E+03
  13.360  0.0000E+00  0.0000E+00  0.6960E+03
  13.370  0.0000E+00  0.0000E+00  0.6960E+03
  13.380  0.0000E+00  0.0000E+00  0.6960E+03
  13.390  0.0000E+00  0.0000E+00  0.6960E+03
  13.400  0.0000E+00  0.0000E+00  0.6960E+03
  13.410  0.0000E+00  0.0000E+00  0.6960E+03
  13.420  0.0000E+00  0.0000E+00  0.6960E+03
  13.430  0.0000E+00  0.0000E+00  0.6960E+03
  13.440  0.0000E+00  0.0000E+00  0.6960E+03
  13.450  0.0000E+00  0.0000E+00  0.6960E+03
  13.460  0.0000E+00  0.0000E+00  0.6960E+03
  13.470  0.0000E+00  0.0000E+00  0.6960E+03
  13.480  0.0000E+00  0.0000E+00  0.6960E+03
  13.490  0.0000E+00  0.0000E+00  0.6960E+03
  13.500  0.0000E+00  0.0000E+00  0.6960E+03
  13.510  0.0000E+00  0.0000E+00  0.6960E+03
  13.520  0.0000E+00  0.0000E+00  0.6960E+03
  13.530  0.0000E+00  0.0000E+00  0.6960E+03
  13.540  0.0000E+00  0.0000E+00  0.6960E+03
  13.550  0.0000E+00  0.0000E+00  0.6960E+03
  13.560  0.0000E+00  0.0000E+00  0.6960E+03
  13.570  0.0000E+00  0.0000E+00  0.6960E+03
  13.580  0.0000E+00  0.0000E+00  0.6960E+03
  13.590  0.0000E+00  0.0000E+00  0.6960E+03
  13.600  0.0000E+00  0.0000E+00  0.6960E+03
  13.610  0.0000E+00  0.0000E+00  0.6960E+03
  13.620  0.0000E+00  0.0000E+00  0.6960E+03
  13.630  0.0000E+00  0.0000E+00  0.6960E+03
  13.640  0.0000E+00  0.0000E+00  0.6960E+03
  13.650  0.0000E+00  0.0000E+00  0.6960E+03
  13.660  0.0000E+00  0.0000E+00  0.6960E+03
  13.670  0.0000E+00  0.0000E+00  0.6960E+03
  13.680  0.0000E+00  0.0000E+00  0.6960E+03
  13.690  0.0000E+00  0.0000E+00  0.6960E+03
  13.700  0.0000E+00  0.0000E+00  0.6960E+03
  13.710  0.0000E+00  0.0000E+00  0.6960E+03
  13.720  0.0000E+00  0.0000E+00  0.6960E+03
  13.730  0.0000E+00  0.0000E+00  0.6960E+03
  13.740  0.0000E+00  0.0000E+00  0.6960E+03
  13.750  0.0000E+00  0.0000E+00  0.6960E+03
  13.760  0.0000E+00  0.0000E+00  0.6960E+03
  13.770  0.0000E+00  0.0000E+00  0.6960E+03
  13.780  0.0000E+00  0.0000E+00  0.6960E+03
  13.790  0.0000E+00  0.0000E+00  0.6960E+03
  13.800  0.0000E+00  0.0000E+00  0.6960E+03
  13.810  0.0000E+00  0.0000E+00  0.6960E+03
  13.820  0.0000E+00  0.0000E+00  0.6960E+03
  13.830  0.0000E+00  0.0000E+00  0.6960E+03
  13.840  0.0000E+00  0.0000E+00  0.6960E+03
  13.850  0.0000E+00  0.0000E+00  0.6960E+03
  13.860  0.0000E+00  0.0000E+00  0.6960E+03
  13.870  0.0000E+00  0.0000E+00  0.6960E+03
  13.880  0.0000E+00  0.0000E+00  0.6960E+03
  13.890  0.0000E+00  0.0000E+00  0.6960E+03
  13.900  0.0000E+00  0.0000E+00  0.6960E+03
  13.910  0.0000E+00  0.0000E+00  0.6960E+03
  13.920  0.0000E+00  0.0000E+00  0.6960E+03
  13.930  0.0000E+00  0.0000E+00  0.6960E+03
  13.940  0.0000E+00  0.0000E+00  0.6960E+03
  13.950  0.0000E+00  0.0000E+00  0.6960E+03
  13.960  0.0000E+00  0.0000E+00  0.6960E+03
  13.970  0.0000E+00  0.0000E+00  0.6960E+03
  13.980  0.0000E+00  0.0000E+00  0.6960E+03
  13.990  0.0000E+00  0.0000E+00  0.6960E+03
  14.000  0.0000E+00  0.0000E+00  0.6960E+03
  14.010  0.0000E+00  0.0000E+00  0.6960E+03
  14.020  0.0000E+00  0.0000E+00  0.6960E+03
  14.030  0.0000E+00  0.0000E+00  0.6960E+03
  14.040  0.0000E+00  0.0000E+00  0.6960E+03
  14.050  0.0000E+00  0.0000E+00  0.6960E+03
  14.060  0.0000E+00  0.0000E+00  0.6960E+03
  14.070  0.0000E+00  0.0000E+00  0.6960E+03
  14.080  0.0000E+00  0.0000E+00  0.6960E+03
  14.090  0.0000E+00  0.0000E+00  0.6960E+03
  14.100  0.0000E+00  0.0000E+00  0.6960E+03
  14.110  0.0000E+00  0.0000E+00  0.6960E+03
  14.120  0.0000E+00  0.0000E+00  0.6960E+03
  14.130  0.0000E+00  0.0000E+00  0.6960E+03
  14.140  0.0000E+00  0.0000E+00  0.6960E+03
  14.150  0.0000E+00  0.0000E+00  0.6960E+03
  14.160  0.0000E+00  0.0000E+00  0.6960E+03
  14.170  0.0000E+00  0.0000E+00  0.6960E+03
  14.180  0.0000E+00  0.0000E+00  0.6960E+03
  14.190  0.0000E+00  0.0000E+00  0.6960E+03
  14.200  0.0000E+00  0.0000E+00  0.6960E+03
  14.210  0.0000E+00  0.0000E+00  0.6960E+03
  14.220  0.0000E+00  0.0000E+00  0.6960E+03
  14.230  0.0000E+00  0.0000E+00  0.6960E+03
  14.240  0.0000E+00  0.0000E+00  0.6960E+03
  14.250  0.0000E+00  0.0000E+00  0.6960E+03
  14.260  0.0000E+00  0.0000E+00  0.6960E+03
  14.270  0.0000E+00  0.0000E+00  0.6960E+03
  14.280  0.0000E+00  0.0000E+00  0.6960E+03
  14.290  0.0000E+00  0.0000E+00  0.6960E+03
  14.300  0.0000E+00  0.0000E+00  0.6960E+03
  14.310  0.0000E+00  0.0000E+00  0.6960E+03
  14.320  0.0000E+00  0.0000E+00  0.6960E+03
  14.330  0.0000E+00  0.0000E+00  0.6960E+03
  14.340  0.0000E+00  0.0000E+00  0.6960E+03
  14.350  0.0000E+00  0.0000E+00  0.6960E+03
  14.360  0.0000E+00  0.0000E+00  0.6960E+03
  14.370  0.0000E+00  0.0000E+00  0.6960E+03
  14.380  0.0000E+00  0.0000E+00  0.6960E+03
  14.390  0.0000E+00  0.0000E+00  0.6960E+03
  14.400  0.0000E+00  0.0000E+00  0.6960E+03
  14.410  0.0000E+00  0.0000E+00  0.6960E+03
  14.420  0.0000E+00  0.0000E+00  0.6960E+03
  14.430  0.0000E+00  0.0000E+00  0.6960E+03
  14.440  0.0000E+00  0.0000E+00  0.6960E+03
  14.450  0.0000E+00  0.0000E+00  0.6960E+03
  14.460  0.0000E+00  0.0000E+00  0.6960E+03
  14.470  0.0000E+00  0.0000E+00  0.6960E+03
  14.480  0.0000E+00  0.0000E+00  0.6960E+03
  14.490  0.0000E+00  0.0000E+00  0.6960E+03
  14.500  0.0000E+00  0.0000E+00  0.6960E+03
  14.510  0.0000E+00  0.0000E+00  0.6960E+03
  14.520  0.0000E+00  0.0000E+00  0.6960E+03
  14.530  0.0000E+00  0.0000E+00  0.6960E+03
  14.540  0.0000E+00  0.0000E+00  0.6960E+03
  14.550  0.0000E+00  0.0000E+00  0.6960E+03
  14.560  0.0000E+00  0.0000E+00  0.6960E+03
  14.570  0.0000E+00  0.0000E+00  0.6960E+03
  14.580  0.0000E+00  0.0000E+00  0.6960E+03
  14.590  0.0000E+00  0.0000E+00  0.6960E+03
  14.600  0.0000E+00  0.0000E+00  0.6960E+03
  14.610  0.0000E+00  0.0000E+00  0.6960E+03
  14.620  0.0000E+00  0.0000E+00  0.6960E+03
  14.630  0.0000E+00  0.0000E+00  0.6960E+03
  14.640  0.0000E+00  0.0000E+00  0.6960E+03
  14.650  0.0000E+00  0.0000E+00  0.6960E+03
  14.660  0.0000E+00  0.0000E+00  0.6960E+03
  14.670  0.0000E+00  0.0000E+00  0.6960E+03
  14.680  0.0000E+00  0.0000E+00  0.6960E+03
  14.690  0.0000E+00  0.0000E+00  0.6960E+03
  14.700  0.0000E+00  0.0000E+00  0.6960E+03
  14.710  0.0000E+00  0.0000E+00  0.6960E+03
  14.720  0.0000E+00  0.0000E+00  0.6960E+03
  14.730  0.0000E+00  0.0000E+00  0.6960E+03
  14.740  0.0000E+00  0.0000E+00  0.6960E+03
  14.750  0.0000E+00  0.0000E+00  0.6960E+03
  14.760  0.0000E+00  0.0000E+00  0.6960E+03
  14.770  0.0000E+00  0.0000E+00  0.6960E+03
  14.780  0.0000E+00  0.0000E+00  0.6960E+03
  14.790  0.0000E+00  0.0000E+00  0.6960E+03
  14.800  0.0000E+00  0.0000E+00  0.6960E+03
  14.810  0.0000E+00  0.0000E+00  0.6960E+03
  14.820  0.0000E+00  0.0000E+00  0.6960E+03
  14.830  0.0000E+00  0.0000E+00  0.6960E+03
  14.840  0.0000E+00  0.0000E+00  0.6960E+03
  14.850  0.0000E+00  0.0000E+00  0.6960E+03
  14.860  0.0000E+00  0.0000E+00  0.6960E+03
  14.870  0.0000E+00  0.0000E+00  0.6960E+03
  14.880  0.0000E+00  0.0000E+00  0.6960E+03
  14.890  0.0000E+00  0.0000E+00  0.6960E+03
  14.900  0.0000E+00  0.0000E+00  0.6960E+03
  14.910  0.0000E+00  0.0000E+00  0.6960E+03
  14.920  0.0000E+00  0.0000E+00  0.6960E+03
  14.930  0.0000E+00  0.0000E+00  0.6960E+03
  14.940  0.0000E+00  0.0000E+00  0.6960E+03
  14.950  0.0000E+00  0.0000E+00  0.6960E+03
  14.960  0.0000E+00  0.0000E+00  0.6960E+03
  14.970  0.0000E+00  0.0000E+00  0.6960E+03
  14.980  0.0000E+00  0.0000E+00  0.6960E+03
  14.990  0.0000E+00  0.0000E+00  0.6960E+03
  15.000  0.0000E+00  0.0000E+00  0.6960E+03
