#  E (eV)   dosup(E)     dosdw(E)   Int dos(E) EFermi =    7.552 eV
 -15.000  0.0000E+00  0.0000E+00  0.8000E+01
 -14.990  0.0000E+00  0.0000E+00  0.8000E+01
 -14.980  0.0000E+00  0.0000E+00  0.8000E+01
 -14.970  0.0000E+00  0.0000E+00  0.8000E+01
 -14.960  0.0000E+00  0.0000E+00  0.8000E+01
 -14.950  0.0000E+00  0.0000E+00  0.8000E+01
 -14.940  0.0000E+00  0.0000E+00  0.8000E+01
 -14.930  0.0000E+00  0.0000E+00  0.8000E+01
 -14.920  0.0000E+00  0.0000E+00  0.8000E+01
 -14.910  0.0000E+00  0.0000E+00  0.8000E+01
 -14.900  0.0000E+00  0.0000E+00  0.8000E+01
 -14.890  0.0000E+00  0.0000E+00  0.8000E+01
 -14.880  0.0000E+00  0.0000E+00  0.8000E+01
 -14.870  0.0000E+00  0.0000E+00  0.8000E+01
 -14.860  0.0000E+00  0.0000E+00  0.8000E+01
 -14.850  0.0000E+00  0.0000E+00  0.8000E+01
 -14.840  0.0000E+00  0.0000E+00  0.8000E+01
 -14.830  0.0000E+00  0.0000E+00  0.8000E+01
 -14.820  0.0000E+00  0.0000E+00  0.8000E+01
 -14.810  0.0000E+00  0.0000E+00  0.8000E+01
 -14.800  0.0000E+00  0.0000E+00  0.8000E+01
 -14.790  0.0000E+00  0.0000E+00  0.8000E+01
 -14.780  0.0000E+00  0.0000E+00  0.8000E+01
 -14.770  0.0000E+00  0.0000E+00  0.8000E+01
 -14.760  0.0000E+00  0.0000E+00  0.8000E+01
 -14.750  0.0000E+00  0.0000E+00  0.8000E+01
 -14.740  0.0000E+00  0.0000E+00  0.8000E+01
 -14.730  0.0000E+00  0.0000E+00  0.8000E+01
 -14.720  0.0000E+00  0.0000E+00  0.8000E+01
 -14.710  0.0000E+00  0.0000E+00  0.8000E+01
 -14.700  0.0000E+00  0.0000E+00  0.8000E+01
 -14.690  0.0000E+00  0.0000E+00  0.8000E+01
 -14.680  0.0000E+00  0.0000E+00  0.8000E+01
 -14.670  0.0000E+00  0.0000E+00  0.8000E+01
 -14.660  0.0000E+00  0.0000E+00  0.8000E+01
 -14.650  0.0000E+00  0.0000E+00  0.8000E+01
 -14.640  0.0000E+00  0.0000E+00  0.8000E+01
 -14.630  0.0000E+00  0.0000E+00  0.8000E+01
 -14.620  0.0000E+00  0.0000E+00  0.8000E+01
 -14.610  0.0000E+00  0.0000E+00  0.8000E+01
 -14.600  0.0000E+00  0.0000E+00  0.8000E+01
 -14.590  0.0000E+00  0.0000E+00  0.8000E+01
 -14.580  0.0000E+00  0.0000E+00  0.8000E+01
 -14.570  0.0000E+00  0.0000E+00  0.8000E+01
 -14.560  0.0000E+00  0.0000E+00  0.8000E+01
 -14.550  0.0000E+00  0.0000E+00  0.8000E+01
 -14.540  0.0000E+00  0.0000E+00  0.8000E+01
 -14.530  0.0000E+00  0.0000E+00  0.8000E+01
 -14.520  0.0000E+00  0.0000E+00  0.8000E+01
 -14.510  0.0000E+00  0.0000E+00  0.8000E+01
 -14.500  0.0000E+00  0.0000E+00  0.8000E+01
 -14.490  0.0000E+00  0.0000E+00  0.8000E+01
 -14.480  0.0000E+00  0.0000E+00  0.8000E+01
 -14.470  0.0000E+00  0.0000E+00  0.8000E+01
 -14.460  0.0000E+00  0.0000E+00  0.8000E+01
 -14.450  0.0000E+00  0.0000E+00  0.8000E+01
 -14.440  0.0000E+00  0.0000E+00  0.8000E+01
 -14.430  0.0000E+00  0.0000E+00  0.8000E+01
 -14.420  0.0000E+00  0.0000E+00  0.8000E+01
 -14.410  0.0000E+00  0.0000E+00  0.8000E+01
 -14.400  0.0000E+00  0.0000E+00  0.8000E+01
 -14.390  0.0000E+00  0.0000E+00  0.8000E+01
 -14.380  0.0000E+00  0.0000E+00  0.8000E+01
 -14.370  0.0000E+00  0.0000E+00  0.8000E+01
 -14.360  0.0000E+00  0.0000E+00  0.8000E+01
 -14.350  0.0000E+00  0.0000E+00  0.8000E+01
 -14.340  0.0000E+00  0.0000E+00  0.8000E+01
 -14.330  0.0000E+00  0.0000E+00  0.8000E+01
 -14.320  0.0000E+00  0.0000E+00  0.8000E+01
 -14.310  0.0000E+00  0.0000E+00  0.8000E+01
 -14.300  0.0000E+00  0.0000E+00  0.8000E+01
 -14.290  0.0000E+00  0.0000E+00  0.8000E+01
 -14.280  0.0000E+00  0.0000E+00  0.8000E+01
 -14.270  0.0000E+00  0.0000E+00  0.8000E+01
 -14.260  0.0000E+00  0.0000E+00  0.8000E+01
 -14.250  0.0000E+00  0.0000E+00  0.8000E+01
 -14.240  0.0000E+00  0.0000E+00  0.8000E+01
 -14.230  0.0000E+00  0.0000E+00  0.8000E+01
 -14.220  0.0000E+00  0.0000E+00  0.8000E+01
 -14.210  0.0000E+00  0.0000E+00  0.8000E+01
 -14.200  0.0000E+00  0.0000E+00  0.8000E+01
 -14.190  0.0000E+00  0.0000E+00  0.8000E+01
 -14.180  0.0000E+00  0.0000E+00  0.8000E+01
 -14.170  0.0000E+00  0.0000E+00  0.8000E+01
 -14.160  0.0000E+00  0.0000E+00  0.8000E+01
 -14.150  0.0000E+00  0.0000E+00  0.8000E+01
 -14.140  0.0000E+00  0.0000E+00  0.8000E+01
 -14.130  0.0000E+00  0.0000E+00  0.8000E+01
 -14.120  0.0000E+00  0.0000E+00  0.8000E+01
 -14.110  0.0000E+00  0.0000E+00  0.8000E+01
 -14.100  0.0000E+00  0.0000E+00  0.8000E+01
 -14.090  0.0000E+00  0.0000E+00  0.8000E+01
 -14.080  0.0000E+00  0.0000E+00  0.8000E+01
 -14.070  0.0000E+00  0.0000E+00  0.8000E+01
 -14.060  0.0000E+00  0.0000E+00  0.8000E+01
 -14.050  0.0000E+00  0.0000E+00  0.8000E+01
 -14.040  0.0000E+00  0.0000E+00  0.8000E+01
 -14.030  0.0000E+00  0.0000E+00  0.8000E+01
 -14.020  0.0000E+00  0.0000E+00  0.8000E+01
 -14.010  0.0000E+00  0.0000E+00  0.8000E+01
 -14.000  0.0000E+00  0.0000E+00  0.8000E+01
 -13.990  0.0000E+00  0.0000E+00  0.8000E+01
 -13.980  0.0000E+00  0.0000E+00  0.8000E+01
 -13.970  0.0000E+00  0.0000E+00  0.8000E+01
 -13.960  0.0000E+00  0.0000E+00  0.8000E+01
 -13.950  0.0000E+00  0.0000E+00  0.8000E+01
 -13.940  0.0000E+00  0.0000E+00  0.8000E+01
 -13.930  0.0000E+00  0.0000E+00  0.8000E+01
 -13.920  0.0000E+00  0.0000E+00  0.8000E+01
 -13.910  0.0000E+00  0.0000E+00  0.8000E+01
 -13.900  0.0000E+00  0.0000E+00  0.8000E+01
 -13.890  0.0000E+00  0.0000E+00  0.8000E+01
 -13.880  0.0000E+00  0.0000E+00  0.8000E+01
 -13.870  0.0000E+00  0.0000E+00  0.8000E+01
 -13.860  0.0000E+00  0.0000E+00  0.8000E+01
 -13.850  0.0000E+00  0.0000E+00  0.8000E+01
 -13.840  0.0000E+00  0.0000E+00  0.8000E+01
 -13.830  0.0000E+00  0.0000E+00  0.8000E+01
 -13.820  0.0000E+00  0.0000E+00  0.8000E+01
 -13.810  0.0000E+00  0.0000E+00  0.8000E+01
 -13.800  0.0000E+00  0.0000E+00  0.8000E+01
 -13.790  0.0000E+00  0.0000E+00  0.8000E+01
 -13.780  0.0000E+00  0.0000E+00  0.8000E+01
 -13.770  0.0000E+00  0.0000E+00  0.8000E+01
 -13.760  0.0000E+00  0.0000E+00  0.8000E+01
 -13.750  0.0000E+00  0.0000E+00  0.8000E+01
 -13.740  0.0000E+00  0.0000E+00  0.8000E+01
 -13.730  0.0000E+00  0.0000E+00  0.8000E+01
 -13.720  0.0000E+00  0.0000E+00  0.8000E+01
 -13.710  0.0000E+00  0.0000E+00  0.8000E+01
 -13.700  0.0000E+00  0.0000E+00  0.8000E+01
 -13.690  0.0000E+00  0.0000E+00  0.8000E+01
 -13.680  0.0000E+00  0.0000E+00  0.8000E+01
 -13.670  0.0000E+00  0.0000E+00  0.8000E+01
 -13.660  0.0000E+00  0.0000E+00  0.8000E+01
 -13.650  0.0000E+00  0.0000E+00  0.8000E+01
 -13.640  0.0000E+00  0.0000E+00  0.8000E+01
 -13.630  0.0000E+00  0.0000E+00  0.8000E+01
 -13.620  0.0000E+00  0.0000E+00  0.8000E+01
 -13.610  0.0000E+00  0.0000E+00  0.8000E+01
 -13.600  0.0000E+00  0.0000E+00  0.8000E+01
 -13.590  0.0000E+00  0.0000E+00  0.8000E+01
 -13.580  0.0000E+00  0.0000E+00  0.8000E+01
 -13.570  0.0000E+00  0.0000E+00  0.8000E+01
 -13.560  0.0000E+00  0.0000E+00  0.8000E+01
 -13.550  0.0000E+00  0.0000E+00  0.8000E+01
 -13.540  0.0000E+00  0.0000E+00  0.8000E+01
 -13.530  0.0000E+00  0.0000E+00  0.8000E+01
 -13.520  0.0000E+00  0.0000E+00  0.8000E+01
 -13.510  0.0000E+00  0.0000E+00  0.8000E+01
 -13.500  0.0000E+00  0.0000E+00  0.8000E+01
 -13.490  0.0000E+00  0.0000E+00  0.8000E+01
 -13.480  0.0000E+00  0.0000E+00  0.8000E+01
 -13.470  0.0000E+00  0.0000E+00  0.8000E+01
 -13.460  0.0000E+00  0.0000E+00  0.8000E+01
 -13.450  0.0000E+00  0.0000E+00  0.8000E+01
 -13.440  0.0000E+00  0.0000E+00  0.8000E+01
 -13.430  0.0000E+00  0.0000E+00  0.8000E+01
 -13.420  0.0000E+00  0.0000E+00  0.8000E+01
 -13.410  0.0000E+00  0.0000E+00  0.8000E+01
 -13.400  0.0000E+00  0.0000E+00  0.8000E+01
 -13.390  0.0000E+00  0.0000E+00  0.8000E+01
 -13.380  0.0000E+00  0.0000E+00  0.8000E+01
 -13.370  0.0000E+00  0.0000E+00  0.8000E+01
 -13.360  0.0000E+00  0.0000E+00  0.8000E+01
 -13.350  0.0000E+00  0.0000E+00  0.8000E+01
 -13.340  0.0000E+00  0.0000E+00  0.8000E+01
 -13.330  0.0000E+00  0.0000E+00  0.8000E+01
 -13.320  0.0000E+00  0.0000E+00  0.8000E+01
 -13.310  0.0000E+00  0.0000E+00  0.8000E+01
 -13.300  0.0000E+00  0.0000E+00  0.8000E+01
 -13.290  0.0000E+00  0.0000E+00  0.8000E+01
 -13.280  0.0000E+00  0.0000E+00  0.8000E+01
 -13.270  0.0000E+00  0.0000E+00  0.8000E+01
 -13.260  0.0000E+00  0.0000E+00  0.8000E+01
 -13.250  0.0000E+00  0.0000E+00  0.8000E+01
 -13.240  0.0000E+00  0.0000E+00  0.8000E+01
 -13.230  0.0000E+00  0.0000E+00  0.8000E+01
 -13.220  0.0000E+00  0.0000E+00  0.8000E+01
 -13.210  0.0000E+00  0.0000E+00  0.8000E+01
 -13.200  0.0000E+00  0.0000E+00  0.8000E+01
 -13.190  0.0000E+00  0.0000E+00  0.8000E+01
 -13.180  0.0000E+00  0.0000E+00  0.8000E+01
 -13.170  0.0000E+00  0.0000E+00  0.8000E+01
 -13.160  0.0000E+00  0.0000E+00  0.8000E+01
 -13.150  0.0000E+00  0.0000E+00  0.8000E+01
 -13.140  0.0000E+00  0.0000E+00  0.8000E+01
 -13.130  0.0000E+00  0.0000E+00  0.8000E+01
 -13.120  0.0000E+00  0.0000E+00  0.8000E+01
 -13.110  0.0000E+00  0.0000E+00  0.8000E+01
 -13.100  0.0000E+00  0.0000E+00  0.8000E+01
 -13.090  0.0000E+00  0.0000E+00  0.8000E+01
 -13.080  0.0000E+00  0.0000E+00  0.8000E+01
 -13.070  0.0000E+00  0.0000E+00  0.8000E+01
 -13.060  0.0000E+00  0.0000E+00  0.8000E+01
 -13.050  0.0000E+00  0.0000E+00  0.8000E+01
 -13.040  0.0000E+00  0.0000E+00  0.8000E+01
 -13.030  0.0000E+00  0.0000E+00  0.8000E+01
 -13.020  0.0000E+00  0.0000E+00  0.8000E+01
 -13.010  0.0000E+00  0.0000E+00  0.8000E+01
 -13.000  0.0000E+00  0.0000E+00  0.8000E+01
 -12.990  0.0000E+00  0.0000E+00  0.8000E+01
 -12.980  0.0000E+00  0.0000E+00  0.8000E+01
 -12.970  0.0000E+00  0.0000E+00  0.8000E+01
 -12.960  0.0000E+00  0.0000E+00  0.8000E+01
 -12.950  0.0000E+00  0.0000E+00  0.8000E+01
 -12.940  0.0000E+00  0.0000E+00  0.8000E+01
 -12.930  0.0000E+00  0.0000E+00  0.8000E+01
 -12.920  0.0000E+00  0.0000E+00  0.8000E+01
 -12.910  0.0000E+00  0.0000E+00  0.8000E+01
 -12.900  0.0000E+00  0.0000E+00  0.8000E+01
 -12.890  0.0000E+00  0.0000E+00  0.8000E+01
 -12.880  0.0000E+00  0.0000E+00  0.8000E+01
 -12.870  0.0000E+00  0.0000E+00  0.8000E+01
 -12.860  0.0000E+00  0.0000E+00  0.8000E+01
 -12.850  0.0000E+00  0.0000E+00  0.8000E+01
 -12.840  0.0000E+00  0.0000E+00  0.8000E+01
 -12.830  0.0000E+00  0.0000E+00  0.8000E+01
 -12.820  0.0000E+00  0.0000E+00  0.8000E+01
 -12.810  0.0000E+00  0.0000E+00  0.8000E+01
 -12.800  0.0000E+00  0.0000E+00  0.8000E+01
 -12.790  0.0000E+00  0.0000E+00  0.8000E+01
 -12.780  0.0000E+00  0.0000E+00  0.8000E+01
 -12.770  0.0000E+00  0.0000E+00  0.8000E+01
 -12.760  0.0000E+00  0.0000E+00  0.8000E+01
 -12.750  0.0000E+00  0.0000E+00  0.8000E+01
 -12.740  0.0000E+00  0.0000E+00  0.8000E+01
 -12.730  0.0000E+00  0.0000E+00  0.8000E+01
 -12.720  0.0000E+00  0.0000E+00  0.8000E+01
 -12.710  0.0000E+00  0.0000E+00  0.8000E+01
 -12.700  0.0000E+00  0.0000E+00  0.8000E+01
 -12.690  0.0000E+00  0.0000E+00  0.8000E+01
 -12.680  0.0000E+00  0.0000E+00  0.8000E+01
 -12.670  0.0000E+00  0.0000E+00  0.8000E+01
 -12.660  0.0000E+00  0.0000E+00  0.8000E+01
 -12.650  0.0000E+00  0.0000E+00  0.8000E+01
 -12.640  0.0000E+00  0.0000E+00  0.8000E+01
 -12.630  0.0000E+00  0.0000E+00  0.8000E+01
 -12.620  0.0000E+00  0.0000E+00  0.8000E+01
 -12.610  0.0000E+00  0.0000E+00  0.8000E+01
 -12.600  0.0000E+00  0.0000E+00  0.8000E+01
 -12.590  0.0000E+00  0.0000E+00  0.8000E+01
 -12.580  0.0000E+00  0.0000E+00  0.8000E+01
 -12.570  0.0000E+00  0.0000E+00  0.8000E+01
 -12.560  0.0000E+00  0.0000E+00  0.8000E+01
 -12.550  0.0000E+00  0.0000E+00  0.8000E+01
 -12.540  0.0000E+00  0.0000E+00  0.8000E+01
 -12.530  0.0000E+00  0.0000E+00  0.8000E+01
 -12.520  0.0000E+00  0.0000E+00  0.8000E+01
 -12.510  0.0000E+00  0.0000E+00  0.8000E+01
 -12.500  0.0000E+00  0.0000E+00  0.8000E+01
 -12.490  0.0000E+00  0.0000E+00  0.8000E+01
 -12.480  0.0000E+00  0.0000E+00  0.8000E+01
 -12.470  0.0000E+00  0.0000E+00  0.8000E+01
 -12.460  0.0000E+00  0.0000E+00  0.8000E+01
 -12.450  0.0000E+00  0.0000E+00  0.8000E+01
 -12.440  0.0000E+00  0.0000E+00  0.8000E+01
 -12.430  0.0000E+00  0.0000E+00  0.8000E+01
 -12.420  0.0000E+00  0.0000E+00  0.8000E+01
 -12.410  0.0000E+00  0.0000E+00  0.8000E+01
 -12.400  0.0000E+00  0.0000E+00  0.8000E+01
 -12.390  0.0000E+00  0.0000E+00  0.8000E+01
 -12.380  0.0000E+00  0.0000E+00  0.8000E+01
 -12.370  0.0000E+00  0.0000E+00  0.8000E+01
 -12.360  0.0000E+00  0.0000E+00  0.8000E+01
 -12.350  0.0000E+00  0.0000E+00  0.8000E+01
 -12.340  0.0000E+00  0.0000E+00  0.8000E+01
 -12.330  0.0000E+00  0.0000E+00  0.8000E+01
 -12.320  0.0000E+00  0.0000E+00  0.8000E+01
 -12.310  0.0000E+00  0.0000E+00  0.8000E+01
 -12.300  0.0000E+00  0.0000E+00  0.8000E+01
 -12.290  0.0000E+00  0.0000E+00  0.8000E+01
 -12.280  0.0000E+00  0.0000E+00  0.8000E+01
 -12.270  0.0000E+00  0.0000E+00  0.8000E+01
 -12.260  0.0000E+00  0.0000E+00  0.8000E+01
 -12.250  0.0000E+00  0.0000E+00  0.8000E+01
 -12.240  0.0000E+00  0.0000E+00  0.8000E+01
 -12.230  0.0000E+00  0.0000E+00  0.8000E+01
 -12.220  0.0000E+00  0.0000E+00  0.8000E+01
 -12.210  0.0000E+00  0.0000E+00  0.8000E+01
 -12.200  0.0000E+00  0.0000E+00  0.8000E+01
 -12.190  0.0000E+00  0.0000E+00  0.8000E+01
 -12.180  0.0000E+00  0.0000E+00  0.8000E+01
 -12.170  0.0000E+00  0.0000E+00  0.8000E+01
 -12.160  0.0000E+00  0.0000E+00  0.8000E+01
 -12.150  0.0000E+00  0.0000E+00  0.8000E+01
 -12.140  0.0000E+00  0.0000E+00  0.8000E+01
 -12.130  0.0000E+00  0.0000E+00  0.8000E+01
 -12.120  0.0000E+00  0.0000E+00  0.8000E+01
 -12.110  0.0000E+00  0.0000E+00  0.8000E+01
 -12.100  0.0000E+00  0.0000E+00  0.8000E+01
 -12.090  0.0000E+00  0.0000E+00  0.8000E+01
 -12.080  0.0000E+00  0.0000E+00  0.8000E+01
 -12.070  0.0000E+00  0.0000E+00  0.8000E+01
 -12.060  0.0000E+00  0.0000E+00  0.8000E+01
 -12.050  0.0000E+00  0.0000E+00  0.8000E+01
 -12.040  0.0000E+00  0.0000E+00  0.8000E+01
 -12.030  0.0000E+00  0.0000E+00  0.8000E+01
 -12.020  0.0000E+00  0.0000E+00  0.8000E+01
 -12.010  0.0000E+00  0.0000E+00  0.8000E+01
 -12.000  0.0000E+00  0.0000E+00  0.8000E+01
 -11.990  0.0000E+00  0.0000E+00  0.8000E+01
 -11.980  0.0000E+00  0.0000E+00  0.8000E+01
 -11.970  0.0000E+00  0.0000E+00  0.8000E+01
 -11.960  0.0000E+00  0.0000E+00  0.8000E+01
 -11.950  0.0000E+00  0.0000E+00  0.8000E+01
 -11.940  0.0000E+00  0.0000E+00  0.8000E+01
 -11.930  0.0000E+00  0.0000E+00  0.8000E+01
 -11.920  0.0000E+00  0.0000E+00  0.8000E+01
 -11.910  0.0000E+00  0.0000E+00  0.8000E+01
 -11.900  0.0000E+00  0.0000E+00  0.8000E+01
 -11.890  0.0000E+00  0.0000E+00  0.8000E+01
 -11.880  0.0000E+00  0.0000E+00  0.8000E+01
 -11.870  0.0000E+00  0.0000E+00  0.8000E+01
 -11.860  0.0000E+00  0.0000E+00  0.8000E+01
 -11.850  0.0000E+00  0.0000E+00  0.8000E+01
 -11.840  0.0000E+00  0.0000E+00  0.8000E+01
 -11.830  0.0000E+00  0.0000E+00  0.8000E+01
 -11.820  0.0000E+00  0.0000E+00  0.8000E+01
 -11.810  0.0000E+00  0.0000E+00  0.8000E+01
 -11.800  0.0000E+00  0.0000E+00  0.8000E+01
 -11.790  0.0000E+00  0.0000E+00  0.8000E+01
 -11.780  0.0000E+00  0.0000E+00  0.8000E+01
 -11.770  0.0000E+00  0.0000E+00  0.8000E+01
 -11.760  0.0000E+00  0.0000E+00  0.8000E+01
 -11.750  0.0000E+00  0.0000E+00  0.8000E+01
 -11.740  0.0000E+00  0.0000E+00  0.8000E+01
 -11.730  0.0000E+00  0.0000E+00  0.8000E+01
 -11.720  0.0000E+00  0.0000E+00  0.8000E+01
 -11.710  0.0000E+00  0.0000E+00  0.8000E+01
 -11.700  0.0000E+00  0.0000E+00  0.8000E+01
 -11.690  0.0000E+00  0.0000E+00  0.8000E+01
 -11.680  0.0000E+00  0.0000E+00  0.8000E+01
 -11.670  0.0000E+00  0.0000E+00  0.8000E+01
 -11.660  0.0000E+00  0.0000E+00  0.8000E+01
 -11.650  0.0000E+00  0.0000E+00  0.8000E+01
 -11.640  0.0000E+00  0.0000E+00  0.8000E+01
 -11.630  0.0000E+00  0.0000E+00  0.8000E+01
 -11.620  0.0000E+00  0.0000E+00  0.8000E+01
 -11.610  0.0000E+00  0.0000E+00  0.8000E+01
 -11.600  0.0000E+00  0.0000E+00  0.8000E+01
 -11.590  0.0000E+00  0.0000E+00  0.8000E+01
 -11.580  0.0000E+00  0.0000E+00  0.8000E+01
 -11.570  0.0000E+00  0.0000E+00  0.8000E+01
 -11.560  0.0000E+00  0.0000E+00  0.8000E+01
 -11.550  0.0000E+00  0.0000E+00  0.8000E+01
 -11.540  0.0000E+00  0.0000E+00  0.8000E+01
 -11.530  0.0000E+00  0.0000E+00  0.8000E+01
 -11.520  0.0000E+00  0.0000E+00  0.8000E+01
 -11.510  0.0000E+00  0.0000E+00  0.8000E+01
 -11.500  0.0000E+00  0.0000E+00  0.8000E+01
 -11.490  0.0000E+00  0.0000E+00  0.8000E+01
 -11.480  0.0000E+00  0.0000E+00  0.8000E+01
 -11.470  0.0000E+00  0.0000E+00  0.8000E+01
 -11.460  0.0000E+00  0.0000E+00  0.8000E+01
 -11.450  0.0000E+00  0.0000E+00  0.8000E+01
 -11.440  0.0000E+00  0.0000E+00  0.8000E+01
 -11.430  0.0000E+00  0.0000E+00  0.8000E+01
 -11.420  0.0000E+00  0.0000E+00  0.8000E+01
 -11.410  0.0000E+00  0.0000E+00  0.8000E+01
 -11.400  0.0000E+00  0.0000E+00  0.8000E+01
 -11.390  0.0000E+00  0.0000E+00  0.8000E+01
 -11.380  0.0000E+00  0.0000E+00  0.8000E+01
 -11.370  0.0000E+00  0.0000E+00  0.8000E+01
 -11.360  0.0000E+00  0.0000E+00  0.8000E+01
 -11.350  0.0000E+00  0.0000E+00  0.8000E+01
 -11.340  0.0000E+00  0.0000E+00  0.8000E+01
 -11.330  0.0000E+00  0.0000E+00  0.8000E+01
 -11.320  0.0000E+00  0.0000E+00  0.8000E+01
 -11.310  0.0000E+00  0.0000E+00  0.8000E+01
 -11.300  0.0000E+00  0.0000E+00  0.8000E+01
 -11.290  0.0000E+00  0.0000E+00  0.8000E+01
 -11.280  0.0000E+00  0.0000E+00  0.8000E+01
 -11.270  0.0000E+00  0.0000E+00  0.8000E+01
 -11.260  0.0000E+00  0.0000E+00  0.8000E+01
 -11.250  0.0000E+00  0.0000E+00  0.8000E+01
 -11.240  0.0000E+00  0.0000E+00  0.8000E+01
 -11.230  0.0000E+00  0.0000E+00  0.8000E+01
 -11.220  0.0000E+00  0.0000E+00  0.8000E+01
 -11.210  0.0000E+00  0.0000E+00  0.8000E+01
 -11.200  0.0000E+00  0.0000E+00  0.8000E+01
 -11.190  0.0000E+00  0.0000E+00  0.8000E+01
 -11.180  0.0000E+00  0.0000E+00  0.8000E+01
 -11.170  0.0000E+00  0.0000E+00  0.8000E+01
 -11.160  0.0000E+00  0.0000E+00  0.8000E+01
 -11.150  0.0000E+00  0.0000E+00  0.8000E+01
 -11.140  0.0000E+00  0.0000E+00  0.8000E+01
 -11.130  0.0000E+00  0.0000E+00  0.8000E+01
 -11.120  0.0000E+00  0.0000E+00  0.8000E+01
 -11.110  0.0000E+00  0.0000E+00  0.8000E+01
 -11.100  0.0000E+00  0.0000E+00  0.8000E+01
 -11.090  0.0000E+00  0.0000E+00  0.8000E+01
 -11.080  0.0000E+00  0.0000E+00  0.8000E+01
 -11.070  0.0000E+00  0.0000E+00  0.8000E+01
 -11.060  0.0000E+00  0.0000E+00  0.8000E+01
 -11.050  0.0000E+00  0.0000E+00  0.8000E+01
 -11.040  0.0000E+00  0.0000E+00  0.8000E+01
 -11.030  0.0000E+00  0.0000E+00  0.8000E+01
 -11.020  0.0000E+00  0.0000E+00  0.8000E+01
 -11.010  0.0000E+00  0.0000E+00  0.8000E+01
 -11.000  0.0000E+00  0.0000E+00  0.8000E+01
 -10.990  0.0000E+00  0.0000E+00  0.8000E+01
 -10.980  0.0000E+00  0.0000E+00  0.8000E+01
 -10.970  0.0000E+00  0.0000E+00  0.8000E+01
 -10.960  0.0000E+00  0.0000E+00  0.8000E+01
 -10.950  0.0000E+00  0.0000E+00  0.8000E+01
 -10.940  0.0000E+00  0.0000E+00  0.8000E+01
 -10.930  0.0000E+00  0.0000E+00  0.8000E+01
 -10.920  0.0000E+00  0.0000E+00  0.8000E+01
 -10.910  0.0000E+00  0.0000E+00  0.8000E+01
 -10.900  0.0000E+00  0.0000E+00  0.8000E+01
 -10.890  0.0000E+00  0.0000E+00  0.8000E+01
 -10.880  0.0000E+00  0.0000E+00  0.8000E+01
 -10.870  0.0000E+00  0.0000E+00  0.8000E+01
 -10.860  0.0000E+00  0.0000E+00  0.8000E+01
 -10.850  0.0000E+00  0.0000E+00  0.8000E+01
 -10.840  0.0000E+00  0.0000E+00  0.8000E+01
 -10.830  0.0000E+00  0.0000E+00  0.8000E+01
 -10.820  0.0000E+00  0.0000E+00  0.8000E+01
 -10.810  0.0000E+00  0.0000E+00  0.8000E+01
 -10.800  0.0000E+00  0.0000E+00  0.8000E+01
 -10.790  0.0000E+00  0.0000E+00  0.8000E+01
 -10.780  0.0000E+00  0.0000E+00  0.8000E+01
 -10.770  0.0000E+00  0.0000E+00  0.8000E+01
 -10.760  0.0000E+00  0.0000E+00  0.8000E+01
 -10.750  0.0000E+00  0.0000E+00  0.8000E+01
 -10.740  0.0000E+00  0.0000E+00  0.8000E+01
 -10.730  0.0000E+00  0.0000E+00  0.8000E+01
 -10.720  0.0000E+00  0.0000E+00  0.8000E+01
 -10.710  0.0000E+00  0.0000E+00  0.8000E+01
 -10.700  0.0000E+00  0.0000E+00  0.8000E+01
 -10.690  0.0000E+00  0.0000E+00  0.8000E+01
 -10.680  0.0000E+00  0.0000E+00  0.8000E+01
 -10.670  0.0000E+00  0.0000E+00  0.8000E+01
 -10.660  0.0000E+00  0.0000E+00  0.8000E+01
 -10.650  0.0000E+00  0.0000E+00  0.8000E+01
 -10.640  0.0000E+00  0.0000E+00  0.8000E+01
 -10.630  0.0000E+00  0.0000E+00  0.8000E+01
 -10.620  0.0000E+00  0.0000E+00  0.8000E+01
 -10.610  0.0000E+00  0.0000E+00  0.8000E+01
 -10.600  0.0000E+00  0.0000E+00  0.8000E+01
 -10.590  0.0000E+00  0.0000E+00  0.8000E+01
 -10.580  0.0000E+00  0.0000E+00  0.8000E+01
 -10.570  0.0000E+00  0.0000E+00  0.8000E+01
 -10.560  0.0000E+00  0.0000E+00  0.8000E+01
 -10.550  0.0000E+00  0.0000E+00  0.8000E+01
 -10.540  0.0000E+00  0.0000E+00  0.8000E+01
 -10.530  0.0000E+00  0.0000E+00  0.8000E+01
 -10.520  0.0000E+00  0.0000E+00  0.8000E+01
 -10.510  0.0000E+00  0.0000E+00  0.8000E+01
 -10.500  0.0000E+00  0.0000E+00  0.8000E+01
 -10.490  0.0000E+00  0.0000E+00  0.8000E+01
 -10.480  0.0000E+00  0.0000E+00  0.8000E+01
 -10.470  0.0000E+00  0.0000E+00  0.8000E+01
 -10.460  0.0000E+00  0.0000E+00  0.8000E+01
 -10.450  0.0000E+00  0.0000E+00  0.8000E+01
 -10.440  0.0000E+00  0.0000E+00  0.8000E+01
 -10.430  0.0000E+00  0.0000E+00  0.8000E+01
 -10.420  0.0000E+00  0.0000E+00  0.8000E+01
 -10.410  0.0000E+00  0.0000E+00  0.8000E+01
 -10.400  0.0000E+00  0.0000E+00  0.8000E+01
 -10.390  0.0000E+00  0.0000E+00  0.8000E+01
 -10.380  0.0000E+00  0.0000E+00  0.8000E+01
 -10.370  0.0000E+00  0.0000E+00  0.8000E+01
 -10.360  0.0000E+00  0.0000E+00  0.8000E+01
 -10.350  0.0000E+00  0.0000E+00  0.8000E+01
 -10.340  0.0000E+00  0.0000E+00  0.8000E+01
 -10.330  0.0000E+00  0.0000E+00  0.8000E+01
 -10.320  0.0000E+00  0.0000E+00  0.8000E+01
 -10.310  0.0000E+00  0.0000E+00  0.8000E+01
 -10.300  0.0000E+00  0.0000E+00  0.8000E+01
 -10.290  0.0000E+00  0.0000E+00  0.8000E+01
 -10.280  0.0000E+00  0.0000E+00  0.8000E+01
 -10.270  0.0000E+00  0.0000E+00  0.8000E+01
 -10.260  0.0000E+00  0.0000E+00  0.8000E+01
 -10.250  0.0000E+00  0.0000E+00  0.8000E+01
 -10.240  0.0000E+00  0.0000E+00  0.8000E+01
 -10.230  0.0000E+00  0.0000E+00  0.8000E+01
 -10.220  0.0000E+00  0.0000E+00  0.8000E+01
 -10.210  0.0000E+00  0.0000E+00  0.8000E+01
 -10.200  0.0000E+00  0.0000E+00  0.8000E+01
 -10.190  0.0000E+00  0.0000E+00  0.8000E+01
 -10.180  0.0000E+00  0.0000E+00  0.8000E+01
 -10.170  0.0000E+00  0.0000E+00  0.8000E+01
 -10.160  0.0000E+00  0.0000E+00  0.8000E+01
 -10.150  0.0000E+00  0.0000E+00  0.8000E+01
 -10.140  0.0000E+00  0.0000E+00  0.8000E+01
 -10.130  0.0000E+00  0.0000E+00  0.8000E+01
 -10.120  0.0000E+00  0.0000E+00  0.8000E+01
 -10.110  0.0000E+00  0.0000E+00  0.8000E+01
 -10.100  0.0000E+00  0.0000E+00  0.8000E+01
 -10.090  0.0000E+00  0.0000E+00  0.8000E+01
 -10.080  0.0000E+00  0.0000E+00  0.8000E+01
 -10.070  0.0000E+00  0.0000E+00  0.8000E+01
 -10.060  0.0000E+00  0.0000E+00  0.8000E+01
 -10.050  0.0000E+00  0.0000E+00  0.8000E+01
 -10.040  0.0000E+00  0.0000E+00  0.8000E+01
 -10.030  0.0000E+00  0.0000E+00  0.8000E+01
 -10.020  0.0000E+00  0.0000E+00  0.8000E+01
 -10.010  0.0000E+00  0.0000E+00  0.8000E+01
 -10.000  0.0000E+00  0.0000E+00  0.8000E+01
  -9.990  0.0000E+00  0.0000E+00  0.8000E+01
  -9.980  0.0000E+00  0.0000E+00  0.8000E+01
  -9.970  0.0000E+00  0.0000E+00  0.8000E+01
  -9.960  0.0000E+00  0.0000E+00  0.8000E+01
  -9.950  0.0000E+00  0.0000E+00  0.8000E+01
  -9.940  0.0000E+00  0.0000E+00  0.8000E+01
  -9.930  0.0000E+00  0.0000E+00  0.8000E+01
  -9.920  0.0000E+00  0.0000E+00  0.8000E+01
  -9.910  0.0000E+00  0.0000E+00  0.8000E+01
  -9.900  0.0000E+00  0.0000E+00  0.8000E+01
  -9.890  0.0000E+00  0.0000E+00  0.8000E+01
  -9.880  0.0000E+00  0.0000E+00  0.8000E+01
  -9.870  0.0000E+00  0.0000E+00  0.8000E+01
  -9.860  0.0000E+00  0.0000E+00  0.8000E+01
  -9.850  0.0000E+00  0.0000E+00  0.8000E+01
  -9.840  0.0000E+00  0.0000E+00  0.8000E+01
  -9.830  0.0000E+00  0.0000E+00  0.8000E+01
  -9.820  0.0000E+00  0.0000E+00  0.8000E+01
  -9.810  0.0000E+00  0.0000E+00  0.8000E+01
  -9.800  0.0000E+00  0.0000E+00  0.8000E+01
  -9.790  0.0000E+00  0.0000E+00  0.8000E+01
  -9.780  0.0000E+00  0.0000E+00  0.8000E+01
  -9.770  0.0000E+00  0.0000E+00  0.8000E+01
  -9.760  0.0000E+00  0.0000E+00  0.8000E+01
  -9.750  0.0000E+00  0.0000E+00  0.8000E+01
  -9.740  0.0000E+00  0.0000E+00  0.8000E+01
  -9.730  0.0000E+00  0.0000E+00  0.8000E+01
  -9.720  0.0000E+00  0.0000E+00  0.8000E+01
  -9.710  0.0000E+00  0.0000E+00  0.8000E+01
  -9.700  0.0000E+00  0.0000E+00  0.8000E+01
  -9.690  0.0000E+00  0.0000E+00  0.8000E+01
  -9.680  0.0000E+00  0.0000E+00  0.8000E+01
  -9.670  0.0000E+00  0.0000E+00  0.8000E+01
  -9.660  0.0000E+00  0.0000E+00  0.8000E+01
  -9.650  0.0000E+00  0.0000E+00  0.8000E+01
  -9.640  0.0000E+00  0.0000E+00  0.8000E+01
  -9.630  0.0000E+00  0.0000E+00  0.8000E+01
  -9.620  0.0000E+00  0.0000E+00  0.8000E+01
  -9.610  0.0000E+00  0.0000E+00  0.8000E+01
  -9.600  0.0000E+00  0.0000E+00  0.8000E+01
  -9.590  0.0000E+00  0.0000E+00  0.8000E+01
  -9.580  0.0000E+00  0.0000E+00  0.8000E+01
  -9.570  0.0000E+00  0.0000E+00  0.8000E+01
  -9.560  0.0000E+00  0.0000E+00  0.8000E+01
  -9.550  0.0000E+00  0.0000E+00  0.8000E+01
  -9.540  0.0000E+00  0.0000E+00  0.8000E+01
  -9.530  0.0000E+00  0.0000E+00  0.8000E+01
  -9.520  0.0000E+00  0.0000E+00  0.8000E+01
  -9.510  0.0000E+00  0.0000E+00  0.8000E+01
  -9.500  0.0000E+00  0.0000E+00  0.8000E+01
  -9.490  0.0000E+00  0.0000E+00  0.8000E+01
  -9.480  0.0000E+00  0.0000E+00  0.8000E+01
  -9.470  0.0000E+00  0.0000E+00  0.8000E+01
  -9.460  0.0000E+00  0.0000E+00  0.8000E+01
  -9.450  0.0000E+00  0.0000E+00  0.8000E+01
  -9.440  0.0000E+00  0.0000E+00  0.8000E+01
  -9.430  0.0000E+00  0.0000E+00  0.8000E+01
  -9.420  0.0000E+00  0.0000E+00  0.8000E+01
  -9.410  0.0000E+00  0.0000E+00  0.8000E+01
  -9.400  0.0000E+00  0.0000E+00  0.8000E+01
  -9.390  0.0000E+00  0.0000E+00  0.8000E+01
  -9.380  0.0000E+00  0.0000E+00  0.8000E+01
  -9.370  0.0000E+00  0.0000E+00  0.8000E+01
  -9.360  0.0000E+00  0.0000E+00  0.8000E+01
  -9.350  0.0000E+00  0.0000E+00  0.8000E+01
  -9.340  0.0000E+00  0.0000E+00  0.8000E+01
  -9.330  0.0000E+00  0.0000E+00  0.8000E+01
  -9.320  0.0000E+00  0.0000E+00  0.8000E+01
  -9.310  0.0000E+00  0.0000E+00  0.8000E+01
  -9.300  0.0000E+00  0.0000E+00  0.8000E+01
  -9.290  0.0000E+00  0.0000E+00  0.8000E+01
  -9.280  0.0000E+00  0.0000E+00  0.8000E+01
  -9.270  0.0000E+00  0.0000E+00  0.8000E+01
  -9.260  0.0000E+00  0.0000E+00  0.8000E+01
  -9.250  0.0000E+00  0.0000E+00  0.8000E+01
  -9.240  0.0000E+00  0.0000E+00  0.8000E+01
  -9.230  0.0000E+00  0.0000E+00  0.8000E+01
  -9.220  0.0000E+00  0.0000E+00  0.8000E+01
  -9.210  0.0000E+00  0.0000E+00  0.8000E+01
  -9.200  0.0000E+00  0.0000E+00  0.8000E+01
  -9.190  0.0000E+00  0.0000E+00  0.8000E+01
  -9.180  0.0000E+00  0.0000E+00  0.8000E+01
  -9.170  0.0000E+00  0.0000E+00  0.8000E+01
  -9.160  0.0000E+00  0.0000E+00  0.8000E+01
  -9.150  0.0000E+00  0.0000E+00  0.8000E+01
  -9.140  0.0000E+00  0.0000E+00  0.8000E+01
  -9.130  0.0000E+00  0.0000E+00  0.8000E+01
  -9.120  0.0000E+00  0.0000E+00  0.8000E+01
  -9.110  0.0000E+00  0.0000E+00  0.8000E+01
  -9.100  0.0000E+00  0.0000E+00  0.8000E+01
  -9.090  0.0000E+00  0.0000E+00  0.8000E+01
  -9.080  0.0000E+00  0.0000E+00  0.8000E+01
  -9.070  0.0000E+00  0.0000E+00  0.8000E+01
  -9.060  0.0000E+00  0.0000E+00  0.8000E+01
  -9.050  0.0000E+00  0.0000E+00  0.8000E+01
  -9.040  0.0000E+00  0.0000E+00  0.8000E+01
  -9.030  0.0000E+00  0.0000E+00  0.8000E+01
  -9.020  0.0000E+00  0.0000E+00  0.8000E+01
  -9.010  0.0000E+00  0.0000E+00  0.8000E+01
  -9.000  0.0000E+00  0.0000E+00  0.8000E+01
  -8.990  0.0000E+00  0.0000E+00  0.8000E+01
  -8.980  0.0000E+00  0.0000E+00  0.8000E+01
  -8.970  0.0000E+00  0.0000E+00  0.8000E+01
  -8.960  0.0000E+00  0.0000E+00  0.8000E+01
  -8.950  0.0000E+00  0.0000E+00  0.8000E+01
  -8.940  0.0000E+00  0.0000E+00  0.8000E+01
  -8.930  0.0000E+00  0.0000E+00  0.8000E+01
  -8.920  0.0000E+00  0.0000E+00  0.8000E+01
  -8.910  0.0000E+00  0.0000E+00  0.8000E+01
  -8.900  0.0000E+00  0.0000E+00  0.8000E+01
  -8.890  0.0000E+00  0.0000E+00  0.8000E+01
  -8.880  0.0000E+00  0.0000E+00  0.8000E+01
  -8.870  0.0000E+00  0.0000E+00  0.8000E+01
  -8.860  0.0000E+00  0.0000E+00  0.8000E+01
  -8.850  0.0000E+00  0.0000E+00  0.8000E+01
  -8.840  0.0000E+00  0.0000E+00  0.8000E+01
  -8.830  0.0000E+00  0.0000E+00  0.8000E+01
  -8.820  0.0000E+00  0.0000E+00  0.8000E+01
  -8.810  0.0000E+00  0.0000E+00  0.8000E+01
  -8.800  0.0000E+00  0.0000E+00  0.8000E+01
  -8.790  0.0000E+00  0.0000E+00  0.8000E+01
  -8.780  0.0000E+00  0.0000E+00  0.8000E+01
  -8.770  0.0000E+00  0.0000E+00  0.8000E+01
  -8.760  0.0000E+00  0.0000E+00  0.8000E+01
  -8.750  0.0000E+00  0.0000E+00  0.8000E+01
  -8.740  0.0000E+00  0.0000E+00  0.8000E+01
  -8.730  0.0000E+00  0.0000E+00  0.8000E+01
  -8.720  0.0000E+00  0.0000E+00  0.8000E+01
  -8.710  0.0000E+00  0.0000E+00  0.8000E+01
  -8.700  0.0000E+00  0.0000E+00  0.8000E+01
  -8.690  0.0000E+00  0.0000E+00  0.8000E+01
  -8.680  0.0000E+00  0.0000E+00  0.8000E+01
  -8.670  0.0000E+00  0.0000E+00  0.8000E+01
  -8.660  0.0000E+00  0.0000E+00  0.8000E+01
  -8.650  0.0000E+00  0.0000E+00  0.8000E+01
  -8.640  0.0000E+00  0.0000E+00  0.8000E+01
  -8.630  0.0000E+00  0.0000E+00  0.8000E+01
  -8.620  0.0000E+00  0.0000E+00  0.8000E+01
  -8.610  0.0000E+00  0.0000E+00  0.8000E+01
  -8.600  0.0000E+00  0.0000E+00  0.8000E+01
  -8.590  0.0000E+00  0.0000E+00  0.8000E+01
  -8.580  0.0000E+00  0.0000E+00  0.8000E+01
  -8.570  0.0000E+00  0.0000E+00  0.8000E+01
  -8.560  0.0000E+00  0.0000E+00  0.8000E+01
  -8.550  0.0000E+00  0.0000E+00  0.8000E+01
  -8.540  0.0000E+00  0.0000E+00  0.8000E+01
  -8.530  0.0000E+00  0.0000E+00  0.8000E+01
  -8.520  0.0000E+00  0.0000E+00  0.8000E+01
  -8.510  0.0000E+00  0.0000E+00  0.8000E+01
  -8.500  0.0000E+00  0.0000E+00  0.8000E+01
  -8.490  0.0000E+00  0.0000E+00  0.8000E+01
  -8.480  0.0000E+00  0.0000E+00  0.8000E+01
  -8.470  0.0000E+00  0.0000E+00  0.8000E+01
  -8.460  0.0000E+00  0.0000E+00  0.8000E+01
  -8.450  0.0000E+00  0.0000E+00  0.8000E+01
  -8.440  0.0000E+00  0.0000E+00  0.8000E+01
  -8.430  0.0000E+00  0.0000E+00  0.8000E+01
  -8.420  0.0000E+00  0.0000E+00  0.8000E+01
  -8.410  0.0000E+00  0.0000E+00  0.8000E+01
  -8.400  0.0000E+00  0.0000E+00  0.8000E+01
  -8.390  0.0000E+00  0.0000E+00  0.8000E+01
  -8.380  0.0000E+00  0.0000E+00  0.8000E+01
  -8.370  0.0000E+00  0.0000E+00  0.8000E+01
  -8.360  0.0000E+00  0.0000E+00  0.8000E+01
  -8.350  0.0000E+00  0.0000E+00  0.8000E+01
  -8.340  0.0000E+00  0.0000E+00  0.8000E+01
  -8.330  0.0000E+00  0.0000E+00  0.8000E+01
  -8.320  0.0000E+00  0.0000E+00  0.8000E+01
  -8.310  0.0000E+00  0.0000E+00  0.8000E+01
  -8.300  0.0000E+00  0.0000E+00  0.8000E+01
  -8.290  0.0000E+00  0.0000E+00  0.8000E+01
  -8.280  0.0000E+00  0.0000E+00  0.8000E+01
  -8.270  0.0000E+00  0.0000E+00  0.8000E+01
  -8.260  0.0000E+00  0.0000E+00  0.8000E+01
  -8.250  0.0000E+00  0.0000E+00  0.8000E+01
  -8.240  0.0000E+00  0.0000E+00  0.8000E+01
  -8.230  0.0000E+00  0.0000E+00  0.8000E+01
  -8.220  0.0000E+00  0.0000E+00  0.8000E+01
  -8.210  0.0000E+00  0.0000E+00  0.8000E+01
  -8.200  0.0000E+00  0.0000E+00  0.8000E+01
  -8.190  0.0000E+00  0.0000E+00  0.8000E+01
  -8.180  0.0000E+00  0.0000E+00  0.8000E+01
  -8.170  0.0000E+00  0.0000E+00  0.8000E+01
  -8.160  0.0000E+00  0.0000E+00  0.8000E+01
  -8.150  0.0000E+00  0.0000E+00  0.8000E+01
  -8.140  0.0000E+00  0.0000E+00  0.8000E+01
  -8.130  0.0000E+00  0.0000E+00  0.8000E+01
  -8.120  0.0000E+00  0.0000E+00  0.8000E+01
  -8.110  0.0000E+00  0.0000E+00  0.8000E+01
  -8.100  0.0000E+00  0.0000E+00  0.8000E+01
  -8.090  0.0000E+00  0.0000E+00  0.8000E+01
  -8.080  0.0000E+00  0.0000E+00  0.8000E+01
  -8.070  0.0000E+00  0.0000E+00  0.8000E+01
  -8.060  0.0000E+00  0.0000E+00  0.8000E+01
  -8.050  0.0000E+00  0.0000E+00  0.8000E+01
  -8.040  0.0000E+00  0.0000E+00  0.8000E+01
  -8.030  0.0000E+00  0.0000E+00  0.8000E+01
  -8.020  0.0000E+00  0.0000E+00  0.8000E+01
  -8.010  0.0000E+00  0.0000E+00  0.8000E+01
  -8.000  0.0000E+00  0.0000E+00  0.8000E+01
  -7.990  0.0000E+00  0.0000E+00  0.8000E+01
  -7.980  0.0000E+00  0.0000E+00  0.8000E+01
  -7.970  0.0000E+00  0.0000E+00  0.8000E+01
  -7.960  0.0000E+00  0.0000E+00  0.8000E+01
  -7.950  0.0000E+00  0.0000E+00  0.8000E+01
  -7.940  0.0000E+00  0.0000E+00  0.8000E+01
  -7.930  0.0000E+00  0.0000E+00  0.8000E+01
  -7.920  0.0000E+00  0.0000E+00  0.8000E+01
  -7.910  0.0000E+00  0.0000E+00  0.8000E+01
  -7.900  0.0000E+00  0.0000E+00  0.8000E+01
  -7.890  0.0000E+00  0.0000E+00  0.8000E+01
  -7.880  0.0000E+00  0.0000E+00  0.8000E+01
  -7.870  0.0000E+00  0.0000E+00  0.8000E+01
  -7.860  0.0000E+00  0.0000E+00  0.8000E+01
  -7.850  0.0000E+00  0.0000E+00  0.8000E+01
  -7.840  0.0000E+00  0.0000E+00  0.8000E+01
  -7.830  0.0000E+00  0.0000E+00  0.8000E+01
  -7.820  0.0000E+00  0.0000E+00  0.8000E+01
  -7.810  0.0000E+00  0.0000E+00  0.8000E+01
  -7.800  0.0000E+00  0.0000E+00  0.8000E+01
  -7.790  0.0000E+00  0.0000E+00  0.8000E+01
  -7.780  0.0000E+00  0.0000E+00  0.8000E+01
  -7.770  0.0000E+00  0.0000E+00  0.8000E+01
  -7.760  0.0000E+00  0.0000E+00  0.8000E+01
  -7.750  0.0000E+00  0.0000E+00  0.8000E+01
  -7.740  0.0000E+00  0.0000E+00  0.8000E+01
  -7.730  0.0000E+00  0.0000E+00  0.8000E+01
  -7.720  0.0000E+00  0.0000E+00  0.8000E+01
  -7.710  0.0000E+00  0.0000E+00  0.8000E+01
  -7.700  0.0000E+00  0.0000E+00  0.8000E+01
  -7.690  0.0000E+00  0.0000E+00  0.8000E+01
  -7.680  0.0000E+00  0.0000E+00  0.8000E+01
  -7.670  0.0000E+00  0.0000E+00  0.8000E+01
  -7.660  0.0000E+00  0.0000E+00  0.8000E+01
  -7.650  0.0000E+00  0.0000E+00  0.8000E+01
  -7.640  0.0000E+00  0.0000E+00  0.8000E+01
  -7.630  0.6037E-03  0.0000E+00  0.8000E+01
  -7.620  0.4645E-01  0.2493E-01  0.8000E+01
  -7.610  0.3718E+00  0.2849E+00  0.8003E+01
  -7.600  0.1053E+01  0.9043E+00  0.8016E+01
  -7.590  0.1961E+01  0.1814E+01  0.8044E+01
  -7.580  0.2620E+01  0.2541E+01  0.8090E+01
  -7.570  0.3000E+01  0.2964E+01  0.8146E+01
  -7.560  0.3206E+01  0.3203E+01  0.8208E+01
  -7.550  0.3435E+01  0.3428E+01  0.8274E+01
  -7.540  0.3674E+01  0.3689E+01  0.8345E+01
  -7.530  0.3993E+01  0.3984E+01  0.8422E+01
  -7.520  0.4578E+01  0.4542E+01  0.8507E+01
  -7.510  0.5360E+01  0.5358E+01  0.8606E+01
  -7.500  0.6246E+01  0.6243E+01  0.8722E+01
  -7.490  0.6733E+01  0.6780E+01  0.8853E+01
  -7.480  0.6571E+01  0.6654E+01  0.8988E+01
  -7.470  0.5908E+01  0.6000E+01  0.9114E+01
  -7.460  0.5287E+01  0.5363E+01  0.9226E+01
  -7.450  0.4973E+01  0.5020E+01  0.9329E+01
  -7.440  0.5087E+01  0.5053E+01  0.9429E+01
  -7.430  0.5262E+01  0.5137E+01  0.9531E+01
  -7.420  0.6270E+01  0.5836E+01  0.9642E+01
  -7.410  0.7687E+01  0.7278E+01  0.9777E+01
  -7.400  0.9257E+01  0.8834E+01  0.9942E+01
  -7.390  0.1046E+02  0.1040E+02  0.1014E+02
  -7.380  0.1059E+02  0.1065E+02  0.1035E+02
  -7.370  0.1038E+02  0.1052E+02  0.1056E+02
  -7.360  0.1003E+02  0.1020E+02  0.1077E+02
  -7.350  0.9471E+01  0.9660E+01  0.1096E+02
  -7.340  0.8625E+01  0.8834E+01  0.1115E+02
  -7.330  0.7488E+01  0.7660E+01  0.1131E+02
  -7.320  0.6722E+01  0.6819E+01  0.1145E+02
  -7.310  0.6508E+01  0.6488E+01  0.1158E+02
  -7.300  0.7211E+01  0.7247E+01  0.1172E+02
  -7.290  0.1021E+02  0.1035E+02  0.1193E+02
  -7.280  0.8949E+01  0.9184E+01  0.1212E+02
  -7.270  0.7640E+01  0.7464E+01  0.1228E+02
  -7.260  0.9491E+01  0.9226E+01  0.1245E+02
  -7.250  0.1148E+02  0.1110E+02  0.1266E+02
  -7.240  0.1544E+02  0.1514E+02  0.1292E+02
  -7.230  0.1628E+02  0.1645E+02  0.1325E+02
  -7.220  0.1324E+02  0.1342E+02  0.1353E+02
  -7.210  0.1156E+02  0.1175E+02  0.1378E+02
  -7.200  0.1037E+02  0.1047E+02  0.1400E+02
  -7.190  0.1025E+02  0.1025E+02  0.1421E+02
  -7.180  0.1074E+02  0.1075E+02  0.1442E+02
  -7.170  0.1248E+02  0.1251E+02  0.1464E+02
  -7.160  0.1302E+02  0.1302E+02  0.1491E+02
  -7.150  0.1354E+02  0.1299E+02  0.1516E+02
  -7.140  0.1191E+02  0.1194E+02  0.1542E+02
  -7.130  0.1126E+02  0.1121E+02  0.1565E+02
  -7.120  0.1377E+02  0.1237E+02  0.1588E+02
  -7.110  0.1404E+02  0.1375E+02  0.1615E+02
  -7.100  0.1476E+02  0.1469E+02  0.1644E+02
  -7.090  0.1613E+02  0.1591E+02  0.1674E+02
  -7.080  0.2094E+02  0.2032E+02  0.1711E+02
  -7.070  0.2030E+02  0.2211E+02  0.1756E+02
  -7.060  0.2261E+02  0.2356E+02  0.1805E+02
  -7.050  0.1891E+02  0.1883E+02  0.1845E+02
  -7.040  0.1533E+02  0.1601E+02  0.1880E+02
  -7.030  0.1319E+02  0.1318E+02  0.1908E+02
  -7.020  0.1558E+02  0.1543E+02  0.1936E+02
  -7.010  0.1966E+02  0.1991E+02  0.1975E+02
  -7.000  0.1442E+02  0.1420E+02  0.2008E+02
  -6.990  0.1565E+02  0.1389E+02  0.2036E+02
  -6.980  0.1953E+02  0.1857E+02  0.2070E+02
  -6.970  0.2376E+02  0.2392E+02  0.2113E+02
  -6.960  0.2206E+02  0.2333E+02  0.2161E+02
  -6.950  0.1884E+02  0.1894E+02  0.2202E+02
  -6.940  0.1864E+02  0.1771E+02  0.2242E+02
  -6.930  0.2286E+02  0.2218E+02  0.2282E+02
  -6.920  0.2336E+02  0.2361E+02  0.2329E+02
  -6.910  0.1996E+02  0.2152E+02  0.2373E+02
  -6.900  0.2340E+02  0.2469E+02  0.2414E+02
  -6.890  0.4070E+02  0.5054E+02  0.2496E+02
  -6.880  0.2373E+02  0.2080E+02  0.2549E+02
  -6.870  0.3068E+02  0.2420E+02  0.2597E+02
  -6.860  0.2933E+02  0.3707E+02  0.2660E+02
  -6.850  0.2102E+02  0.2425E+02  0.2715E+02
  -6.840  0.1907E+02  0.1960E+02  0.2755E+02
  -6.830  0.2989E+02  0.2269E+02  0.2798E+02
  -6.820  0.3627E+02  0.4517E+02  0.2875E+02
  -6.810  0.1498E+02  0.1916E+02  0.2933E+02
  -6.800  0.5265E+02  0.3364E+02  0.2976E+02
  -6.790  0.3941E+02  0.4510E+02  0.3094E+02
  -6.780  0.3006E+02  0.2854E+02  0.3161E+02
  -6.770  0.4222E+02  0.3896E+02  0.3227E+02
  -6.760  0.4057E+02  0.4040E+02  0.3311E+02
  -6.750  0.3561E+02  0.3759E+02  0.3389E+02
  -6.740  0.2606E+02  0.2727E+02  0.3451E+02
  -6.730  0.2484E+02  0.2428E+02  0.3501E+02
  -6.720  0.2537E+02  0.2439E+02  0.3552E+02
  -6.710  0.3230E+02  0.3174E+02  0.3609E+02
  -6.700  0.4561E+02  0.4579E+02  0.3688E+02
  -6.690  0.4369E+02  0.4263E+02  0.3776E+02
  -6.680  0.5046E+02  0.4900E+02  0.3868E+02
  -6.670  0.5972E+02  0.6195E+02  0.3986E+02
  -6.660  0.3920E+02  0.4002E+02  0.4087E+02
  -6.650  0.3962E+02  0.3923E+02  0.4160E+02
  -6.640  0.4752E+02  0.4877E+02  0.4252E+02
  -6.630  0.5233E+02  0.5017E+02  0.4347E+02
  -6.620  0.7466E+02  0.6971E+02  0.4469E+02
  -6.610  0.5256E+02  0.5292E+02  0.4593E+02
  -6.600  0.5425E+02  0.5603E+02  0.4702E+02
  -6.590  0.3414E+02  0.3438E+02  0.4799E+02
  -6.580  0.4314E+02  0.4078E+02  0.4872E+02
  -6.570  0.3369E+02  0.3169E+02  0.4954E+02
  -6.560  0.3133E+02  0.2690E+02  0.5015E+02
  -6.550  0.3007E+02  0.2858E+02  0.5074E+02
  -6.540  0.2764E+02  0.2802E+02  0.5131E+02
  -6.530  0.2112E+02  0.3319E+02  0.5192E+02
  -6.520  0.1838E+02  0.1696E+02  0.5230E+02
  -6.510  0.8508E+02  0.2289E+02  0.5279E+02
  -6.500  0.9368E+02  0.8814E+02  0.5443E+02
  -6.490  0.4501E+02  0.6501E+02  0.5596E+02
  -6.480  0.3088E+02  0.2180E+02  0.5668E+02
  -6.470  0.6887E+02  0.4150E+02  0.5746E+02
  -6.460  0.6698E+02  0.4488E+02  0.5862E+02
  -6.450  0.5383E+02  0.6090E+02  0.5968E+02
  -6.440  0.4742E+02  0.6078E+02  0.6085E+02
  -6.430  0.3568E+02  0.3745E+02  0.6186E+02
  -6.420  0.3844E+02  0.4108E+02  0.6260E+02
  -6.410  0.3373E+02  0.3758E+02  0.6336E+02
  -6.400  0.3391E+02  0.3579E+02  0.6407E+02
  -6.390  0.3452E+02  0.3753E+02  0.6477E+02
  -6.380  0.3048E+02  0.2635E+02  0.6546E+02
  -6.370  0.3256E+02  0.1770E+02  0.6599E+02
  -6.360  0.2601E+02  0.4663E+01  0.6640E+02
  -6.350  0.3327E+02  0.9454E+01  0.6676E+02
  -6.340  0.3051E+02  0.2352E+02  0.6725E+02
  -6.330  0.3746E+02  0.3256E+02  0.6785E+02
  -6.320  0.2738E+02  0.3548E+02  0.6854E+02
  -6.310  0.1611E+02  0.3881E+02  0.6912E+02
  -6.300  0.1941E-01  0.3348E+02  0.6958E+02
  -6.290  0.0000E+00  0.2354E+02  0.6987E+02
  -6.280  0.0000E+00  0.3027E+00  0.7000E+02
  -6.270  0.0000E+00  0.0000E+00  0.7000E+02
  -6.260  0.0000E+00  0.0000E+00  0.7000E+02
  -6.250  0.0000E+00  0.0000E+00  0.7000E+02
  -6.240  0.0000E+00  0.0000E+00  0.7000E+02
  -6.230  0.0000E+00  0.0000E+00  0.7000E+02
  -6.220  0.0000E+00  0.0000E+00  0.7000E+02
  -6.210  0.0000E+00  0.0000E+00  0.7000E+02
  -6.200  0.0000E+00  0.0000E+00  0.7000E+02
  -6.190  0.0000E+00  0.0000E+00  0.7000E+02
  -6.180  0.0000E+00  0.0000E+00  0.7000E+02
  -6.170  0.0000E+00  0.0000E+00  0.7000E+02
  -6.160  0.0000E+00  0.0000E+00  0.7000E+02
  -6.150  0.0000E+00  0.0000E+00  0.7000E+02
  -6.140  0.0000E+00  0.0000E+00  0.7000E+02
  -6.130  0.0000E+00  0.0000E+00  0.7000E+02
  -6.120  0.0000E+00  0.0000E+00  0.7000E+02
  -6.110  0.0000E+00  0.0000E+00  0.7000E+02
  -6.100  0.0000E+00  0.0000E+00  0.7000E+02
  -6.090  0.0000E+00  0.0000E+00  0.7000E+02
  -6.080  0.0000E+00  0.0000E+00  0.7000E+02
  -6.070  0.0000E+00  0.0000E+00  0.7000E+02
  -6.060  0.0000E+00  0.0000E+00  0.7000E+02
  -6.050  0.0000E+00  0.0000E+00  0.7000E+02
  -6.040  0.0000E+00  0.0000E+00  0.7000E+02
  -6.030  0.0000E+00  0.0000E+00  0.7000E+02
  -6.020  0.0000E+00  0.0000E+00  0.7000E+02
  -6.010  0.0000E+00  0.0000E+00  0.7000E+02
  -6.000  0.0000E+00  0.0000E+00  0.7000E+02
  -5.990  0.0000E+00  0.0000E+00  0.7000E+02
  -5.980  0.0000E+00  0.0000E+00  0.7000E+02
  -5.970  0.0000E+00  0.0000E+00  0.7000E+02
  -5.960  0.0000E+00  0.0000E+00  0.7000E+02
  -5.950  0.0000E+00  0.0000E+00  0.7000E+02
  -5.940  0.0000E+00  0.0000E+00  0.7000E+02
  -5.930  0.0000E+00  0.0000E+00  0.7000E+02
  -5.920  0.0000E+00  0.0000E+00  0.7000E+02
  -5.910  0.0000E+00  0.0000E+00  0.7000E+02
  -5.900  0.0000E+00  0.0000E+00  0.7000E+02
  -5.890  0.0000E+00  0.0000E+00  0.7000E+02
  -5.880  0.0000E+00  0.0000E+00  0.7000E+02
  -5.870  0.0000E+00  0.0000E+00  0.7000E+02
  -5.860  0.0000E+00  0.0000E+00  0.7000E+02
  -5.850  0.0000E+00  0.0000E+00  0.7000E+02
  -5.840  0.0000E+00  0.0000E+00  0.7000E+02
  -5.830  0.0000E+00  0.0000E+00  0.7000E+02
  -5.820  0.0000E+00  0.0000E+00  0.7000E+02
  -5.810  0.0000E+00  0.0000E+00  0.7000E+02
  -5.800  0.0000E+00  0.0000E+00  0.7000E+02
  -5.790  0.0000E+00  0.0000E+00  0.7000E+02
  -5.780  0.0000E+00  0.0000E+00  0.7000E+02
  -5.770  0.0000E+00  0.0000E+00  0.7000E+02
  -5.760  0.0000E+00  0.0000E+00  0.7000E+02
  -5.750  0.0000E+00  0.0000E+00  0.7000E+02
  -5.740  0.0000E+00  0.0000E+00  0.7000E+02
  -5.730  0.0000E+00  0.0000E+00  0.7000E+02
  -5.720  0.0000E+00  0.0000E+00  0.7000E+02
  -5.710  0.0000E+00  0.0000E+00  0.7000E+02
  -5.700  0.0000E+00  0.0000E+00  0.7000E+02
  -5.690  0.0000E+00  0.0000E+00  0.7000E+02
  -5.680  0.0000E+00  0.0000E+00  0.7000E+02
  -5.670  0.0000E+00  0.0000E+00  0.7000E+02
  -5.660  0.0000E+00  0.0000E+00  0.7000E+02
  -5.650  0.0000E+00  0.0000E+00  0.7000E+02
  -5.640  0.0000E+00  0.0000E+00  0.7000E+02
  -5.630  0.0000E+00  0.0000E+00  0.7000E+02
  -5.620  0.0000E+00  0.0000E+00  0.7000E+02
  -5.610  0.0000E+00  0.0000E+00  0.7000E+02
  -5.600  0.0000E+00  0.0000E+00  0.7000E+02
  -5.590  0.0000E+00  0.0000E+00  0.7000E+02
  -5.580  0.0000E+00  0.0000E+00  0.7000E+02
  -5.570  0.0000E+00  0.0000E+00  0.7000E+02
  -5.560  0.0000E+00  0.0000E+00  0.7000E+02
  -5.550  0.0000E+00  0.0000E+00  0.7000E+02
  -5.540  0.0000E+00  0.0000E+00  0.7000E+02
  -5.530  0.0000E+00  0.0000E+00  0.7000E+02
  -5.520  0.0000E+00  0.0000E+00  0.7000E+02
  -5.510  0.0000E+00  0.0000E+00  0.7000E+02
  -5.500  0.0000E+00  0.0000E+00  0.7000E+02
  -5.490  0.0000E+00  0.0000E+00  0.7000E+02
  -5.480  0.0000E+00  0.0000E+00  0.7000E+02
  -5.470  0.0000E+00  0.0000E+00  0.7000E+02
  -5.460  0.0000E+00  0.0000E+00  0.7000E+02
  -5.450  0.0000E+00  0.0000E+00  0.7000E+02
  -5.440  0.0000E+00  0.0000E+00  0.7000E+02
  -5.430  0.0000E+00  0.0000E+00  0.7000E+02
  -5.420  0.0000E+00  0.0000E+00  0.7000E+02
  -5.410  0.0000E+00  0.0000E+00  0.7000E+02
  -5.400  0.0000E+00  0.0000E+00  0.7000E+02
  -5.390  0.0000E+00  0.0000E+00  0.7000E+02
  -5.380  0.0000E+00  0.0000E+00  0.7000E+02
  -5.370  0.0000E+00  0.0000E+00  0.7000E+02
  -5.360  0.0000E+00  0.0000E+00  0.7000E+02
  -5.350  0.0000E+00  0.0000E+00  0.7000E+02
  -5.340  0.0000E+00  0.0000E+00  0.7000E+02
  -5.330  0.0000E+00  0.0000E+00  0.7000E+02
  -5.320  0.0000E+00  0.0000E+00  0.7000E+02
  -5.310  0.0000E+00  0.0000E+00  0.7000E+02
  -5.300  0.0000E+00  0.0000E+00  0.7000E+02
  -5.290  0.0000E+00  0.0000E+00  0.7000E+02
  -5.280  0.0000E+00  0.0000E+00  0.7000E+02
  -5.270  0.0000E+00  0.0000E+00  0.7000E+02
  -5.260  0.0000E+00  0.0000E+00  0.7000E+02
  -5.250  0.0000E+00  0.0000E+00  0.7000E+02
  -5.240  0.0000E+00  0.0000E+00  0.7000E+02
  -5.230  0.0000E+00  0.0000E+00  0.7000E+02
  -5.220  0.0000E+00  0.0000E+00  0.7000E+02
  -5.210  0.0000E+00  0.0000E+00  0.7000E+02
  -5.200  0.0000E+00  0.0000E+00  0.7000E+02
  -5.190  0.0000E+00  0.0000E+00  0.7000E+02
  -5.180  0.0000E+00  0.0000E+00  0.7000E+02
  -5.170  0.0000E+00  0.0000E+00  0.7000E+02
  -5.160  0.0000E+00  0.0000E+00  0.7000E+02
  -5.150  0.0000E+00  0.0000E+00  0.7000E+02
  -5.140  0.0000E+00  0.0000E+00  0.7000E+02
  -5.130  0.0000E+00  0.0000E+00  0.7000E+02
  -5.120  0.0000E+00  0.0000E+00  0.7000E+02
  -5.110  0.0000E+00  0.0000E+00  0.7000E+02
  -5.100  0.0000E+00  0.0000E+00  0.7000E+02
  -5.090  0.0000E+00  0.0000E+00  0.7000E+02
  -5.080  0.0000E+00  0.0000E+00  0.7000E+02
  -5.070  0.0000E+00  0.0000E+00  0.7000E+02
  -5.060  0.0000E+00  0.0000E+00  0.7000E+02
  -5.050  0.0000E+00  0.0000E+00  0.7000E+02
  -5.040  0.0000E+00  0.0000E+00  0.7000E+02
  -5.030  0.0000E+00  0.0000E+00  0.7000E+02
  -5.020  0.0000E+00  0.0000E+00  0.7000E+02
  -5.010  0.0000E+00  0.0000E+00  0.7000E+02
  -5.000  0.0000E+00  0.0000E+00  0.7000E+02
  -4.990  0.0000E+00  0.0000E+00  0.7000E+02
  -4.980  0.0000E+00  0.0000E+00  0.7000E+02
  -4.970  0.0000E+00  0.0000E+00  0.7000E+02
  -4.960  0.0000E+00  0.0000E+00  0.7000E+02
  -4.950  0.0000E+00  0.0000E+00  0.7000E+02
  -4.940  0.0000E+00  0.0000E+00  0.7000E+02
  -4.930  0.0000E+00  0.0000E+00  0.7000E+02
  -4.920  0.0000E+00  0.0000E+00  0.7000E+02
  -4.910  0.0000E+00  0.0000E+00  0.7000E+02
  -4.900  0.0000E+00  0.0000E+00  0.7000E+02
  -4.890  0.0000E+00  0.0000E+00  0.7000E+02
  -4.880  0.0000E+00  0.0000E+00  0.7000E+02
  -4.870  0.0000E+00  0.0000E+00  0.7000E+02
  -4.860  0.0000E+00  0.0000E+00  0.7000E+02
  -4.850  0.0000E+00  0.0000E+00  0.7000E+02
  -4.840  0.0000E+00  0.0000E+00  0.7000E+02
  -4.830  0.0000E+00  0.0000E+00  0.7000E+02
  -4.820  0.0000E+00  0.0000E+00  0.7000E+02
  -4.810  0.0000E+00  0.0000E+00  0.7000E+02
  -4.800  0.0000E+00  0.0000E+00  0.7000E+02
  -4.790  0.0000E+00  0.0000E+00  0.7000E+02
  -4.780  0.0000E+00  0.0000E+00  0.7000E+02
  -4.770  0.0000E+00  0.0000E+00  0.7000E+02
  -4.760  0.0000E+00  0.0000E+00  0.7000E+02
  -4.750  0.0000E+00  0.0000E+00  0.7000E+02
  -4.740  0.0000E+00  0.0000E+00  0.7000E+02
  -4.730  0.0000E+00  0.0000E+00  0.7000E+02
  -4.720  0.0000E+00  0.0000E+00  0.7000E+02
  -4.710  0.0000E+00  0.0000E+00  0.7000E+02
  -4.700  0.0000E+00  0.0000E+00  0.7000E+02
  -4.690  0.0000E+00  0.0000E+00  0.7000E+02
  -4.680  0.0000E+00  0.0000E+00  0.7000E+02
  -4.670  0.0000E+00  0.0000E+00  0.7000E+02
  -4.660  0.0000E+00  0.0000E+00  0.7000E+02
  -4.650  0.0000E+00  0.0000E+00  0.7000E+02
  -4.640  0.0000E+00  0.0000E+00  0.7000E+02
  -4.630  0.0000E+00  0.0000E+00  0.7000E+02
  -4.620  0.0000E+00  0.0000E+00  0.7000E+02
  -4.610  0.0000E+00  0.0000E+00  0.7000E+02
  -4.600  0.0000E+00  0.0000E+00  0.7000E+02
  -4.590  0.0000E+00  0.0000E+00  0.7000E+02
  -4.580  0.0000E+00  0.0000E+00  0.7000E+02
  -4.570  0.0000E+00  0.0000E+00  0.7000E+02
  -4.560  0.0000E+00  0.0000E+00  0.7000E+02
  -4.550  0.0000E+00  0.0000E+00  0.7000E+02
  -4.540  0.0000E+00  0.0000E+00  0.7000E+02
  -4.530  0.0000E+00  0.0000E+00  0.7000E+02
  -4.520  0.0000E+00  0.0000E+00  0.7000E+02
  -4.510  0.0000E+00  0.0000E+00  0.7000E+02
  -4.500  0.0000E+00  0.0000E+00  0.7000E+02
  -4.490  0.0000E+00  0.0000E+00  0.7000E+02
  -4.480  0.0000E+00  0.0000E+00  0.7000E+02
  -4.470  0.0000E+00  0.0000E+00  0.7000E+02
  -4.460  0.0000E+00  0.0000E+00  0.7000E+02
  -4.450  0.0000E+00  0.0000E+00  0.7000E+02
  -4.440  0.0000E+00  0.0000E+00  0.7000E+02
  -4.430  0.0000E+00  0.0000E+00  0.7000E+02
  -4.420  0.0000E+00  0.0000E+00  0.7000E+02
  -4.410  0.0000E+00  0.0000E+00  0.7000E+02
  -4.400  0.0000E+00  0.0000E+00  0.7000E+02
  -4.390  0.0000E+00  0.0000E+00  0.7000E+02
  -4.380  0.0000E+00  0.0000E+00  0.7000E+02
  -4.370  0.0000E+00  0.0000E+00  0.7000E+02
  -4.360  0.0000E+00  0.0000E+00  0.7000E+02
  -4.350  0.0000E+00  0.0000E+00  0.7000E+02
  -4.340  0.0000E+00  0.0000E+00  0.7000E+02
  -4.330  0.0000E+00  0.0000E+00  0.7000E+02
  -4.320  0.0000E+00  0.0000E+00  0.7000E+02
  -4.310  0.0000E+00  0.0000E+00  0.7000E+02
  -4.300  0.0000E+00  0.0000E+00  0.7000E+02
  -4.290  0.0000E+00  0.0000E+00  0.7000E+02
  -4.280  0.0000E+00  0.0000E+00  0.7000E+02
  -4.270  0.0000E+00  0.0000E+00  0.7000E+02
  -4.260  0.0000E+00  0.0000E+00  0.7000E+02
  -4.250  0.0000E+00  0.0000E+00  0.7000E+02
  -4.240  0.0000E+00  0.0000E+00  0.7000E+02
  -4.230  0.0000E+00  0.0000E+00  0.7000E+02
  -4.220  0.0000E+00  0.0000E+00  0.7000E+02
  -4.210  0.0000E+00  0.0000E+00  0.7000E+02
  -4.200  0.0000E+00  0.0000E+00  0.7000E+02
  -4.190  0.0000E+00  0.0000E+00  0.7000E+02
  -4.180  0.0000E+00  0.0000E+00  0.7000E+02
  -4.170  0.0000E+00  0.0000E+00  0.7000E+02
  -4.160  0.0000E+00  0.0000E+00  0.7000E+02
  -4.150  0.0000E+00  0.0000E+00  0.7000E+02
  -4.140  0.0000E+00  0.0000E+00  0.7000E+02
  -4.130  0.0000E+00  0.0000E+00  0.7000E+02
  -4.120  0.0000E+00  0.0000E+00  0.7000E+02
  -4.110  0.0000E+00  0.0000E+00  0.7000E+02
  -4.100  0.0000E+00  0.0000E+00  0.7000E+02
  -4.090  0.0000E+00  0.0000E+00  0.7000E+02
  -4.080  0.0000E+00  0.0000E+00  0.7000E+02
  -4.070  0.0000E+00  0.0000E+00  0.7000E+02
  -4.060  0.0000E+00  0.0000E+00  0.7000E+02
  -4.050  0.0000E+00  0.0000E+00  0.7000E+02
  -4.040  0.0000E+00  0.0000E+00  0.7000E+02
  -4.030  0.0000E+00  0.0000E+00  0.7000E+02
  -4.020  0.0000E+00  0.0000E+00  0.7000E+02
  -4.010  0.0000E+00  0.0000E+00  0.7000E+02
  -4.000  0.0000E+00  0.0000E+00  0.7000E+02
  -3.990  0.0000E+00  0.0000E+00  0.7000E+02
  -3.980  0.0000E+00  0.0000E+00  0.7000E+02
  -3.970  0.0000E+00  0.0000E+00  0.7000E+02
  -3.960  0.0000E+00  0.0000E+00  0.7000E+02
  -3.950  0.0000E+00  0.0000E+00  0.7000E+02
  -3.940  0.0000E+00  0.0000E+00  0.7000E+02
  -3.930  0.0000E+00  0.0000E+00  0.7000E+02
  -3.920  0.0000E+00  0.0000E+00  0.7000E+02
  -3.910  0.0000E+00  0.0000E+00  0.7000E+02
  -3.900  0.0000E+00  0.0000E+00  0.7000E+02
  -3.890  0.0000E+00  0.0000E+00  0.7000E+02
  -3.880  0.0000E+00  0.0000E+00  0.7000E+02
  -3.870  0.0000E+00  0.0000E+00  0.7000E+02
  -3.860  0.0000E+00  0.0000E+00  0.7000E+02
  -3.850  0.0000E+00  0.0000E+00  0.7000E+02
  -3.840  0.0000E+00  0.0000E+00  0.7000E+02
  -3.830  0.0000E+00  0.0000E+00  0.7000E+02
  -3.820  0.0000E+00  0.0000E+00  0.7000E+02
  -3.810  0.0000E+00  0.0000E+00  0.7000E+02
  -3.800  0.0000E+00  0.0000E+00  0.7000E+02
  -3.790  0.0000E+00  0.0000E+00  0.7000E+02
  -3.780  0.0000E+00  0.0000E+00  0.7000E+02
  -3.770  0.0000E+00  0.0000E+00  0.7000E+02
  -3.760  0.0000E+00  0.0000E+00  0.7000E+02
  -3.750  0.0000E+00  0.0000E+00  0.7000E+02
  -3.740  0.0000E+00  0.0000E+00  0.7000E+02
  -3.730  0.0000E+00  0.0000E+00  0.7000E+02
  -3.720  0.0000E+00  0.0000E+00  0.7000E+02
  -3.710  0.0000E+00  0.0000E+00  0.7000E+02
  -3.700  0.0000E+00  0.0000E+00  0.7000E+02
  -3.690  0.0000E+00  0.0000E+00  0.7000E+02
  -3.680  0.0000E+00  0.0000E+00  0.7000E+02
  -3.670  0.0000E+00  0.0000E+00  0.7000E+02
  -3.660  0.0000E+00  0.0000E+00  0.7000E+02
  -3.650  0.0000E+00  0.0000E+00  0.7000E+02
  -3.640  0.0000E+00  0.0000E+00  0.7000E+02
  -3.630  0.0000E+00  0.0000E+00  0.7000E+02
  -3.620  0.0000E+00  0.0000E+00  0.7000E+02
  -3.610  0.0000E+00  0.0000E+00  0.7000E+02
  -3.600  0.0000E+00  0.0000E+00  0.7000E+02
  -3.590  0.0000E+00  0.0000E+00  0.7000E+02
  -3.580  0.0000E+00  0.0000E+00  0.7000E+02
  -3.570  0.0000E+00  0.0000E+00  0.7000E+02
  -3.560  0.0000E+00  0.0000E+00  0.7000E+02
  -3.550  0.0000E+00  0.0000E+00  0.7000E+02
  -3.540  0.0000E+00  0.0000E+00  0.7000E+02
  -3.530  0.0000E+00  0.0000E+00  0.7000E+02
  -3.520  0.0000E+00  0.0000E+00  0.7000E+02
  -3.510  0.0000E+00  0.0000E+00  0.7000E+02
  -3.500  0.0000E+00  0.0000E+00  0.7000E+02
  -3.490  0.0000E+00  0.0000E+00  0.7000E+02
  -3.480  0.0000E+00  0.0000E+00  0.7000E+02
  -3.470  0.0000E+00  0.0000E+00  0.7000E+02
  -3.460  0.0000E+00  0.0000E+00  0.7000E+02
  -3.450  0.0000E+00  0.0000E+00  0.7000E+02
  -3.440  0.0000E+00  0.0000E+00  0.7000E+02
  -3.430  0.0000E+00  0.0000E+00  0.7000E+02
  -3.420  0.0000E+00  0.0000E+00  0.7000E+02
  -3.410  0.0000E+00  0.0000E+00  0.7000E+02
  -3.400  0.0000E+00  0.0000E+00  0.7000E+02
  -3.390  0.0000E+00  0.0000E+00  0.7000E+02
  -3.380  0.0000E+00  0.0000E+00  0.7000E+02
  -3.370  0.0000E+00  0.0000E+00  0.7000E+02
  -3.360  0.0000E+00  0.0000E+00  0.7000E+02
  -3.350  0.0000E+00  0.0000E+00  0.7000E+02
  -3.340  0.0000E+00  0.0000E+00  0.7000E+02
  -3.330  0.0000E+00  0.0000E+00  0.7000E+02
  -3.320  0.0000E+00  0.0000E+00  0.7000E+02
  -3.310  0.0000E+00  0.0000E+00  0.7000E+02
  -3.300  0.0000E+00  0.0000E+00  0.7000E+02
  -3.290  0.0000E+00  0.0000E+00  0.7000E+02
  -3.280  0.0000E+00  0.0000E+00  0.7000E+02
  -3.270  0.0000E+00  0.0000E+00  0.7000E+02
  -3.260  0.0000E+00  0.0000E+00  0.7000E+02
  -3.250  0.0000E+00  0.0000E+00  0.7000E+02
  -3.240  0.0000E+00  0.0000E+00  0.7000E+02
  -3.230  0.0000E+00  0.0000E+00  0.7000E+02
  -3.220  0.0000E+00  0.0000E+00  0.7000E+02
  -3.210  0.0000E+00  0.0000E+00  0.7000E+02
  -3.200  0.0000E+00  0.0000E+00  0.7000E+02
  -3.190  0.0000E+00  0.0000E+00  0.7000E+02
  -3.180  0.0000E+00  0.0000E+00  0.7000E+02
  -3.170  0.0000E+00  0.0000E+00  0.7000E+02
  -3.160  0.0000E+00  0.0000E+00  0.7000E+02
  -3.150  0.0000E+00  0.0000E+00  0.7000E+02
  -3.140  0.0000E+00  0.0000E+00  0.7000E+02
  -3.130  0.0000E+00  0.0000E+00  0.7000E+02
  -3.120  0.0000E+00  0.0000E+00  0.7000E+02
  -3.110  0.0000E+00  0.0000E+00  0.7000E+02
  -3.100  0.0000E+00  0.0000E+00  0.7000E+02
  -3.090  0.0000E+00  0.0000E+00  0.7000E+02
  -3.080  0.0000E+00  0.0000E+00  0.7000E+02
  -3.070  0.0000E+00  0.0000E+00  0.7000E+02
  -3.060  0.0000E+00  0.0000E+00  0.7000E+02
  -3.050  0.0000E+00  0.0000E+00  0.7000E+02
  -3.040  0.0000E+00  0.0000E+00  0.7000E+02
  -3.030  0.0000E+00  0.0000E+00  0.7000E+02
  -3.020  0.0000E+00  0.0000E+00  0.7000E+02
  -3.010  0.0000E+00  0.0000E+00  0.7000E+02
  -3.000  0.0000E+00  0.0000E+00  0.7000E+02
  -2.990  0.0000E+00  0.0000E+00  0.7000E+02
  -2.980  0.0000E+00  0.0000E+00  0.7000E+02
  -2.970  0.0000E+00  0.0000E+00  0.7000E+02
  -2.960  0.0000E+00  0.0000E+00  0.7000E+02
  -2.950  0.0000E+00  0.0000E+00  0.7000E+02
  -2.940  0.0000E+00  0.0000E+00  0.7000E+02
  -2.930  0.0000E+00  0.0000E+00  0.7000E+02
  -2.920  0.0000E+00  0.0000E+00  0.7000E+02
  -2.910  0.0000E+00  0.0000E+00  0.7000E+02
  -2.900  0.0000E+00  0.0000E+00  0.7000E+02
  -2.890  0.0000E+00  0.0000E+00  0.7000E+02
  -2.880  0.0000E+00  0.0000E+00  0.7000E+02
  -2.870  0.0000E+00  0.0000E+00  0.7000E+02
  -2.860  0.0000E+00  0.0000E+00  0.7000E+02
  -2.850  0.0000E+00  0.0000E+00  0.7000E+02
  -2.840  0.0000E+00  0.0000E+00  0.7000E+02
  -2.830  0.0000E+00  0.0000E+00  0.7000E+02
  -2.820  0.0000E+00  0.0000E+00  0.7000E+02
  -2.810  0.0000E+00  0.0000E+00  0.7000E+02
  -2.800  0.0000E+00  0.0000E+00  0.7000E+02
  -2.790  0.0000E+00  0.0000E+00  0.7000E+02
  -2.780  0.0000E+00  0.0000E+00  0.7000E+02
  -2.770  0.0000E+00  0.0000E+00  0.7000E+02
  -2.760  0.0000E+00  0.0000E+00  0.7000E+02
  -2.750  0.0000E+00  0.0000E+00  0.7000E+02
  -2.740  0.0000E+00  0.0000E+00  0.7000E+02
  -2.730  0.0000E+00  0.0000E+00  0.7000E+02
  -2.720  0.0000E+00  0.0000E+00  0.7000E+02
  -2.710  0.0000E+00  0.0000E+00  0.7000E+02
  -2.700  0.0000E+00  0.0000E+00  0.7000E+02
  -2.690  0.0000E+00  0.0000E+00  0.7000E+02
  -2.680  0.0000E+00  0.0000E+00  0.7000E+02
  -2.670  0.0000E+00  0.0000E+00  0.7000E+02
  -2.660  0.0000E+00  0.0000E+00  0.7000E+02
  -2.650  0.0000E+00  0.0000E+00  0.7000E+02
  -2.640  0.0000E+00  0.0000E+00  0.7000E+02
  -2.630  0.0000E+00  0.0000E+00  0.7000E+02
  -2.620  0.0000E+00  0.0000E+00  0.7000E+02
  -2.610  0.0000E+00  0.0000E+00  0.7000E+02
  -2.600  0.0000E+00  0.0000E+00  0.7000E+02
  -2.590  0.0000E+00  0.0000E+00  0.7000E+02
  -2.580  0.0000E+00  0.0000E+00  0.7000E+02
  -2.570  0.0000E+00  0.0000E+00  0.7000E+02
  -2.560  0.0000E+00  0.0000E+00  0.7000E+02
  -2.550  0.0000E+00  0.0000E+00  0.7000E+02
  -2.540  0.0000E+00  0.0000E+00  0.7000E+02
  -2.530  0.0000E+00  0.0000E+00  0.7000E+02
  -2.520  0.0000E+00  0.0000E+00  0.7000E+02
  -2.510  0.0000E+00  0.0000E+00  0.7000E+02
  -2.500  0.0000E+00  0.0000E+00  0.7000E+02
  -2.490  0.0000E+00  0.0000E+00  0.7000E+02
  -2.480  0.0000E+00  0.0000E+00  0.7000E+02
  -2.470  0.0000E+00  0.0000E+00  0.7000E+02
  -2.460  0.0000E+00  0.0000E+00  0.7000E+02
  -2.450  0.0000E+00  0.0000E+00  0.7000E+02
  -2.440  0.0000E+00  0.0000E+00  0.7000E+02
  -2.430  0.0000E+00  0.0000E+00  0.7000E+02
  -2.420  0.0000E+00  0.0000E+00  0.7000E+02
  -2.410  0.0000E+00  0.0000E+00  0.7000E+02
  -2.400  0.0000E+00  0.0000E+00  0.7000E+02
  -2.390  0.0000E+00  0.0000E+00  0.7000E+02
  -2.380  0.0000E+00  0.0000E+00  0.7000E+02
  -2.370  0.0000E+00  0.0000E+00  0.7000E+02
  -2.360  0.0000E+00  0.0000E+00  0.7000E+02
  -2.350  0.0000E+00  0.0000E+00  0.7000E+02
  -2.340  0.0000E+00  0.0000E+00  0.7000E+02
  -2.330  0.0000E+00  0.0000E+00  0.7000E+02
  -2.320  0.0000E+00  0.0000E+00  0.7000E+02
  -2.310  0.0000E+00  0.0000E+00  0.7000E+02
  -2.300  0.0000E+00  0.0000E+00  0.7000E+02
  -2.290  0.0000E+00  0.0000E+00  0.7000E+02
  -2.280  0.0000E+00  0.0000E+00  0.7000E+02
  -2.270  0.0000E+00  0.0000E+00  0.7000E+02
  -2.260  0.0000E+00  0.0000E+00  0.7000E+02
  -2.250  0.0000E+00  0.0000E+00  0.7000E+02
  -2.240  0.0000E+00  0.0000E+00  0.7000E+02
  -2.230  0.0000E+00  0.0000E+00  0.7000E+02
  -2.220  0.0000E+00  0.0000E+00  0.7000E+02
  -2.210  0.0000E+00  0.0000E+00  0.7000E+02
  -2.200  0.0000E+00  0.0000E+00  0.7000E+02
  -2.190  0.0000E+00  0.0000E+00  0.7000E+02
  -2.180  0.0000E+00  0.0000E+00  0.7000E+02
  -2.170  0.0000E+00  0.0000E+00  0.7000E+02
  -2.160  0.0000E+00  0.0000E+00  0.7000E+02
  -2.150  0.0000E+00  0.0000E+00  0.7000E+02
  -2.140  0.0000E+00  0.0000E+00  0.7000E+02
  -2.130  0.0000E+00  0.0000E+00  0.7000E+02
  -2.120  0.0000E+00  0.0000E+00  0.7000E+02
  -2.110  0.0000E+00  0.0000E+00  0.7000E+02
  -2.100  0.0000E+00  0.0000E+00  0.7000E+02
  -2.090  0.0000E+00  0.0000E+00  0.7000E+02
  -2.080  0.0000E+00  0.0000E+00  0.7000E+02
  -2.070  0.0000E+00  0.0000E+00  0.7000E+02
  -2.060  0.0000E+00  0.0000E+00  0.7000E+02
  -2.050  0.0000E+00  0.0000E+00  0.7000E+02
  -2.040  0.0000E+00  0.0000E+00  0.7000E+02
  -2.030  0.0000E+00  0.0000E+00  0.7000E+02
  -2.020  0.0000E+00  0.0000E+00  0.7000E+02
  -2.010  0.0000E+00  0.0000E+00  0.7000E+02
  -2.000  0.0000E+00  0.0000E+00  0.7000E+02
  -1.990  0.0000E+00  0.0000E+00  0.7000E+02
  -1.980  0.0000E+00  0.0000E+00  0.7000E+02
  -1.970  0.0000E+00  0.0000E+00  0.7000E+02
  -1.960  0.0000E+00  0.0000E+00  0.7000E+02
  -1.950  0.0000E+00  0.0000E+00  0.7000E+02
  -1.940  0.0000E+00  0.0000E+00  0.7000E+02
  -1.930  0.0000E+00  0.0000E+00  0.7000E+02
  -1.920  0.0000E+00  0.0000E+00  0.7000E+02
  -1.910  0.0000E+00  0.0000E+00  0.7000E+02
  -1.900  0.0000E+00  0.0000E+00  0.7000E+02
  -1.890  0.0000E+00  0.0000E+00  0.7000E+02
  -1.880  0.0000E+00  0.0000E+00  0.7000E+02
  -1.870  0.0000E+00  0.0000E+00  0.7000E+02
  -1.860  0.0000E+00  0.0000E+00  0.7000E+02
  -1.850  0.0000E+00  0.0000E+00  0.7000E+02
  -1.840  0.0000E+00  0.0000E+00  0.7000E+02
  -1.830  0.0000E+00  0.0000E+00  0.7000E+02
  -1.820  0.0000E+00  0.0000E+00  0.7000E+02
  -1.810  0.0000E+00  0.0000E+00  0.7000E+02
  -1.800  0.0000E+00  0.0000E+00  0.7000E+02
  -1.790  0.0000E+00  0.0000E+00  0.7000E+02
  -1.780  0.0000E+00  0.0000E+00  0.7000E+02
  -1.770  0.0000E+00  0.0000E+00  0.7000E+02
  -1.760  0.0000E+00  0.0000E+00  0.7000E+02
  -1.750  0.0000E+00  0.0000E+00  0.7000E+02
  -1.740  0.0000E+00  0.0000E+00  0.7000E+02
  -1.730  0.0000E+00  0.0000E+00  0.7000E+02
  -1.720  0.0000E+00  0.0000E+00  0.7000E+02
  -1.710  0.0000E+00  0.0000E+00  0.7000E+02
  -1.700  0.0000E+00  0.0000E+00  0.7000E+02
  -1.690  0.0000E+00  0.0000E+00  0.7000E+02
  -1.680  0.0000E+00  0.0000E+00  0.7000E+02
  -1.670  0.0000E+00  0.0000E+00  0.7000E+02
  -1.660  0.0000E+00  0.0000E+00  0.7000E+02
  -1.650  0.0000E+00  0.0000E+00  0.7000E+02
  -1.640  0.0000E+00  0.0000E+00  0.7000E+02
  -1.630  0.0000E+00  0.0000E+00  0.7000E+02
  -1.620  0.0000E+00  0.0000E+00  0.7000E+02
  -1.610  0.0000E+00  0.0000E+00  0.7000E+02
  -1.600  0.0000E+00  0.0000E+00  0.7000E+02
  -1.590  0.0000E+00  0.0000E+00  0.7000E+02
  -1.580  0.0000E+00  0.0000E+00  0.7000E+02
  -1.570  0.0000E+00  0.0000E+00  0.7000E+02
  -1.560  0.0000E+00  0.0000E+00  0.7000E+02
  -1.550  0.0000E+00  0.0000E+00  0.7000E+02
  -1.540  0.0000E+00  0.0000E+00  0.7000E+02
  -1.530  0.0000E+00  0.0000E+00  0.7000E+02
  -1.520  0.0000E+00  0.0000E+00  0.7000E+02
  -1.510  0.0000E+00  0.0000E+00  0.7000E+02
  -1.500  0.0000E+00  0.0000E+00  0.7000E+02
  -1.490  0.0000E+00  0.0000E+00  0.7000E+02
  -1.480  0.0000E+00  0.0000E+00  0.7000E+02
  -1.470  0.0000E+00  0.0000E+00  0.7000E+02
  -1.460  0.0000E+00  0.0000E+00  0.7000E+02
  -1.450  0.0000E+00  0.0000E+00  0.7000E+02
  -1.440  0.0000E+00  0.0000E+00  0.7000E+02
  -1.430  0.0000E+00  0.0000E+00  0.7000E+02
  -1.420  0.0000E+00  0.0000E+00  0.7000E+02
  -1.410  0.0000E+00  0.0000E+00  0.7000E+02
  -1.400  0.0000E+00  0.0000E+00  0.7000E+02
  -1.390  0.0000E+00  0.0000E+00  0.7000E+02
  -1.380  0.0000E+00  0.0000E+00  0.7000E+02
  -1.370  0.0000E+00  0.0000E+00  0.7000E+02
  -1.360  0.0000E+00  0.0000E+00  0.7000E+02
  -1.350  0.0000E+00  0.0000E+00  0.7000E+02
  -1.340  0.0000E+00  0.0000E+00  0.7000E+02
  -1.330  0.0000E+00  0.0000E+00  0.7000E+02
  -1.320  0.0000E+00  0.0000E+00  0.7000E+02
  -1.310  0.0000E+00  0.0000E+00  0.7000E+02
  -1.300  0.0000E+00  0.0000E+00  0.7000E+02
  -1.290  0.0000E+00  0.0000E+00  0.7000E+02
  -1.280  0.0000E+00  0.0000E+00  0.7000E+02
  -1.270  0.0000E+00  0.0000E+00  0.7000E+02
  -1.260  0.0000E+00  0.0000E+00  0.7000E+02
  -1.250  0.0000E+00  0.0000E+00  0.7000E+02
  -1.240  0.0000E+00  0.0000E+00  0.7000E+02
  -1.230  0.0000E+00  0.0000E+00  0.7000E+02
  -1.220  0.0000E+00  0.0000E+00  0.7000E+02
  -1.210  0.0000E+00  0.0000E+00  0.7000E+02
  -1.200  0.0000E+00  0.0000E+00  0.7000E+02
  -1.190  0.0000E+00  0.0000E+00  0.7000E+02
  -1.180  0.0000E+00  0.0000E+00  0.7000E+02
  -1.170  0.0000E+00  0.0000E+00  0.7000E+02
  -1.160  0.0000E+00  0.0000E+00  0.7000E+02
  -1.150  0.0000E+00  0.0000E+00  0.7000E+02
  -1.140  0.0000E+00  0.0000E+00  0.7000E+02
  -1.130  0.0000E+00  0.0000E+00  0.7000E+02
  -1.120  0.0000E+00  0.0000E+00  0.7000E+02
  -1.110  0.0000E+00  0.0000E+00  0.7600E+02
  -1.100  0.2052E+03  0.1775E+03  0.7748E+02
  -1.090  0.5559E+02  0.1262E+03  0.8209E+02
  -1.080  0.1488E+03  0.1321E+03  0.8766E+02
  -1.070  0.0000E+00  0.0000E+00  0.8800E+02
  -1.060  0.0000E+00  0.0000E+00  0.8800E+02
  -1.050  0.0000E+00  0.0000E+00  0.8800E+02
  -1.040  0.0000E+00  0.0000E+00  0.8800E+02
  -1.030  0.0000E+00  0.0000E+00  0.8800E+02
  -1.020  0.0000E+00  0.0000E+00  0.8800E+02
  -1.010  0.0000E+00  0.0000E+00  0.8800E+02
  -1.000  0.4255E+02  0.5040E+02  0.8825E+02
  -0.990  0.1707E+03  0.2160E+03  0.9001E+02
  -0.980  0.0000E+00  0.0000E+00  0.9400E+02
  -0.970  0.2829E+03  0.2947E+03  0.9677E+02
  -0.960  0.2590E+02  0.1367E+02  0.9997E+02
  -0.950  0.0000E+00  0.0000E+00  0.1000E+03
  -0.940  0.0000E+00  0.0000E+00  0.1000E+03
  -0.930  0.0000E+00  0.0000E+00  0.1000E+03
  -0.920  0.0000E+00  0.0000E+00  0.1000E+03
  -0.910  0.0000E+00  0.0000E+00  0.1000E+03
  -0.900  0.0000E+00  0.0000E+00  0.1000E+03
  -0.890  0.0000E+00  0.0000E+00  0.1000E+03
  -0.880  0.0000E+00  0.0000E+00  0.1000E+03
  -0.870  0.0000E+00  0.0000E+00  0.1000E+03
  -0.860  0.0000E+00  0.0000E+00  0.1000E+03
  -0.850  0.0000E+00  0.0000E+00  0.1000E+03
  -0.840  0.0000E+00  0.0000E+00  0.1000E+03
  -0.830  0.0000E+00  0.0000E+00  0.1000E+03
  -0.820  0.4558E+00  0.3069E+00  0.1000E+03
  -0.810  0.2302E+02  0.2243E+02  0.1002E+03
  -0.800  0.6213E+02  0.6114E+02  0.1011E+03
  -0.790  0.9871E+02  0.9758E+02  0.1027E+03
  -0.780  0.6574E+02  0.6657E+02  0.1044E+03
  -0.770  0.9743E+02  0.9825E+02  0.1062E+03
  -0.760  0.1717E+03  0.1702E+03  0.1091E+03
  -0.750  0.6024E+02  0.7367E+02  0.1119E+03
  -0.740  0.1353E+03  0.1419E+03  0.1155E+03
  -0.730  0.9995E+02  0.8064E+02  0.1182E+03
  -0.720  0.2965E+03  0.3314E+03  0.1220E+03
  -0.710  0.2003E+03  0.1930E+03  0.1258E+03
  -0.700  0.4279E+03  0.4444E+03  0.1322E+03
  -0.690  0.1775E+03  0.1961E+03  0.1374E+03
  -0.680  0.2482E+03  0.2234E+03  0.1419E+03
  -0.670  0.2463E+03  0.2796E+03  0.1475E+03
  -0.660  0.2816E+03  0.2595E+03  0.1516E+03
  -0.650  0.3981E+03  0.4004E+03  0.1573E+03
  -0.640  0.3290E+03  0.3458E+03  0.1645E+03
  -0.630  0.2606E+03  0.2474E+03  0.1693E+03
  -0.620  0.3691E+03  0.3147E+03  0.1744E+03
  -0.610  0.1881E+03  0.1472E+03  0.1785E+03
  -0.600  0.3305E+03  0.6764E+02  0.1837E+03
  -0.590  0.1519E+03  0.2025E+03  0.1877E+03
  -0.580  0.8103E+02  0.9607E+02  0.1913E+03
  -0.570  0.2591E+03  0.2301E+03  0.1948E+03
  -0.560  0.2077E+03  0.2585E+03  0.1992E+03
  -0.550  0.2027E+03  0.1351E+03  0.2036E+03
  -0.540  0.1552E+03  0.2641E+03  0.2077E+03
  -0.530  0.2436E+03  0.3029E+03  0.2109E+03
  -0.520  0.1615E+03  0.1882E+03  0.2152E+03
  -0.510  0.2612E+03  0.2995E+03  0.2187E+03
  -0.500  0.1780E+03  0.1527E+03  0.2221E+03
  -0.490  0.1643E+03  0.1546E+03  0.2253E+03
  -0.480  0.1571E+03  0.1572E+03  0.2283E+03
  -0.470  0.1560E+03  0.1540E+03  0.2315E+03
  -0.460  0.1323E+03  0.1607E+03  0.2348E+03
  -0.450  0.1435E+03  0.1451E+03  0.2374E+03
  -0.440  0.1061E+03  0.1102E+03  0.2400E+03
  -0.430  0.9324E+02  0.9648E+02  0.2420E+03
  -0.420  0.8644E+02  0.8402E+02  0.2437E+03
  -0.410  0.6312E+02  0.6769E+02  0.2454E+03
  -0.400  0.1365E+03  0.1339E+03  0.2472E+03
  -0.390  0.1438E+03  0.1437E+03  0.2500E+03
  -0.380  0.1901E+03  0.1521E+03  0.2531E+03
  -0.370  0.1927E+03  0.1912E+03  0.2563E+03
  -0.360  0.2555E+03  0.2699E+03  0.2609E+03
  -0.350  0.1476E+03  0.1152E+03  0.2643E+03
  -0.340  0.2035E+03  0.2249E+03  0.2687E+03
  -0.330  0.2597E+03  0.1763E+03  0.2728E+03
  -0.320  0.2364E+03  0.2874E+03  0.2778E+03
  -0.310  0.2589E+03  0.1914E+03  0.2822E+03
  -0.300  0.3887E+03  0.4188E+03  0.2873E+03
  -0.290  0.3983E+03  0.3810E+03  0.2949E+03
  -0.280  0.2108E+03  0.2400E+03  0.3007E+03
  -0.270  0.2001E+03  0.1786E+03  0.3047E+03
  -0.260  0.2767E+03  0.2854E+03  0.3098E+03
  -0.250  0.2294E+03  0.2256E+03  0.3136E+03
  -0.240  0.2355E+03  0.2176E+03  0.3185E+03
  -0.230  0.2427E+03  0.2434E+03  0.3234E+03
  -0.220  0.3997E+03  0.3273E+03  0.3288E+03
  -0.210  0.1856E+03  0.2141E+03  0.3342E+03
  -0.200  0.1738E+03  0.1807E+03  0.3377E+03
  -0.190  0.1295E+03  0.1293E+03  0.3405E+03
  -0.180  0.2100E+03  0.1726E+03  0.3432E+03
  -0.170  0.1895E+03  0.2007E+03  0.3457E+03
  -0.160  0.1196E+03  0.1119E+03  0.3488E+03
  -0.150  0.1610E+03  0.1662E+03  0.3518E+03
  -0.140  0.1318E+03  0.1514E+03  0.3553E+03
  -0.130  0.4973E+02  0.4656E+02  0.3573E+03
  -0.120  0.7606E+02  0.7386E+02  0.3586E+03
  -0.110  0.7900E+02  0.8299E+02  0.3602E+03
  -0.100  0.5791E+02  0.5453E+02  0.3615E+03
  -0.090  0.4969E+02  0.4525E+02  0.3625E+03
  -0.080  0.7068E+02  0.9014E+02  0.3642E+03
  -0.070  0.7372E+02  0.6875E+02  0.3655E+03
  -0.060  0.4871E+02  0.4693E+02  0.3667E+03
  -0.050  0.4486E+02  0.5356E+02  0.3678E+03
  -0.040  0.4132E+02  0.4217E+02  0.3687E+03
  -0.030  0.5159E+02  0.4830E+02  0.3696E+03
  -0.020  0.5789E+02  0.5648E+02  0.3707E+03
  -0.010  0.6726E+02  0.6906E+02  0.3721E+03
   0.000  0.6036E+02  0.6136E+02  0.3734E+03
   0.010  0.5865E+02  0.5923E+02  0.3746E+03
   0.020  0.8271E+02  0.8012E+02  0.3759E+03
   0.030  0.5479E+02  0.5768E+02  0.3773E+03
   0.040  0.4381E+02  0.4499E+02  0.3783E+03
   0.050  0.3528E+02  0.4011E+02  0.3792E+03
   0.060  0.1754E+02  0.1861E+02  0.3797E+03
   0.070  0.4707E+01  0.4972E+01  0.3799E+03
   0.080  0.1828E+01  0.1964E+01  0.3800E+03
   0.090  0.2946E+00  0.3405E+00  0.3800E+03
   0.100  0.5395E-02  0.2269E-02  0.3800E+03
   0.110  0.1239E-01  0.7229E-02  0.3800E+03
   0.120  0.2237E-01  0.1523E-01  0.3800E+03
   0.130  0.3532E-01  0.2625E-01  0.3800E+03
   0.140  0.5126E-01  0.4031E-01  0.3800E+03
   0.150  0.7017E-01  0.5740E-01  0.3800E+03
   0.160  0.9206E-01  0.7752E-01  0.3800E+03
   0.170  0.1169E+00  0.1007E+00  0.3800E+03
   0.180  0.1448E+00  0.1269E+00  0.3800E+03
   0.190  0.1756E+00  0.1561E+00  0.3800E+03
   0.200  0.2094E+00  0.1883E+00  0.3800E+03
   0.210  0.2462E+00  0.2236E+00  0.3800E+03
   0.220  0.2860E+00  0.2619E+00  0.3800E+03
   0.230  0.3287E+00  0.3032E+00  0.3800E+03
   0.240  0.3744E+00  0.3476E+00  0.3800E+03
   0.250  0.4231E+00  0.3950E+00  0.3800E+03
   0.260  0.4748E+00  0.4454E+00  0.3801E+03
   0.270  0.5295E+00  0.4989E+00  0.3801E+03
   0.280  0.6994E+00  0.5689E+00  0.3801E+03
   0.290  0.1570E+01  0.9987E+00  0.3801E+03
   0.300  0.3066E+01  0.2074E+01  0.3801E+03
   0.310  0.1904E+01  0.3045E+01  0.3802E+03
   0.320  0.1364E+01  0.1552E+01  0.3802E+03
   0.330  0.1446E+01  0.1418E+01  0.3803E+03
   0.340  0.1559E+01  0.1519E+01  0.3803E+03
   0.350  0.1694E+01  0.1648E+01  0.3803E+03
   0.360  0.1853E+01  0.1799E+01  0.3803E+03
   0.370  0.2035E+01  0.1975E+01  0.3804E+03
   0.380  0.2239E+01  0.2174E+01  0.3804E+03
   0.390  0.2467E+01  0.2396E+01  0.3805E+03
   0.400  0.2718E+01  0.2643E+01  0.3805E+03
   0.410  0.2992E+01  0.2913E+01  0.3806E+03
   0.420  0.3333E+01  0.3218E+01  0.3806E+03
   0.430  0.3902E+01  0.3726E+01  0.3807E+03
   0.440  0.4660E+01  0.4420E+01  0.3808E+03
   0.450  0.5462E+01  0.5275E+01  0.3809E+03
   0.460  0.6192E+01  0.6009E+01  0.3810E+03
   0.470  0.6918E+01  0.6740E+01  0.3811E+03
   0.480  0.7649E+01  0.7492E+01  0.3813E+03
   0.490  0.8361E+01  0.8228E+01  0.3814E+03
   0.500  0.8892E+01  0.8762E+01  0.3816E+03
   0.510  0.9357E+01  0.9286E+01  0.3818E+03
   0.520  0.9293E+01  0.9209E+01  0.3820E+03
   0.530  0.9095E+01  0.9176E+01  0.3822E+03
   0.540  0.8358E+01  0.8414E+01  0.3823E+03
   0.550  0.8271E+01  0.8151E+01  0.3825E+03
   0.560  0.8546E+01  0.8324E+01  0.3827E+03
   0.570  0.9256E+01  0.8860E+01  0.3828E+03
   0.580  0.1029E+02  0.9676E+01  0.3830E+03
   0.590  0.1129E+02  0.1069E+02  0.3832E+03
   0.600  0.1810E+02  0.1080E+02  0.3835E+03
   0.610  0.9275E+01  0.1049E+02  0.3837E+03
   0.620  0.8849E+01  0.8947E+01  0.3839E+03
   0.630  0.8915E+01  0.8908E+01  0.3841E+03
   0.640  0.9188E+01  0.9129E+01  0.3843E+03
   0.650  0.9646E+01  0.9529E+01  0.3844E+03
   0.660  0.1037E+02  0.1015E+02  0.3846E+03
   0.670  0.1162E+02  0.1127E+02  0.3849E+03
   0.680  0.1264E+02  0.1222E+02  0.3851E+03
   0.690  0.1404E+02  0.1347E+02  0.3854E+03
   0.700  0.1493E+02  0.1454E+02  0.3856E+03
   0.710  0.1552E+02  0.1515E+02  0.3859E+03
   0.720  0.1560E+02  0.1540E+02  0.3863E+03
   0.730  0.1850E+02  0.1665E+02  0.3866E+03
   0.740  0.1233E+02  0.1273E+02  0.3869E+03
   0.750  0.1315E+02  0.1259E+02  0.3871E+03
   0.760  0.1467E+02  0.1534E+02  0.3874E+03
   0.770  0.1537E+02  0.1510E+02  0.3877E+03
   0.780  0.1864E+02  0.1626E+02  0.3880E+03
   0.790  0.2060E+02  0.2055E+02  0.3884E+03
   0.800  0.2168E+02  0.2109E+02  0.3888E+03
   0.810  0.2181E+02  0.2215E+02  0.3893E+03
   0.820  0.2005E+02  0.2084E+02  0.3897E+03
   0.830  0.2326E+02  0.2012E+02  0.3901E+03
   0.840  0.2595E+02  0.2597E+02  0.3906E+03
   0.850  0.2494E+02  0.2748E+02  0.3911E+03
   0.860  0.2201E+02  0.2321E+02  0.3916E+03
   0.870  0.2111E+02  0.2163E+02  0.3921E+03
   0.880  0.2285E+02  0.2164E+02  0.3925E+03
   0.890  0.3284E+02  0.2949E+02  0.3930E+03
   0.900  0.3227E+02  0.3355E+02  0.3937E+03
   0.910  0.3483E+02  0.3573E+02  0.3943E+03
   0.920  0.2498E+02  0.2935E+02  0.3949E+03
   0.930  0.2183E+02  0.2073E+02  0.3954E+03
   0.940  0.5280E+02  0.5578E+02  0.3963E+03
   0.950  0.2660E+02  0.4155E+02  0.3973E+03
   0.960  0.2426E+02  0.1886E+02  0.3977E+03
   0.970  0.3744E+02  0.4101E+02  0.3985E+03
   0.980  0.3247E+02  0.2910E+02  0.3991E+03
   0.990  0.4046E+02  0.5720E+02  0.4000E+03
   1.000  0.3672E+02  0.3868E+02  0.4008E+03
   1.010  0.2516E+02  0.3109E+02  0.4015E+03
   1.020  0.2180E+02  0.2098E+02  0.4019E+03
   1.030  0.2916E+02  0.3248E+02  0.4025E+03
   1.040  0.2905E+02  0.2824E+02  0.4031E+03
   1.050  0.2964E+02  0.2897E+02  0.4037E+03
   1.060  0.2726E+02  0.2844E+02  0.4042E+03
   1.070  0.2549E+02  0.2631E+02  0.4048E+03
   1.080  0.2454E+02  0.2540E+02  0.4053E+03
   1.090  0.2404E+02  0.2460E+02  0.4058E+03
   1.100  0.2495E+02  0.2482E+02  0.4063E+03
   1.110  0.2519E+02  0.2546E+02  0.4068E+03
   1.120  0.2491E+02  0.2480E+02  0.4073E+03
   1.130  0.2469E+02  0.2426E+02  0.4078E+03
   1.140  0.2390E+02  0.2364E+02  0.4082E+03
   1.150  0.2288E+02  0.2284E+02  0.4087E+03
   1.160  0.2252E+02  0.2227E+02  0.4092E+03
   1.170  0.2391E+02  0.2292E+02  0.4096E+03
   1.180  0.2381E+02  0.2355E+02  0.4101E+03
   1.190  0.2161E+02  0.2218E+02  0.4106E+03
   1.200  0.1989E+02  0.2030E+02  0.4110E+03
   1.210  0.1952E+02  0.1988E+02  0.4114E+03
   1.220  0.1707E+02  0.1811E+02  0.4117E+03
   1.230  0.1466E+02  0.1571E+02  0.4121E+03
   1.240  0.1269E+02  0.1350E+02  0.4124E+03
   1.250  0.1176E+02  0.1203E+02  0.4126E+03
   1.260  0.1137E+02  0.1140E+02  0.4128E+03
   1.270  0.1156E+02  0.1152E+02  0.4131E+03
   1.280  0.1271E+02  0.1238E+02  0.4133E+03
   1.290  0.1478E+02  0.1379E+02  0.4136E+03
   1.300  0.1639E+02  0.1545E+02  0.4139E+03
   1.310  0.1788E+02  0.1766E+02  0.4142E+03
   1.320  0.1871E+02  0.1899E+02  0.4146E+03
   1.330  0.1963E+02  0.1910E+02  0.4150E+03
   1.340  0.2011E+02  0.1900E+02  0.4153E+03
   1.350  0.1969E+02  0.1902E+02  0.4157E+03
   1.360  0.1830E+02  0.1829E+02  0.4161E+03
   1.370  0.1631E+02  0.1718E+02  0.4165E+03
   1.380  0.1516E+02  0.1615E+02  0.4168E+03
   1.390  0.1469E+02  0.1531E+02  0.4171E+03
   1.400  0.1417E+02  0.1444E+02  0.4174E+03
   1.410  0.1346E+02  0.1358E+02  0.4177E+03
   1.420  0.1276E+02  0.1279E+02  0.4179E+03
   1.430  0.1340E+02  0.1268E+02  0.4182E+03
   1.440  0.1465E+02  0.1242E+02  0.4185E+03
   1.450  0.1480E+02  0.1255E+02  0.4187E+03
   1.460  0.1470E+02  0.1351E+02  0.4190E+03
   1.470  0.1443E+02  0.1424E+02  0.4193E+03
   1.480  0.1399E+02  0.1439E+02  0.4196E+03
   1.490  0.1333E+02  0.1426E+02  0.4199E+03
   1.500  0.1199E+02  0.1373E+02  0.4201E+03
   1.510  0.1035E+02  0.1265E+02  0.4204E+03
   1.520  0.1006E+02  0.1114E+02  0.4206E+03
   1.530  0.1044E+02  0.1040E+02  0.4208E+03
   1.540  0.1128E+02  0.1052E+02  0.4210E+03
   1.550  0.1483E+02  0.1183E+02  0.4212E+03
   1.560  0.1081E+02  0.1433E+02  0.4215E+03
   1.570  0.1354E+02  0.1039E+02  0.4218E+03
   1.580  0.1283E+02  0.1284E+02  0.4220E+03
   1.590  0.1147E+02  0.1077E+02  0.4222E+03
   1.600  0.1028E+02  0.9253E+01  0.4225E+03
   1.610  0.1109E+02  0.8675E+01  0.4227E+03
   1.620  0.9387E+01  0.8765E+01  0.4228E+03
   1.630  0.8146E+01  0.9468E+01  0.4230E+03
   1.640  0.8437E+01  0.9862E+01  0.4232E+03
   1.650  0.8471E+01  0.9761E+01  0.4234E+03
   1.660  0.8438E+01  0.9190E+01  0.4236E+03
   1.670  0.7425E+01  0.8406E+01  0.4237E+03
   1.680  0.6847E+01  0.7975E+01  0.4239E+03
   1.690  0.6994E+01  0.7513E+01  0.4240E+03
   1.700  0.7194E+01  0.6895E+01  0.4242E+03
   1.710  0.7383E+01  0.6732E+01  0.4243E+03
   1.720  0.7620E+01  0.6921E+01  0.4245E+03
   1.730  0.7859E+01  0.7166E+01  0.4246E+03
   1.740  0.8079E+01  0.7424E+01  0.4248E+03
   1.750  0.8310E+01  0.7679E+01  0.4249E+03
   1.760  0.8441E+01  0.7939E+01  0.4251E+03
   1.770  0.8336E+01  0.8193E+01  0.4252E+03
   1.780  0.8349E+01  0.8429E+01  0.4254E+03
   1.790  0.8491E+01  0.8649E+01  0.4256E+03
   1.800  0.8638E+01  0.8852E+01  0.4258E+03
   1.810  0.8770E+01  0.9035E+01  0.4259E+03
   1.820  0.9043E+01  0.9199E+01  0.4261E+03
   1.830  0.9297E+01  0.9446E+01  0.4263E+03
   1.840  0.9131E+01  0.9505E+01  0.4265E+03
   1.850  0.8922E+01  0.9183E+01  0.4267E+03
   1.860  0.8741E+01  0.8896E+01  0.4268E+03
   1.870  0.8745E+01  0.8608E+01  0.4270E+03
   1.880  0.9370E+01  0.8387E+01  0.4272E+03
   1.890  0.9652E+01  0.8175E+01  0.4274E+03
   1.900  0.9533E+01  0.7985E+01  0.4275E+03
   1.910  0.9079E+01  0.8663E+01  0.4277E+03
   1.920  0.8642E+01  0.9986E+01  0.4279E+03
   1.930  0.8678E+01  0.8799E+01  0.4281E+03
   1.940  0.6594E+01  0.8018E+01  0.4283E+03
   1.950  0.5940E+01  0.7686E+01  0.4284E+03
   1.960  0.5996E+01  0.7114E+01  0.4285E+03
   1.970  0.6072E+01  0.6455E+01  0.4287E+03
   1.980  0.6190E+01  0.5783E+01  0.4288E+03
   1.990  0.6488E+01  0.5812E+01  0.4289E+03
   2.000  0.7191E+01  0.5897E+01  0.4290E+03
   2.010  0.8645E+01  0.5996E+01  0.4292E+03
   2.020  0.1051E+02  0.6100E+01  0.4293E+03
   2.030  0.1157E+02  0.6252E+01  0.4295E+03
   2.040  0.1181E+02  0.6472E+01  0.4297E+03
   2.050  0.1167E+02  0.7672E+01  0.4299E+03
   2.060  0.1131E+02  0.9991E+01  0.4301E+03
   2.070  0.1084E+02  0.1169E+02  0.4303E+03
   2.080  0.1028E+02  0.1099E+02  0.4305E+03
   2.090  0.8281E+01  0.1046E+02  0.4307E+03
   2.100  0.6631E+01  0.9988E+01  0.4309E+03
   2.110  0.5949E+01  0.9301E+01  0.4310E+03
   2.120  0.5576E+01  0.8804E+01  0.4312E+03
   2.130  0.5419E+01  0.8139E+01  0.4313E+03
   2.140  0.5353E+01  0.7284E+01  0.4315E+03
   2.150  0.5349E+01  0.6254E+01  0.4316E+03
   2.160  0.5333E+01  0.5793E+01  0.4317E+03
   2.170  0.5324E+01  0.5577E+01  0.4318E+03
   2.180  0.5319E+01  0.5455E+01  0.4319E+03
   2.190  0.5317E+01  0.5382E+01  0.4320E+03
   2.200  0.5318E+01  0.5328E+01  0.4321E+03
   2.210  0.5323E+01  0.5269E+01  0.4322E+03
   2.220  0.5330E+01  0.5187E+01  0.4323E+03
   2.230  0.5339E+01  0.5086E+01  0.4325E+03
   2.240  0.5347E+01  0.4957E+01  0.4326E+03
   2.250  0.5344E+01  0.4802E+01  0.4327E+03
   2.260  0.5456E+01  0.4630E+01  0.4328E+03
   2.270  0.5908E+01  0.4477E+01  0.4329E+03
   2.280  0.6546E+01  0.4391E+01  0.4330E+03
   2.290  0.7212E+01  0.4418E+01  0.4331E+03
   2.300  0.7733E+01  0.4676E+01  0.4332E+03
   2.310  0.8117E+01  0.5065E+01  0.4333E+03
   2.320  0.8346E+01  0.5824E+01  0.4335E+03
   2.330  0.8389E+01  0.7255E+01  0.4336E+03
   2.340  0.9144E+01  0.7992E+01  0.4338E+03
   2.350  0.9552E+01  0.9346E+01  0.4340E+03
   2.360  0.9859E+01  0.9859E+01  0.4341E+03
   2.370  0.1018E+02  0.1047E+02  0.4343E+03
   2.380  0.1058E+02  0.1104E+02  0.4346E+03
   2.390  0.1112E+02  0.1166E+02  0.4348E+03
   2.400  0.1138E+02  0.1224E+02  0.4350E+03
   2.410  0.1166E+02  0.1263E+02  0.4353E+03
   2.420  0.1289E+02  0.1300E+02  0.4355E+03
   2.430  0.1320E+02  0.1336E+02  0.4358E+03
   2.440  0.1408E+02  0.1371E+02  0.4360E+03
   2.450  0.1492E+02  0.1416E+02  0.4363E+03
   2.460  0.1539E+02  0.1544E+02  0.4366E+03
   2.470  0.1539E+02  0.1758E+02  0.4369E+03
   2.480  0.1526E+02  0.1819E+02  0.4373E+03
   2.490  0.1525E+02  0.1787E+02  0.4376E+03
   2.500  0.1564E+02  0.1749E+02  0.4379E+03
   2.510  0.1667E+02  0.1737E+02  0.4383E+03
   2.520  0.1712E+02  0.1773E+02  0.4386E+03
   2.530  0.1829E+02  0.1769E+02  0.4390E+03
   2.540  0.2057E+02  0.1873E+02  0.4393E+03
   2.550  0.2269E+02  0.1986E+02  0.4398E+03
   2.560  0.2474E+02  0.2094E+02  0.4402E+03
   2.570  0.2783E+02  0.2194E+02  0.4407E+03
   2.580  0.3260E+02  0.2397E+02  0.4412E+03
   2.590  0.3469E+02  0.2721E+02  0.4418E+03
   2.600  0.3146E+02  0.3256E+02  0.4424E+03
   2.610  0.2921E+02  0.3214E+02  0.4431E+03
   2.620  0.2538E+02  0.3135E+02  0.4436E+03
   2.630  0.2402E+02  0.2819E+02  0.4442E+03
   2.640  0.1969E+02  0.2394E+02  0.4447E+03
   2.650  0.1309E+02  0.2007E+02  0.4451E+03
   2.660  0.1357E+02  0.1635E+02  0.4454E+03
   2.670  0.1777E+02  0.1423E+02  0.4457E+03
   2.680  0.2132E+02  0.1594E+02  0.4460E+03
   2.690  0.2021E+02  0.1893E+02  0.4464E+03
   2.700  0.1371E+02  0.1951E+02  0.4468E+03
   2.710  0.1531E+02  0.1332E+02  0.4471E+03
   2.720  0.1866E+02  0.1221E+02  0.4474E+03
   2.730  0.2027E+02  0.1445E+02  0.4477E+03
   2.740  0.1690E+02  0.1858E+02  0.4481E+03
   2.750  0.1722E+02  0.2142E+02  0.4484E+03
   2.760  0.1944E+02  0.1828E+02  0.4488E+03
   2.770  0.2380E+02  0.1657E+02  0.4492E+03
   2.780  0.2405E+02  0.1939E+02  0.4496E+03
   2.790  0.3032E+02  0.2277E+02  0.4501E+03
   2.800  0.2330E+02  0.2555E+02  0.4506E+03
   2.810  0.1837E+02  0.2075E+02  0.4511E+03
   2.820  0.1820E+02  0.1809E+02  0.4514E+03
   2.830  0.1828E+02  0.1857E+02  0.4518E+03
   2.840  0.1936E+02  0.1864E+02  0.4522E+03
   2.850  0.2027E+02  0.2143E+02  0.4526E+03
   2.860  0.1967E+02  0.2180E+02  0.4530E+03
   2.870  0.1938E+02  0.2139E+02  0.4534E+03
   2.880  0.1929E+02  0.1991E+02  0.4538E+03
   2.890  0.2071E+02  0.1896E+02  0.4542E+03
   2.900  0.2185E+02  0.1943E+02  0.4546E+03
   2.910  0.2192E+02  0.2146E+02  0.4550E+03
   2.920  0.2192E+02  0.2275E+02  0.4555E+03
   2.930  0.2181E+02  0.2318E+02  0.4559E+03
   2.940  0.2169E+02  0.2279E+02  0.4564E+03
   2.950  0.2129E+02  0.2246E+02  0.4568E+03
   2.960  0.2089E+02  0.2186E+02  0.4572E+03
   2.970  0.2874E+02  0.2064E+02  0.4577E+03
   2.980  0.3248E+02  0.2049E+02  0.4582E+03
   2.990  0.2078E+02  0.2193E+02  0.4587E+03
   3.000  0.2756E+02  0.3029E+02  0.4592E+03
   3.010  0.2935E+02  0.2991E+02  0.4598E+03
   3.020  0.2564E+02  0.2381E+02  0.4603E+03
   3.030  0.2155E+02  0.2966E+02  0.4608E+03
   3.040  0.1904E+02  0.2750E+02  0.4613E+03
   3.050  0.1660E+02  0.2497E+02  0.4617E+03
   3.060  0.1612E+02  0.2230E+02  0.4621E+03
   3.070  0.2293E+02  0.1958E+02  0.4625E+03
   3.080  0.2530E+02  0.1701E+02  0.4630E+03
   3.090  0.2711E+02  0.2029E+02  0.4634E+03
   3.100  0.2421E+02  0.2495E+02  0.4639E+03
   3.110  0.2261E+02  0.3566E+02  0.4644E+03
   3.120  0.2549E+02  0.1927E+02  0.4649E+03
   3.130  0.2950E+02  0.2133E+02  0.4654E+03
   3.140  0.2937E+02  0.2259E+02  0.4659E+03
   3.150  0.2760E+02  0.2299E+02  0.4664E+03
   3.160  0.2616E+02  0.2441E+02  0.4669E+03
   3.170  0.2522E+02  0.2487E+02  0.4674E+03
   3.180  0.2392E+02  0.2532E+02  0.4679E+03
   3.190  0.2501E+02  0.2664E+02  0.4684E+03
   3.200  0.2540E+02  0.2709E+02  0.4690E+03
   3.210  0.2683E+02  0.2301E+02  0.4695E+03
   3.220  0.2842E+02  0.2403E+02  0.4700E+03
   3.230  0.2724E+02  0.2446E+02  0.4705E+03
   3.240  0.2710E+02  0.2529E+02  0.4710E+03
   3.250  0.2733E+02  0.2692E+02  0.4716E+03
   3.260  0.2810E+02  0.2654E+02  0.4721E+03
   3.270  0.2874E+02  0.2643E+02  0.4726E+03
   3.280  0.2997E+02  0.2722E+02  0.4732E+03
   3.290  0.3113E+02  0.2776E+02  0.4738E+03
   3.300  0.3220E+02  0.2820E+02  0.4744E+03
   3.310  0.3129E+02  0.2879E+02  0.4750E+03
   3.320  0.3213E+02  0.2952E+02  0.4756E+03
   3.330  0.3168E+02  0.3022E+02  0.4762E+03
   3.340  0.3025E+02  0.3074E+02  0.4768E+03
   3.350  0.2973E+02  0.3121E+02  0.4774E+03
   3.360  0.3013E+02  0.3094E+02  0.4781E+03
   3.370  0.3018E+02  0.3195E+02  0.4787E+03
   3.380  0.3150E+02  0.3302E+02  0.4793E+03
   3.390  0.3266E+02  0.3360E+02  0.4800E+03
   3.400  0.3200E+02  0.3445E+02  0.4806E+03
   3.410  0.3151E+02  0.3464E+02  0.4813E+03
   3.420  0.3057E+02  0.3332E+02  0.4819E+03
   3.430  0.2908E+02  0.3232E+02  0.4826E+03
   3.440  0.2895E+02  0.3166E+02  0.4832E+03
   3.450  0.2878E+02  0.3091E+02  0.4838E+03
   3.460  0.2785E+02  0.2890E+02  0.4844E+03
   3.470  0.2754E+02  0.2893E+02  0.4849E+03
   3.480  0.2792E+02  0.2911E+02  0.4855E+03
   3.490  0.2771E+02  0.2800E+02  0.4861E+03
   3.500  0.2923E+02  0.2662E+02  0.4866E+03
   3.510  0.3059E+02  0.2513E+02  0.4872E+03
   3.520  0.2862E+02  0.2548E+02  0.4877E+03
   3.530  0.2696E+02  0.2534E+02  0.4882E+03
   3.540  0.2497E+02  0.2671E+02  0.4888E+03
   3.550  0.2507E+02  0.3083E+02  0.4893E+03
   3.560  0.2592E+02  0.2404E+02  0.4898E+03
   3.570  0.2708E+02  0.2485E+02  0.4903E+03
   3.580  0.2845E+02  0.2663E+02  0.4909E+03
   3.590  0.2980E+02  0.2697E+02  0.4914E+03
   3.600  0.3091E+02  0.2738E+02  0.4920E+03
   3.610  0.2879E+02  0.2943E+02  0.4926E+03
   3.620  0.2805E+02  0.3019E+02  0.4932E+03
   3.630  0.2719E+02  0.3010E+02  0.4938E+03
   3.640  0.2658E+02  0.3206E+02  0.4944E+03
   3.650  0.2735E+02  0.2682E+02  0.4949E+03
   3.660  0.3450E+02  0.2575E+02  0.4955E+03
   3.670  0.3049E+02  0.2458E+02  0.4960E+03
   3.680  0.3677E+02  0.2515E+02  0.4966E+03
   3.690  0.2739E+02  0.3241E+02  0.4973E+03
   3.700  0.2814E+02  0.3692E+02  0.4979E+03
   3.710  0.4617E+02  0.3839E+02  0.4987E+03
   3.720  0.4422E+02  0.4114E+02  0.4995E+03
   3.730  0.3482E+02  0.4097E+02  0.5003E+03
   3.740  0.3141E+02  0.3447E+02  0.5011E+03
   3.750  0.2774E+02  0.3329E+02  0.5017E+03
   3.760  0.2436E+02  0.3488E+02  0.5023E+03
   3.770  0.2239E+02  0.3051E+02  0.5028E+03
   3.780  0.2169E+02  0.2615E+02  0.5033E+03
   3.790  0.2277E+02  0.2204E+02  0.5038E+03
   3.800  0.2499E+02  0.2191E+02  0.5043E+03
   3.810  0.2631E+02  0.2292E+02  0.5047E+03
   3.820  0.2416E+02  0.2397E+02  0.5052E+03
   3.830  0.2456E+02  0.2458E+02  0.5057E+03
   3.840  0.2571E+02  0.2411E+02  0.5062E+03
   3.850  0.2669E+02  0.2458E+02  0.5067E+03
   3.860  0.2560E+02  0.2567E+02  0.5072E+03
   3.870  0.2480E+02  0.2545E+02  0.5077E+03
   3.880  0.2500E+02  0.2276E+02  0.5082E+03
   3.890  0.2469E+02  0.2333E+02  0.5087E+03
   3.900  0.2557E+02  0.2301E+02  0.5092E+03
   3.910  0.2725E+02  0.2324E+02  0.5097E+03
   3.920  0.2671E+02  0.2406E+02  0.5102E+03
   3.930  0.2794E+02  0.2529E+02  0.5107E+03
   3.940  0.2903E+02  0.2584E+02  0.5112E+03
   3.950  0.3003E+02  0.2660E+02  0.5118E+03
   3.960  0.3053E+02  0.2792E+02  0.5124E+03
   3.970  0.3087E+02  0.2886E+02  0.5130E+03
   3.980  0.3085E+02  0.3013E+02  0.5136E+03
   3.990  0.3082E+02  0.3140E+02  0.5142E+03
   4.000  0.3166E+02  0.3236E+02  0.5148E+03
   4.010  0.3303E+02  0.3360E+02  0.5155E+03
   4.020  0.3322E+02  0.3314E+02  0.5161E+03
   4.030  0.3208E+02  0.3406E+02  0.5168E+03
   4.040  0.3301E+02  0.3359E+02  0.5175E+03
   4.050  0.3267E+02  0.3291E+02  0.5181E+03
   4.060  0.3220E+02  0.3369E+02  0.5188E+03
   4.070  0.3301E+02  0.3236E+02  0.5194E+03
   4.080  0.3259E+02  0.3146E+02  0.5201E+03
   4.090  0.3200E+02  0.3122E+02  0.5207E+03
   4.100  0.3262E+02  0.3188E+02  0.5214E+03
   4.110  0.3092E+02  0.3298E+02  0.5220E+03
   4.120  0.2982E+02  0.3626E+02  0.5227E+03
   4.130  0.2886E+02  0.3181E+02  0.5233E+03
   4.140  0.2736E+02  0.2951E+02  0.5239E+03
   4.150  0.2675E+02  0.2764E+02  0.5244E+03
   4.160  0.2702E+02  0.2778E+02  0.5250E+03
   4.170  0.3045E+02  0.2961E+02  0.5255E+03
   4.180  0.2949E+02  0.2993E+02  0.5261E+03
   4.190  0.3080E+02  0.3123E+02  0.5267E+03
   4.200  0.3126E+02  0.3457E+02  0.5274E+03
   4.210  0.2928E+02  0.3294E+02  0.5280E+03
   4.220  0.2711E+02  0.3365E+02  0.5286E+03
   4.230  0.2528E+02  0.3037E+02  0.5292E+03
   4.240  0.2594E+02  0.2785E+02  0.5298E+03
   4.250  0.2559E+02  0.2523E+02  0.5303E+03
   4.260  0.2689E+02  0.2455E+02  0.5308E+03
   4.270  0.2811E+02  0.2270E+02  0.5313E+03
   4.280  0.2997E+02  0.2504E+02  0.5318E+03
   4.290  0.3055E+02  0.2629E+02  0.5324E+03
   4.300  0.3146E+02  0.2677E+02  0.5330E+03
   4.310  0.3217E+02  0.2693E+02  0.5336E+03
   4.320  0.3316E+02  0.2782E+02  0.5342E+03
   4.330  0.2941E+02  0.2836E+02  0.5348E+03
   4.340  0.2629E+02  0.2698E+02  0.5353E+03
   4.350  0.2349E+02  0.2575E+02  0.5358E+03
   4.360  0.2198E+02  0.2526E+02  0.5363E+03
   4.370  0.2129E+02  0.2602E+02  0.5368E+03
   4.380  0.2396E+02  0.2695E+02  0.5373E+03
   4.390  0.3201E+02  0.2809E+02  0.5378E+03
   4.400  0.2778E+02  0.2933E+02  0.5384E+03
   4.410  0.2671E+02  0.3040E+02  0.5390E+03
   4.420  0.2711E+02  0.3030E+02  0.5395E+03
   4.430  0.2665E+02  0.2884E+02  0.5401E+03
   4.440  0.2510E+02  0.2758E+02  0.5406E+03
   4.450  0.2349E+02  0.2747E+02  0.5412E+03
   4.460  0.2249E+02  0.2519E+02  0.5417E+03
   4.470  0.2209E+02  0.2311E+02  0.5421E+03
   4.480  0.2270E+02  0.2276E+02  0.5426E+03
   4.490  0.2367E+02  0.2291E+02  0.5430E+03
   4.500  0.2410E+02  0.2353E+02  0.5435E+03
   4.510  0.2488E+02  0.2494E+02  0.5440E+03
   4.520  0.2576E+02  0.2479E+02  0.5445E+03
   4.530  0.2586E+02  0.2542E+02  0.5450E+03
   4.540  0.2581E+02  0.2664E+02  0.5455E+03
   4.550  0.2519E+02  0.2696E+02  0.5460E+03
   4.560  0.2162E+02  0.2654E+02  0.5465E+03
   4.570  0.2213E+02  0.2310E+02  0.5470E+03
   4.580  0.2710E+02  0.2409E+02  0.5475E+03
   4.590  0.4620E+02  0.2731E+02  0.5481E+03
   4.600  0.3104E+02  0.4078E+02  0.5488E+03
   4.610  0.2808E+02  0.3762E+02  0.5495E+03
   4.620  0.2569E+02  0.2884E+02  0.5501E+03
   4.630  0.2363E+02  0.2309E+02  0.5506E+03
   4.640  0.2258E+02  0.2495E+02  0.5511E+03
   4.650  0.2022E+02  0.2177E+02  0.5515E+03
   4.660  0.1916E+02  0.2016E+02  0.5519E+03
   4.670  0.1827E+02  0.1902E+02  0.5523E+03
   4.680  0.1755E+02  0.1810E+02  0.5527E+03
   4.690  0.1701E+02  0.1738E+02  0.5530E+03
   4.700  0.1663E+02  0.1686E+02  0.5534E+03
   4.710  0.1634E+02  0.1647E+02  0.5537E+03
   4.720  0.1609E+02  0.1614E+02  0.5540E+03
   4.730  0.1600E+02  0.1584E+02  0.5543E+03
   4.740  0.1616E+02  0.1554E+02  0.5547E+03
   4.750  0.1593E+02  0.1528E+02  0.5550E+03
   4.760  0.1495E+02  0.1506E+02  0.5553E+03
   4.770  0.1463E+02  0.1770E+02  0.5556E+03
   4.780  0.1532E+02  0.1446E+02  0.5559E+03
   4.790  0.1336E+02  0.1404E+02  0.5562E+03
   4.800  0.1312E+02  0.1474E+02  0.5565E+03
   4.810  0.1337E+02  0.1514E+02  0.5567E+03
   4.820  0.1494E+02  0.1447E+02  0.5570E+03
   4.830  0.1511E+02  0.1500E+02  0.5573E+03
   4.840  0.1463E+02  0.1518E+02  0.5576E+03
   4.850  0.1392E+02  0.1500E+02  0.5579E+03
   4.860  0.1319E+02  0.1461E+02  0.5582E+03
   4.870  0.1270E+02  0.1378E+02  0.5585E+03
   4.880  0.1567E+02  0.1352E+02  0.5588E+03
   4.890  0.1641E+02  0.1443E+02  0.5591E+03
   4.900  0.1368E+02  0.1432E+02  0.5593E+03
   4.910  0.1260E+02  0.1552E+02  0.5596E+03
   4.920  0.1192E+02  0.1222E+02  0.5599E+03
   4.930  0.1119E+02  0.1154E+02  0.5601E+03
   4.940  0.1046E+02  0.1086E+02  0.5604E+03
   4.950  0.9745E+01  0.1025E+02  0.5606E+03
   4.960  0.9204E+01  0.9658E+01  0.5608E+03
   4.970  0.8607E+01  0.9090E+01  0.5609E+03
   4.980  0.8365E+01  0.8517E+01  0.5611E+03
   4.990  0.8517E+01  0.8041E+01  0.5613E+03
   5.000  0.5201E+01  0.7793E+01  0.5614E+03
   5.010  0.6188E+01  0.7563E+01  0.5616E+03
   5.020  0.8217E+01  0.7412E+01  0.5617E+03
   5.030  0.1145E+02  0.7579E+01  0.5619E+03
   5.040  0.1305E+02  0.8160E+01  0.5621E+03
   5.050  0.1337E+02  0.9239E+01  0.5623E+03
   5.060  0.1386E+02  0.9785E+01  0.5625E+03
   5.070  0.1471E+02  0.1113E+02  0.5628E+03
   5.080  0.1505E+02  0.1411E+02  0.5631E+03
   5.090  0.1489E+02  0.1463E+02  0.5634E+03
   5.100  0.1434E+02  0.1386E+02  0.5636E+03
   5.110  0.1291E+02  0.1399E+02  0.5639E+03
   5.120  0.1126E+02  0.1415E+02  0.5642E+03
   5.130  0.9615E+01  0.1330E+02  0.5644E+03
   5.140  0.8212E+01  0.1198E+02  0.5646E+03
   5.150  0.7020E+01  0.1058E+02  0.5648E+03
   5.160  0.6145E+01  0.9294E+01  0.5650E+03
   5.170  0.5435E+01  0.8077E+01  0.5651E+03
   5.180  0.4645E+01  0.7081E+01  0.5653E+03
   5.190  0.3838E+01  0.6213E+01  0.5654E+03
   5.200  0.3353E+01  0.5422E+01  0.5655E+03
   5.210  0.3408E+01  0.4743E+01  0.5656E+03
   5.220  0.3077E+01  0.4117E+01  0.5656E+03
   5.230  0.2694E+01  0.3542E+01  0.5657E+03
   5.240  0.2213E+01  0.3042E+01  0.5658E+03
   5.250  0.1619E+01  0.3128E+01  0.5658E+03
   5.260  0.8885E+00  0.3661E+01  0.5659E+03
   5.270  0.2301E+00  0.3327E+01  0.5659E+03
   5.280  0.2832E-01  0.2384E+01  0.5659E+03
   5.290  0.0000E+00  0.1891E+01  0.5660E+03
   5.300  0.0000E+00  0.1429E+01  0.5660E+03
   5.310  0.0000E+00  0.9473E+00  0.5660E+03
   5.320  0.0000E+00  0.4985E+00  0.5660E+03
   5.330  0.0000E+00  0.2937E+00  0.5660E+03
   5.340  0.2075E-02  0.1762E+00  0.5660E+03
   5.350  0.6142E+01  0.8886E-01  0.5660E+03
   5.360  0.4601E+02  0.3135E-01  0.5662E+03
   5.370  0.4756E+02  0.3608E-02  0.5668E+03
   5.380  0.4896E+01  0.0000E+00  0.5670E+03
   5.390  0.1178E+01  0.0000E+00  0.5670E+03
   5.400  0.2547E+00  0.0000E+00  0.5670E+03
   5.410  0.0000E+00  0.0000E+00  0.5670E+03
   5.420  0.0000E+00  0.0000E+00  0.5670E+03
   5.430  0.0000E+00  0.0000E+00  0.5670E+03
   5.440  0.0000E+00  0.0000E+00  0.5670E+03
   5.450  0.0000E+00  0.0000E+00  0.5670E+03
   5.460  0.0000E+00  0.0000E+00  0.5670E+03
   5.470  0.0000E+00  0.0000E+00  0.5670E+03
   5.480  0.0000E+00  0.0000E+00  0.5670E+03
   5.490  0.0000E+00  0.0000E+00  0.5670E+03
   5.500  0.0000E+00  0.0000E+00  0.5670E+03
   5.510  0.0000E+00  0.0000E+00  0.5670E+03
   5.520  0.0000E+00  0.0000E+00  0.5670E+03
   5.530  0.0000E+00  0.0000E+00  0.5670E+03
   5.540  0.0000E+00  0.0000E+00  0.5670E+03
   5.550  0.0000E+00  0.0000E+00  0.5670E+03
   5.560  0.0000E+00  0.0000E+00  0.5670E+03
   5.570  0.0000E+00  0.0000E+00  0.5670E+03
   5.580  0.0000E+00  0.0000E+00  0.5670E+03
   5.590  0.0000E+00  0.0000E+00  0.5670E+03
   5.600  0.0000E+00  0.0000E+00  0.5670E+03
   5.610  0.0000E+00  0.0000E+00  0.5670E+03
   5.620  0.0000E+00  0.0000E+00  0.5670E+03
   5.630  0.0000E+00  0.0000E+00  0.5670E+03
   5.640  0.0000E+00  0.0000E+00  0.5670E+03
   5.650  0.0000E+00  0.0000E+00  0.5670E+03
   5.660  0.0000E+00  0.0000E+00  0.5670E+03
   5.670  0.0000E+00  0.0000E+00  0.5670E+03
   5.680  0.0000E+00  0.0000E+00  0.5670E+03
   5.690  0.0000E+00  0.0000E+00  0.5670E+03
   5.700  0.0000E+00  0.0000E+00  0.5670E+03
   5.710  0.0000E+00  0.0000E+00  0.5670E+03
   5.720  0.0000E+00  0.0000E+00  0.5670E+03
   5.730  0.0000E+00  0.0000E+00  0.5670E+03
   5.740  0.0000E+00  0.0000E+00  0.5670E+03
   5.750  0.0000E+00  0.0000E+00  0.5670E+03
   5.760  0.0000E+00  0.0000E+00  0.5670E+03
   5.770  0.0000E+00  0.0000E+00  0.5670E+03
   5.780  0.0000E+00  0.0000E+00  0.5670E+03
   5.790  0.0000E+00  0.0000E+00  0.5670E+03
   5.800  0.0000E+00  0.0000E+00  0.5670E+03
   5.810  0.0000E+00  0.0000E+00  0.5670E+03
   5.820  0.0000E+00  0.0000E+00  0.5670E+03
   5.830  0.0000E+00  0.0000E+00  0.5670E+03
   5.840  0.0000E+00  0.0000E+00  0.5670E+03
   5.850  0.0000E+00  0.0000E+00  0.5670E+03
   5.860  0.0000E+00  0.0000E+00  0.5670E+03
   5.870  0.0000E+00  0.0000E+00  0.5670E+03
   5.880  0.0000E+00  0.0000E+00  0.5670E+03
   5.890  0.0000E+00  0.0000E+00  0.5670E+03
   5.900  0.0000E+00  0.0000E+00  0.5670E+03
   5.910  0.0000E+00  0.0000E+00  0.5670E+03
   5.920  0.0000E+00  0.0000E+00  0.5670E+03
   5.930  0.0000E+00  0.0000E+00  0.5670E+03
   5.940  0.0000E+00  0.0000E+00  0.5670E+03
   5.950  0.0000E+00  0.0000E+00  0.5670E+03
   5.960  0.0000E+00  0.0000E+00  0.5670E+03
   5.970  0.0000E+00  0.0000E+00  0.5670E+03
   5.980  0.0000E+00  0.0000E+00  0.5670E+03
   5.990  0.0000E+00  0.0000E+00  0.5670E+03
   6.000  0.0000E+00  0.0000E+00  0.5670E+03
   6.010  0.0000E+00  0.0000E+00  0.5670E+03
   6.020  0.2642E-03  0.0000E+00  0.5670E+03
   6.030  0.1075E+02  0.0000E+00  0.5670E+03
   6.040  0.4025E+02  0.0000E+00  0.5673E+03
   6.050  0.2730E+02  0.0000E+00  0.5677E+03
   6.060  0.1273E+02  0.0000E+00  0.5679E+03
   6.070  0.1007E+03  0.0000E+00  0.5684E+03
   6.080  0.1766E+02  0.0000E+00  0.5690E+03
   6.090  0.1589E-01  0.0000E+00  0.5690E+03
   6.100  0.0000E+00  0.0000E+00  0.5690E+03
   6.110  0.0000E+00  0.0000E+00  0.5690E+03
   6.120  0.0000E+00  0.0000E+00  0.5690E+03
   6.130  0.0000E+00  0.0000E+00  0.5690E+03
   6.140  0.0000E+00  0.0000E+00  0.5690E+03
   6.150  0.0000E+00  0.0000E+00  0.5690E+03
   6.160  0.0000E+00  0.0000E+00  0.5690E+03
   6.170  0.0000E+00  0.0000E+00  0.5690E+03
   6.180  0.0000E+00  0.0000E+00  0.5690E+03
   6.190  0.0000E+00  0.0000E+00  0.5690E+03
   6.200  0.0000E+00  0.0000E+00  0.5690E+03
   6.210  0.0000E+00  0.0000E+00  0.5690E+03
   6.220  0.0000E+00  0.0000E+00  0.5690E+03
   6.230  0.0000E+00  0.0000E+00  0.5690E+03
   6.240  0.0000E+00  0.0000E+00  0.5690E+03
   6.250  0.0000E+00  0.0000E+00  0.5690E+03
   6.260  0.0000E+00  0.0000E+00  0.5690E+03
   6.270  0.0000E+00  0.0000E+00  0.5690E+03
   6.280  0.0000E+00  0.0000E+00  0.5690E+03
   6.290  0.0000E+00  0.0000E+00  0.5690E+03
   6.300  0.0000E+00  0.0000E+00  0.5690E+03
   6.310  0.0000E+00  0.0000E+00  0.5690E+03
   6.320  0.0000E+00  0.0000E+00  0.5690E+03
   6.330  0.2325E+01  0.0000E+00  0.5690E+03
   6.340  0.3070E+02  0.0000E+00  0.5692E+03
   6.350  0.3322E+02  0.0000E+00  0.5695E+03
   6.360  0.1820E+02  0.0000E+00  0.5698E+03
   6.370  0.7929E+01  0.0000E+00  0.5699E+03
   6.380  0.4916E+02  0.0000E+00  0.5701E+03
   6.390  0.5893E+02  0.0000E+00  0.5707E+03
   6.400  0.8074E-01  0.0000E+00  0.5710E+03
   6.410  0.0000E+00  0.0000E+00  0.5710E+03
   6.420  0.0000E+00  0.0000E+00  0.5710E+03
   6.430  0.0000E+00  0.0000E+00  0.5710E+03
   6.440  0.0000E+00  0.0000E+00  0.5710E+03
   6.450  0.0000E+00  0.0000E+00  0.5710E+03
   6.460  0.0000E+00  0.0000E+00  0.5710E+03
   6.470  0.0000E+00  0.0000E+00  0.5710E+03
   6.480  0.0000E+00  0.0000E+00  0.5710E+03
   6.490  0.0000E+00  0.0000E+00  0.5710E+03
   6.500  0.0000E+00  0.0000E+00  0.5710E+03
   6.510  0.0000E+00  0.0000E+00  0.5710E+03
   6.520  0.0000E+00  0.0000E+00  0.5710E+03
   6.530  0.0000E+00  0.0000E+00  0.5710E+03
   6.540  0.0000E+00  0.0000E+00  0.5710E+03
   6.550  0.0000E+00  0.0000E+00  0.5710E+03
   6.560  0.0000E+00  0.0000E+00  0.5710E+03
   6.570  0.0000E+00  0.0000E+00  0.5710E+03
   6.580  0.0000E+00  0.0000E+00  0.5710E+03
   6.590  0.0000E+00  0.0000E+00  0.5710E+03
   6.600  0.0000E+00  0.0000E+00  0.5710E+03
   6.610  0.0000E+00  0.0000E+00  0.5710E+03
   6.620  0.0000E+00  0.0000E+00  0.5710E+03
   6.630  0.0000E+00  0.0000E+00  0.5710E+03
   6.640  0.0000E+00  0.0000E+00  0.5710E+03
   6.650  0.0000E+00  0.0000E+00  0.5710E+03
   6.660  0.0000E+00  0.0000E+00  0.5710E+03
   6.670  0.0000E+00  0.0000E+00  0.5710E+03
   6.680  0.0000E+00  0.0000E+00  0.5710E+03
   6.690  0.0000E+00  0.0000E+00  0.5710E+03
   6.700  0.0000E+00  0.0000E+00  0.5710E+03
   6.710  0.0000E+00  0.0000E+00  0.5710E+03
   6.720  0.0000E+00  0.0000E+00  0.5710E+03
   6.730  0.0000E+00  0.0000E+00  0.5710E+03
   6.740  0.0000E+00  0.0000E+00  0.5710E+03
   6.750  0.0000E+00  0.0000E+00  0.5710E+03
   6.760  0.0000E+00  0.0000E+00  0.5710E+03
   6.770  0.0000E+00  0.0000E+00  0.5710E+03
   6.780  0.0000E+00  0.0000E+00  0.5710E+03
   6.790  0.0000E+00  0.0000E+00  0.5710E+03
   6.800  0.0000E+00  0.0000E+00  0.5710E+03
   6.810  0.0000E+00  0.0000E+00  0.5710E+03
   6.820  0.0000E+00  0.0000E+00  0.5710E+03
   6.830  0.0000E+00  0.0000E+00  0.5710E+03
   6.840  0.0000E+00  0.0000E+00  0.5710E+03
   6.850  0.0000E+00  0.0000E+00  0.5710E+03
   6.860  0.0000E+00  0.0000E+00  0.5710E+03
   6.870  0.0000E+00  0.0000E+00  0.5710E+03
   6.880  0.0000E+00  0.0000E+00  0.5710E+03
   6.890  0.0000E+00  0.0000E+00  0.5710E+03
   6.900  0.0000E+00  0.0000E+00  0.5710E+03
   6.910  0.0000E+00  0.0000E+00  0.5710E+03
   6.920  0.0000E+00  0.0000E+00  0.5710E+03
   6.930  0.0000E+00  0.0000E+00  0.5710E+03
   6.940  0.0000E+00  0.0000E+00  0.5710E+03
   6.950  0.0000E+00  0.0000E+00  0.5710E+03
   6.960  0.0000E+00  0.0000E+00  0.5710E+03
   6.970  0.0000E+00  0.0000E+00  0.5710E+03
   6.980  0.0000E+00  0.0000E+00  0.5710E+03
   6.990  0.0000E+00  0.0000E+00  0.5710E+03
   7.000  0.0000E+00  0.0000E+00  0.5710E+03
   7.010  0.0000E+00  0.0000E+00  0.5710E+03
   7.020  0.0000E+00  0.0000E+00  0.5710E+03
   7.030  0.0000E+00  0.0000E+00  0.5710E+03
   7.040  0.0000E+00  0.0000E+00  0.5710E+03
   7.050  0.0000E+00  0.0000E+00  0.5710E+03
   7.060  0.0000E+00  0.0000E+00  0.5710E+03
   7.070  0.0000E+00  0.0000E+00  0.5710E+03
   7.080  0.0000E+00  0.0000E+00  0.5710E+03
   7.090  0.0000E+00  0.0000E+00  0.5710E+03
   7.100  0.0000E+00  0.0000E+00  0.5710E+03
   7.110  0.0000E+00  0.0000E+00  0.5710E+03
   7.120  0.0000E+00  0.0000E+00  0.5710E+03
   7.130  0.0000E+00  0.0000E+00  0.5710E+03
   7.140  0.0000E+00  0.0000E+00  0.5710E+03
   7.150  0.0000E+00  0.0000E+00  0.5710E+03
   7.160  0.0000E+00  0.0000E+00  0.5710E+03
   7.170  0.0000E+00  0.0000E+00  0.5710E+03
   7.180  0.0000E+00  0.1699E-06  0.5710E+03
   7.190  0.0000E+00  0.5173E-03  0.5710E+03
   7.200  0.0000E+00  0.2133E-02  0.5710E+03
   7.210  0.6052E-05  0.4848E-02  0.5710E+03
   7.220  0.1691E-03  0.8663E-02  0.5710E+03
   7.230  0.7119E-03  0.1358E-01  0.5710E+03
   7.240  0.1648E-02  0.1959E-01  0.5710E+03
   7.250  0.2978E-02  0.2671E-01  0.5710E+03
   7.260  0.4701E-02  0.3493E-01  0.5710E+03
   7.270  0.6818E-02  0.4424E-01  0.5710E+03
   7.280  0.9329E-02  0.5466E-01  0.5710E+03
   7.290  0.1223E-01  0.6617E-01  0.5710E+03
   7.300  0.1553E-01  0.7879E-01  0.5710E+03
   7.310  0.1922E-01  0.9250E-01  0.5710E+03
   7.320  0.2331E-01  0.1073E+00  0.5710E+03
   7.330  0.2778E-01  0.1232E+00  0.5710E+03
   7.340  0.3266E-01  0.1403E+00  0.5710E+03
   7.350  0.3792E-01  0.1584E+00  0.5710E+03
   7.360  0.4358E-01  0.1776E+00  0.5710E+03
   7.370  0.4963E-01  0.1979E+00  0.5710E+03
   7.380  0.5608E-01  0.2193E+00  0.5710E+03
   7.390  0.6292E-01  0.2418E+00  0.5710E+03
   7.400  0.7015E-01  0.2654E+00  0.5710E+03
   7.410  0.7778E-01  0.2902E+00  0.5710E+03
   7.420  0.8580E-01  0.3160E+00  0.5710E+03
   7.430  0.9421E-01  0.3429E+00  0.5710E+03
   7.440  0.1030E+00  0.3709E+00  0.5710E+03
   7.450  0.1122E+00  0.4000E+00  0.5710E+03
   7.460  0.1218E+00  0.4302E+00  0.5711E+03
   7.470  0.1318E+00  0.4616E+00  0.5711E+03
   7.480  0.1422E+00  0.4940E+00  0.5711E+03
   7.490  0.1530E+00  0.6568E+00  0.5711E+03
   7.500  0.1641E+00  0.1875E+01  0.5711E+03
   7.510  0.1757E+00  0.4187E+01  0.5711E+03
   7.520  0.1876E+00  0.7866E+01  0.5712E+03
   7.530  0.2000E+00  0.1431E+02  0.5713E+03
   7.540  0.2127E+00  0.5556E+02  0.5720E+03
   7.550  0.2259E+00  0.1015E+03  0.5729E+03
   7.560  0.2393E+00  0.7246E+00  0.5730E+03
   7.570  0.2475E+00  0.7721E+00  0.5731E+03
   7.580  0.2718E+00  0.8228E+00  0.5731E+03
   7.590  0.2980E+00  0.8778E+00  0.5731E+03
   7.600  0.3235E+00  0.9372E+00  0.5731E+03
   7.610  0.3487E+00  0.1001E+01  0.5731E+03
   7.620  0.3743E+00  0.1069E+01  0.5731E+03
   7.630  0.4010E+00  0.1141E+01  0.5731E+03
   7.640  0.4292E+00  0.1218E+01  0.5731E+03
   7.650  0.4589E+00  0.1299E+01  0.5732E+03
   7.660  0.4902E+00  0.1385E+01  0.5732E+03
   7.670  0.5229E+00  0.1458E+01  0.5732E+03
   7.680  0.5572E+00  0.1511E+01  0.5732E+03
   7.690  0.5930E+00  0.1580E+01  0.5732E+03
   7.700  0.6303E+00  0.1647E+01  0.5733E+03
   7.710  0.6692E+00  0.1758E+01  0.5733E+03
   7.720  0.7095E+00  0.1913E+01  0.5733E+03
   7.730  0.7514E+00  0.2113E+01  0.5733E+03
   7.740  0.7948E+00  0.2399E+01  0.5734E+03
   7.750  0.8397E+00  0.2813E+01  0.5734E+03
   7.760  0.8861E+00  0.3359E+01  0.5734E+03
   7.770  0.9340E+00  0.4036E+01  0.5735E+03
   7.780  0.9819E+00  0.4821E+01  0.5735E+03
   7.790  0.1013E+01  0.5708E+01  0.5736E+03
   7.800  0.1035E+01  0.6887E+01  0.5737E+03
   7.810  0.1069E+01  0.8241E+01  0.5738E+03
   7.820  0.1117E+01  0.8438E+01  0.5739E+03
   7.830  0.1175E+01  0.7878E+01  0.5740E+03
   7.840  0.1244E+01  0.7295E+01  0.5740E+03
   7.850  0.1332E+01  0.6396E+01  0.5741E+03
   7.860  0.1450E+01  0.4078E+01  0.5742E+03
   7.870  0.1604E+01  0.1750E+01  0.5742E+03
   7.880  0.1807E+01  0.1278E+01  0.5743E+03
   7.890  0.2055E+01  0.1665E-03  0.5743E+03
   7.900  0.2352E+01  0.0000E+00  0.5743E+03
   7.910  0.2700E+01  0.3575E-03  0.5743E+03
   7.920  0.3095E+01  0.3074E-02  0.5744E+03
   7.930  0.3546E+01  0.1083E-01  0.5744E+03
   7.940  0.4073E+01  0.2375E-01  0.5744E+03
   7.950  0.4705E+01  0.4182E-01  0.5745E+03
   7.960  0.5305E+01  0.6505E-01  0.5745E+03
   7.970  0.5719E+01  0.9344E-01  0.5746E+03
   7.980  0.6048E+01  0.1270E+00  0.5747E+03
   7.990  0.6167E+01  0.1657E+00  0.5747E+03
   8.000  0.6125E+01  0.2095E+00  0.5748E+03
   8.010  0.5983E+01  0.2586E+00  0.5748E+03
   8.020  0.5438E+01  0.3127E+00  0.5749E+03
   8.030  0.4103E+01  0.3721E+00  0.5750E+03
   8.040  0.2632E+01  0.4366E+00  0.5750E+03
   8.050  0.1991E+01  0.4986E+00  0.5750E+03
   8.060  0.1696E+01  0.5735E+00  0.5750E+03
   8.070  0.1702E+01  0.6508E+00  0.5751E+03
   8.080  0.8008E+00  0.7202E+00  0.5751E+03
   8.090  0.6364E+00  0.7862E+00  0.5751E+03
   8.100  0.6655E+00  0.8517E+00  0.5751E+03
   8.110  0.7026E+00  0.9174E+00  0.5751E+03
   8.120  0.7393E+00  0.9832E+00  0.5751E+03
   8.130  0.7756E+00  0.1049E+01  0.5752E+03
   8.140  0.8114E+00  0.1115E+01  0.5752E+03
   8.150  0.8467E+00  0.1182E+01  0.5752E+03
   8.160  0.8817E+00  0.1247E+01  0.5752E+03
   8.170  0.9161E+00  0.1303E+01  0.5752E+03
   8.180  0.9493E+00  0.1349E+01  0.5753E+03
   8.190  0.9671E+00  0.1371E+01  0.5753E+03
   8.200  0.9698E+00  0.1402E+01  0.5753E+03
   8.210  0.9731E+00  0.1454E+01  0.5753E+03
   8.220  0.9839E+00  0.1509E+01  0.5754E+03
   8.230  0.9880E+00  0.1581E+01  0.5754E+03
   8.240  0.9882E+00  0.1690E+01  0.5754E+03
   8.250  0.1005E+01  0.1813E+01  0.5754E+03
   8.260  0.1035E+01  0.1943E+01  0.5755E+03
   8.270  0.1070E+01  0.2081E+01  0.5755E+03
   8.280  0.1108E+01  0.2227E+01  0.5755E+03
   8.290  0.1148E+01  0.2380E+01  0.5756E+03
   8.300  0.1191E+01  0.2545E+01  0.5756E+03
   8.310  0.1237E+01  0.2735E+01  0.5756E+03
   8.320  0.1287E+01  0.2960E+01  0.5757E+03
   8.330  0.1340E+01  0.3271E+01  0.5757E+03
   8.340  0.1395E+01  0.3652E+01  0.5758E+03
   8.350  0.1450E+01  0.4096E+01  0.5758E+03
   8.360  0.1506E+01  0.4593E+01  0.5759E+03
   8.370  0.1564E+01  0.5153E+01  0.5760E+03
   8.380  0.1626E+01  0.5817E+01  0.5760E+03
   8.390  0.1693E+01  0.7787E+01  0.5761E+03
   8.400  0.1764E+01  0.9692E+01  0.5762E+03
   8.410  0.1835E+01  0.1280E+02  0.5763E+03
   8.420  0.1902E+01  0.1485E+02  0.5765E+03
   8.430  0.1960E+01  0.2030E+02  0.5767E+03
   8.440  0.2011E+01  0.1774E+02  0.5769E+03
   8.450  0.2050E+01  0.2380E+02  0.5771E+03
   8.460  0.2078E+01  0.1770E+02  0.5773E+03
   8.470  0.2095E+01  0.2019E+02  0.5776E+03
   8.480  0.2102E+01  0.2307E+02  0.5778E+03
   8.490  0.2098E+01  0.2268E+02  0.5781E+03
   8.500  0.2084E+01  0.2100E+02  0.5783E+03
   8.510  0.2059E+01  0.2557E+02  0.5786E+03
   8.520  0.2023E+01  0.1537E+02  0.5788E+03
   8.530  0.1976E+01  0.7917E+01  0.5789E+03
   8.540  0.1905E+01  0.5289E+01  0.5790E+03
   8.550  0.1835E+01  0.5585E+01  0.5791E+03
   8.560  0.1762E+01  0.5808E+01  0.5791E+03
   8.570  0.1755E+01  0.5880E+01  0.5792E+03
   8.580  0.1873E+01  0.5740E+01  0.5793E+03
   8.590  0.1934E+01  0.5411E+01  0.5794E+03
   8.600  0.2018E+01  0.4527E+01  0.5794E+03
   8.610  0.2132E+01  0.3886E+01  0.5795E+03
   8.620  0.2365E+01  0.3678E+01  0.5796E+03
   8.630  0.2879E+01  0.3636E+01  0.5796E+03
   8.640  0.3572E+01  0.3556E+01  0.5797E+03
   8.650  0.4335E+01  0.3455E+01  0.5798E+03
   8.660  0.5113E+01  0.3336E+01  0.5798E+03
   8.670  0.5900E+01  0.3197E+01  0.5799E+03
   8.680  0.6789E+01  0.3040E+01  0.5800E+03
   8.690  0.7707E+01  0.3598E+01  0.5801E+03
   8.700  0.8850E+01  0.4300E+01  0.5803E+03
   8.710  0.1107E+02  0.4361E+01  0.5804E+03
   8.720  0.8724E+01  0.4761E+01  0.5805E+03
   8.730  0.8277E+01  0.5782E+01  0.5807E+03
   8.740  0.7839E+01  0.7074E+01  0.5808E+03
   8.750  0.7374E+01  0.8723E+01  0.5810E+03
   8.760  0.6799E+01  0.1050E+02  0.5811E+03
   8.770  0.6075E+01  0.1155E+02  0.5813E+03
   8.780  0.5138E+01  0.1173E+02  0.5815E+03
   8.790  0.4321E+01  0.1064E+02  0.5817E+03
   8.800  0.3965E+01  0.7082E+01  0.5818E+03
   8.810  0.3691E+01  0.4789E+01  0.5819E+03
   8.820  0.3471E+01  0.4080E+01  0.5820E+03
   8.830  0.3605E+01  0.3777E+01  0.5820E+03
   8.840  0.3918E+01  0.3573E+01  0.5821E+03
   8.850  0.4650E+01  0.3484E+01  0.5822E+03
   8.860  0.5990E+01  0.3571E+01  0.5823E+03
   8.870  0.8195E+01  0.3823E+01  0.5824E+03
   8.880  0.1148E+02  0.4264E+01  0.5825E+03
   8.890  0.1104E+02  0.4799E+01  0.5827E+03
   8.900  0.1167E+02  0.6943E+01  0.5829E+03
   8.910  0.1151E+02  0.8861E+01  0.5830E+03
   8.920  0.1027E+02  0.1063E+02  0.5833E+03
   8.930  0.9702E+01  0.1205E+02  0.5835E+03
   8.940  0.8849E+01  0.1395E+02  0.5837E+03
   8.950  0.8422E+01  0.1606E+02  0.5839E+03
   8.960  0.7997E+01  0.1244E+02  0.5842E+03
   8.970  0.8192E+01  0.1062E+02  0.5844E+03
   8.980  0.9128E+01  0.9121E+01  0.5845E+03
   8.990  0.1013E+02  0.9727E+01  0.5847E+03
   9.000  0.1048E+02  0.9798E+01  0.5849E+03
   9.010  0.1095E+02  0.8987E+01  0.5851E+03
   9.020  0.1172E+02  0.8797E+01  0.5853E+03
   9.030  0.1274E+02  0.8993E+01  0.5855E+03
   9.040  0.1338E+02  0.9393E+01  0.5858E+03
   9.050  0.1385E+02  0.1008E+02  0.5860E+03
   9.060  0.1409E+02  0.1092E+02  0.5862E+03
   9.070  0.1400E+02  0.1172E+02  0.5865E+03
   9.080  0.1370E+02  0.1209E+02  0.5868E+03
   9.090  0.1316E+02  0.1223E+02  0.5870E+03
   9.100  0.1268E+02  0.1215E+02  0.5873E+03
   9.110  0.1224E+02  0.1194E+02  0.5875E+03
   9.120  0.1170E+02  0.1165E+02  0.5877E+03
   9.130  0.1100E+02  0.1129E+02  0.5880E+03
   9.140  0.9504E+01  0.1110E+02  0.5882E+03
   9.150  0.7747E+01  0.1117E+02  0.5884E+03
   9.160  0.7090E+01  0.1041E+02  0.5886E+03
   9.170  0.6949E+01  0.9762E+01  0.5887E+03
   9.180  0.7067E+01  0.9259E+01  0.5889E+03
   9.190  0.7589E+01  0.8786E+01  0.5891E+03
   9.200  0.8136E+01  0.8458E+01  0.5892E+03
   9.210  0.9242E+01  0.8260E+01  0.5894E+03
   9.220  0.1029E+02  0.8250E+01  0.5896E+03
   9.230  0.1120E+02  0.8358E+01  0.5898E+03
   9.240  0.1202E+02  0.9229E+01  0.5900E+03
   9.250  0.1286E+02  0.1032E+02  0.5902E+03
   9.260  0.1369E+02  0.1152E+02  0.5904E+03
   9.270  0.1533E+02  0.1279E+02  0.5907E+03
   9.280  0.1667E+02  0.1387E+02  0.5910E+03
   9.290  0.1882E+02  0.1474E+02  0.5913E+03
   9.300  0.1895E+02  0.1482E+02  0.5917E+03
   9.310  0.2047E+02  0.1499E+02  0.5920E+03
   9.320  0.2282E+02  0.1605E+02  0.5924E+03
   9.330  0.2269E+02  0.1739E+02  0.5928E+03
   9.340  0.2225E+02  0.1936E+02  0.5932E+03
   9.350  0.2318E+02  0.2055E+02  0.5936E+03
   9.360  0.2065E+02  0.2132E+02  0.5940E+03
   9.370  0.1924E+02  0.2285E+02  0.5944E+03
   9.380  0.1849E+02  0.2610E+02  0.5949E+03
   9.390  0.1696E+02  0.2456E+02  0.5953E+03
   9.400  0.1621E+02  0.1944E+02  0.5957E+03
   9.410  0.1536E+02  0.1799E+02  0.5961E+03
   9.420  0.1391E+02  0.1880E+02  0.5964E+03
   9.430  0.1185E+02  0.1820E+02  0.5967E+03
   9.440  0.1008E+02  0.1597E+02  0.5970E+03
   9.450  0.1266E+02  0.1525E+02  0.5972E+03
   9.460  0.2171E+02  0.1361E+02  0.5976E+03
   9.470  0.2116E+02  0.1286E+02  0.5979E+03
   9.480  0.2107E+02  0.1471E+02  0.5983E+03
   9.490  0.2038E+02  0.1764E+02  0.5987E+03
   9.500  0.1949E+02  0.1665E+02  0.5990E+03
   9.510  0.1897E+02  0.1791E+02  0.5994E+03
   9.520  0.1847E+02  0.2088E+02  0.5998E+03
   9.530  0.1812E+02  0.2459E+02  0.6002E+03
   9.540  0.1813E+02  0.2369E+02  0.6006E+03
   9.550  0.1811E+02  0.2207E+02  0.6010E+03
   9.560  0.1894E+02  0.2129E+02  0.6014E+03
   9.570  0.1743E+02  0.1936E+02  0.6018E+03
   9.580  0.1540E+02  0.1660E+02  0.6022E+03
   9.590  0.1491E+02  0.1543E+02  0.6025E+03
   9.600  0.1859E+02  0.1445E+02  0.6028E+03
   9.610  0.2559E+02  0.1461E+02  0.6032E+03
   9.620  0.2194E+02  0.1507E+02  0.6035E+03
   9.630  0.2088E+02  0.1982E+02  0.6039E+03
   9.640  0.2104E+02  0.2085E+02  0.6043E+03
   9.650  0.1987E+02  0.2170E+02  0.6047E+03
   9.660  0.1924E+02  0.2463E+02  0.6052E+03
   9.670  0.1890E+02  0.2521E+02  0.6056E+03
   9.680  0.1890E+02  0.2388E+02  0.6061E+03
   9.690  0.1934E+02  0.2190E+02  0.6065E+03
   9.700  0.1817E+02  0.1662E+02  0.6069E+03
   9.710  0.1816E+02  0.1609E+02  0.6072E+03
   9.720  0.1660E+02  0.1961E+02  0.6076E+03
   9.730  0.1661E+02  0.1629E+02  0.6079E+03
   9.740  0.2071E+02  0.2095E+02  0.6083E+03
   9.750  0.2675E+02  0.3416E+02  0.6088E+03
   9.760  0.3446E+02  0.2699E+02  0.6094E+03
   9.770  0.3842E+02  0.2438E+02  0.6100E+03
   9.780  0.3575E+02  0.2289E+02  0.6106E+03
   9.790  0.3122E+02  0.2211E+02  0.6112E+03
   9.800  0.4443E+02  0.2720E+02  0.6118E+03
   9.810  0.3017E+02  0.4050E+02  0.6126E+03
   9.820  0.2735E+02  0.3050E+02  0.6132E+03
   9.830  0.2933E+02  0.2881E+02  0.6138E+03
   9.840  0.2307E+02  0.2759E+02  0.6143E+03
   9.850  0.2558E+02  0.2648E+02  0.6148E+03
   9.860  0.2859E+02  0.2649E+02  0.6153E+03
   9.870  0.2589E+02  0.2719E+02  0.6159E+03
   9.880  0.2462E+02  0.2730E+02  0.6164E+03
   9.890  0.2575E+02  0.2704E+02  0.6169E+03
   9.900  0.2720E+02  0.2677E+02  0.6175E+03
   9.910  0.2802E+02  0.2658E+02  0.6180E+03
   9.920  0.2832E+02  0.2700E+02  0.6186E+03
   9.930  0.2722E+02  0.2655E+02  0.6191E+03
   9.940  0.2690E+02  0.2608E+02  0.6196E+03
   9.950  0.2676E+02  0.2520E+02  0.6202E+03
   9.960  0.2748E+02  0.2566E+02  0.6207E+03
   9.970  0.2806E+02  0.2643E+02  0.6212E+03
   9.980  0.2765E+02  0.2626E+02  0.6218E+03
   9.990  0.2717E+02  0.2569E+02  0.6223E+03
  10.000  0.2625E+02  0.2566E+02  0.6228E+03
  10.010  0.2484E+02  0.2558E+02  0.6233E+03
  10.020  0.2390E+02  0.2516E+02  0.6238E+03
  10.030  0.2444E+02  0.2407E+02  0.6243E+03
  10.040  0.2586E+02  0.2299E+02  0.6248E+03
  10.050  0.2249E+02  0.2362E+02  0.6253E+03
  10.060  0.2209E+02  0.2444E+02  0.6257E+03
  10.070  0.2183E+02  0.2738E+02  0.6262E+03
  10.080  0.2102E+02  0.2623E+02  0.6267E+03
  10.090  0.2029E+02  0.2621E+02  0.6272E+03
  10.100  0.2562E+02  0.2581E+02  0.6277E+03
  10.110  0.2467E+02  0.2266E+02  0.6282E+03
  10.120  0.2171E+02  0.1924E+02  0.6286E+03
  10.130  0.1931E+02  0.2168E+02  0.6290E+03
  10.140  0.1750E+02  0.2311E+02  0.6294E+03
  10.150  0.1593E+02  0.2361E+02  0.6298E+03
  10.160  0.1613E+02  0.2244E+02  0.6302E+03
  10.170  0.2253E+02  0.2179E+02  0.6306E+03
  10.180  0.3066E+02  0.1951E+02  0.6311E+03
  10.190  0.2399E+02  0.1514E+02  0.6315E+03
  10.200  0.2245E+02  0.1573E+02  0.6319E+03
  10.210  0.2470E+02  0.2874E+02  0.6324E+03
  10.220  0.2114E+02  0.2826E+02  0.6329E+03
  10.230  0.2326E+02  0.2422E+02  0.6334E+03
  10.240  0.2719E+02  0.2606E+02  0.6338E+03
  10.250  0.2724E+02  0.2375E+02  0.6344E+03
  10.260  0.2650E+02  0.2565E+02  0.6349E+03
  10.270  0.2391E+02  0.2501E+02  0.6354E+03
  10.280  0.2148E+02  0.2310E+02  0.6359E+03
  10.290  0.1935E+02  0.2207E+02  0.6363E+03
  10.300  0.1834E+02  0.2098E+02  0.6367E+03
  10.310  0.1760E+02  0.2044E+02  0.6371E+03
  10.320  0.1710E+02  0.1950E+02  0.6374E+03
  10.330  0.1671E+02  0.1842E+02  0.6378E+03
  10.340  0.1663E+02  0.1771E+02  0.6382E+03
  10.350  0.1667E+02  0.1645E+02  0.6385E+03
  10.360  0.1681E+02  0.2048E+02  0.6388E+03
  10.370  0.1652E+02  0.1843E+02  0.6392E+03
  10.380  0.1628E+02  0.1761E+02  0.6395E+03
  10.390  0.1612E+02  0.1693E+02  0.6399E+03
  10.400  0.1601E+02  0.1637E+02  0.6402E+03
  10.410  0.1626E+02  0.1569E+02  0.6405E+03
  10.420  0.1709E+02  0.1550E+02  0.6408E+03
  10.430  0.1725E+02  0.1610E+02  0.6412E+03
  10.440  0.1696E+02  0.1658E+02  0.6415E+03
  10.450  0.1728E+02  0.1676E+02  0.6418E+03
  10.460  0.1876E+02  0.1739E+02  0.6422E+03
  10.470  0.1945E+02  0.1779E+02  0.6426E+03
  10.480  0.1884E+02  0.1810E+02  0.6429E+03
  10.490  0.1738E+02  0.1867E+02  0.6433E+03
  10.500  0.1585E+02  0.1895E+02  0.6437E+03
  10.510  0.1471E+02  0.1815E+02  0.6440E+03
  10.520  0.1429E+02  0.1686E+02  0.6443E+03
  10.530  0.1422E+02  0.1558E+02  0.6446E+03
  10.540  0.1451E+02  0.1481E+02  0.6449E+03
  10.550  0.1598E+02  0.1455E+02  0.6452E+03
  10.560  0.1800E+02  0.1486E+02  0.6455E+03
  10.570  0.1661E+02  0.1704E+02  0.6459E+03
  10.580  0.1697E+02  0.2055E+02  0.6462E+03
  10.590  0.1849E+02  0.1791E+02  0.6466E+03
  10.600  0.1643E+02  0.1513E+02  0.6469E+03
  10.610  0.1341E+02  0.1132E+02  0.6472E+03
  10.620  0.1333E+02  0.1387E+02  0.6475E+03
  10.630  0.1238E+02  0.1361E+02  0.6477E+03
  10.640  0.1339E+02  0.1415E+02  0.6480E+03
  10.650  0.1639E+02  0.1374E+02  0.6483E+03
  10.660  0.1411E+02  0.1176E+02  0.6486E+03
  10.670  0.1191E+02  0.1330E+02  0.6488E+03
  10.680  0.1144E+02  0.1467E+02  0.6491E+03
  10.690  0.1237E+02  0.1970E+02  0.6494E+03
  10.700  0.1404E+02  0.1337E+02  0.6497E+03
  10.710  0.1464E+02  0.1161E+02  0.6499E+03
  10.720  0.1465E+02  0.1101E+02  0.6502E+03
  10.730  0.1386E+02  0.1456E+02  0.6505E+03
  10.740  0.1328E+02  0.1505E+02  0.6508E+03
  10.750  0.1303E+02  0.1580E+02  0.6510E+03
  10.760  0.1249E+02  0.1631E+02  0.6513E+03
  10.770  0.1242E+02  0.1623E+02  0.6516E+03
  10.780  0.1239E+02  0.1646E+02  0.6519E+03
  10.790  0.1247E+02  0.1639E+02  0.6522E+03
  10.800  0.1291E+02  0.1585E+02  0.6525E+03
  10.810  0.1479E+02  0.1232E+02  0.6528E+03
  10.820  0.1927E+02  0.1215E+02  0.6531E+03
  10.830  0.1486E+02  0.1284E+02  0.6533E+03
  10.840  0.1536E+02  0.1351E+02  0.6536E+03
  10.850  0.1808E+02  0.1149E+02  0.6539E+03
  10.860  0.1796E+02  0.1078E+02  0.6542E+03
  10.870  0.1738E+02  0.1230E+02  0.6545E+03
  10.880  0.1649E+02  0.1597E+02  0.6548E+03
  10.890  0.1506E+02  0.1945E+02  0.6552E+03
  10.900  0.1532E+02  0.1737E+02  0.6555E+03
  10.910  0.1544E+02  0.1581E+02  0.6558E+03
  10.920  0.1282E+02  0.1576E+02  0.6561E+03
  10.930  0.1134E+02  0.1583E+02  0.6564E+03
  10.940  0.1243E+02  0.1483E+02  0.6567E+03
  10.950  0.1538E+02  0.1640E+02  0.6569E+03
  10.960  0.1707E+02  0.1635E+02  0.6573E+03
  10.970  0.1716E+02  0.1522E+02  0.6576E+03
  10.980  0.1692E+02  0.1500E+02  0.6579E+03
  10.990  0.1566E+02  0.1543E+02  0.6582E+03
  11.000  0.1704E+02  0.1879E+02  0.6586E+03
  11.010  0.1650E+02  0.1555E+02  0.6589E+03
  11.020  0.1602E+02  0.1391E+02  0.6592E+03
  11.030  0.1392E+02  0.1240E+02  0.6595E+03
  11.040  0.1320E+02  0.1151E+02  0.6598E+03
  11.050  0.1248E+02  0.1105E+02  0.6600E+03
  11.060  0.1182E+02  0.1109E+02  0.6602E+03
  11.070  0.1126E+02  0.1150E+02  0.6605E+03
  11.080  0.1079E+02  0.1057E+02  0.6607E+03
  11.090  0.1090E+02  0.1018E+02  0.6609E+03
  11.100  0.1186E+02  0.1017E+02  0.6611E+03
  11.110  0.1307E+02  0.1071E+02  0.6613E+03
  11.120  0.1188E+02  0.1164E+02  0.6616E+03
  11.130  0.1163E+02  0.1332E+02  0.6618E+03
  11.140  0.1179E+02  0.1573E+02  0.6621E+03
  11.150  0.1244E+02  0.1549E+02  0.6624E+03
  11.160  0.1274E+02  0.1504E+02  0.6626E+03
  11.170  0.1260E+02  0.1467E+02  0.6629E+03
  11.180  0.1264E+02  0.1411E+02  0.6632E+03
  11.190  0.1250E+02  0.1509E+02  0.6635E+03
  11.200  0.1229E+02  0.1425E+02  0.6637E+03
  11.210  0.1204E+02  0.1312E+02  0.6640E+03
  11.220  0.1179E+02  0.1261E+02  0.6642E+03
  11.230  0.1147E+02  0.1255E+02  0.6645E+03
  11.240  0.1187E+02  0.1273E+02  0.6647E+03
  11.250  0.1179E+02  0.1311E+02  0.6650E+03
  11.260  0.1200E+02  0.1379E+02  0.6652E+03
  11.270  0.1248E+02  0.1420E+02  0.6655E+03
  11.280  0.1311E+02  0.1445E+02  0.6658E+03
  11.290  0.1413E+02  0.1465E+02  0.6660E+03
  11.300  0.1609E+02  0.1507E+02  0.6663E+03
  11.310  0.1756E+02  0.1593E+02  0.6667E+03
  11.320  0.1901E+02  0.1727E+02  0.6670E+03
  11.330  0.2099E+02  0.1884E+02  0.6674E+03
  11.340  0.2245E+02  0.2101E+02  0.6678E+03
  11.350  0.2404E+02  0.2319E+02  0.6683E+03
  11.360  0.2477E+02  0.2367E+02  0.6687E+03
  11.370  0.2499E+02  0.2362E+02  0.6692E+03
  11.380  0.2473E+02  0.2276E+02  0.6697E+03
  11.390  0.2529E+02  0.2322E+02  0.6702E+03
  11.400  0.2666E+02  0.2388E+02  0.6707E+03
  11.410  0.2660E+02  0.2355E+02  0.6712E+03
  11.420  0.2339E+02  0.2375E+02  0.6717E+03
  11.430  0.2276E+02  0.2792E+02  0.6722E+03
  11.440  0.2434E+02  0.2515E+02  0.6727E+03
  11.450  0.2446E+02  0.2381E+02  0.6732E+03
  11.460  0.2395E+02  0.2284E+02  0.6736E+03
  11.470  0.2427E+02  0.2175E+02  0.6741E+03
  11.480  0.2331E+02  0.2113E+02  0.6746E+03
  11.490  0.2334E+02  0.2130E+02  0.6750E+03
  11.500  0.2317E+02  0.2249E+02  0.6754E+03
  11.510  0.2195E+02  0.2162E+02  0.6759E+03
  11.520  0.2171E+02  0.2239E+02  0.6763E+03
  11.530  0.2152E+02  0.2114E+02  0.6768E+03
  11.540  0.2343E+02  0.2102E+02  0.6772E+03
  11.550  0.2181E+02  0.2269E+02  0.6776E+03
  11.560  0.2012E+02  0.2287E+02  0.6781E+03
  11.570  0.1826E+02  0.2237E+02  0.6785E+03
  11.580  0.1987E+02  0.1983E+02  0.6789E+03
  11.590  0.2444E+02  0.1827E+02  0.6793E+03
  11.600  0.2878E+02  0.1950E+02  0.6798E+03
  11.610  0.2490E+02  0.2330E+02  0.6803E+03
  11.620  0.2137E+02  0.2208E+02  0.6807E+03
  11.630  0.2062E+02  0.1859E+02  0.6811E+03
  11.640  0.2034E+02  0.1878E+02  0.6815E+03
  11.650  0.2031E+02  0.1992E+02  0.6819E+03
  11.660  0.1998E+02  0.2196E+02  0.6823E+03
  11.670  0.1972E+02  0.2225E+02  0.6827E+03
  11.680  0.1951E+02  0.2318E+02  0.6832E+03
  11.690  0.1924E+02  0.2294E+02  0.6836E+03
  11.700  0.1888E+02  0.2235E+02  0.6840E+03
  11.710  0.1826E+02  0.2135E+02  0.6844E+03
  11.720  0.1757E+02  0.2053E+02  0.6848E+03
  11.730  0.1670E+02  0.1945E+02  0.6852E+03
  11.740  0.1456E+02  0.1862E+02  0.6855E+03
  11.750  0.1368E+02  0.1771E+02  0.6859E+03
  11.760  0.1146E+02  0.1641E+02  0.6862E+03
  11.770  0.8826E+01  0.1437E+02  0.6864E+03
  11.780  0.7664E+01  0.1249E+02  0.6866E+03
  11.790  0.6849E+01  0.1100E+02  0.6868E+03
  11.800  0.6249E+01  0.9653E+01  0.6870E+03
  11.810  0.5778E+01  0.8530E+01  0.6871E+03
  11.820  0.5496E+01  0.7607E+01  0.6873E+03
  11.830  0.4760E+01  0.6978E+01  0.6874E+03
  11.840  0.3857E+01  0.6050E+01  0.6875E+03
  11.850  0.3193E+01  0.5086E+01  0.6876E+03
  11.860  0.2707E+01  0.4262E+01  0.6877E+03
  11.870  0.2272E+01  0.3591E+01  0.6877E+03
  11.880  0.1894E+01  0.2939E+01  0.6878E+03
  11.890  0.1533E+01  0.2363E+01  0.6878E+03
  11.900  0.1250E+01  0.1816E+01  0.6879E+03
  11.910  0.1049E+01  0.1494E+01  0.6879E+03
  11.920  0.8858E+00  0.1232E+01  0.6879E+03
  11.930  0.7441E+00  0.1021E+01  0.6879E+03
  11.940  0.6155E+00  0.8470E+00  0.6879E+03
  11.950  0.4993E+00  0.6947E+00  0.6880E+03
  11.960  0.3956E+00  0.5591E+00  0.6880E+03
  11.970  0.3042E+00  0.4390E+00  0.6880E+03
  11.980  0.2253E+00  0.3347E+00  0.6880E+03
  11.990  0.1588E+00  0.2461E+00  0.6880E+03
  12.000  0.1046E+00  0.1731E+00  0.6880E+03
  12.010  0.6291E-01  0.1158E+00  0.6880E+03
  12.020  0.3333E-01  0.7328E-01  0.6880E+03
  12.030  0.1364E-01  0.4100E-01  0.6880E+03
  12.040  0.2806E-02  0.1815E-01  0.6880E+03
  12.050  0.7162E-04  0.4708E-02  0.6880E+03
  12.060  0.0000E+00  0.1812E-03  0.6880E+03
  12.070  0.0000E+00  0.0000E+00  0.6880E+03
  12.080  0.0000E+00  0.0000E+00  0.6880E+03
  12.090  0.0000E+00  0.0000E+00  0.6880E+03
  12.100  0.0000E+00  0.0000E+00  0.6880E+03
  12.110  0.0000E+00  0.0000E+00  0.6880E+03
  12.120  0.0000E+00  0.0000E+00  0.6880E+03
  12.130  0.0000E+00  0.0000E+00  0.6880E+03
  12.140  0.0000E+00  0.0000E+00  0.6880E+03
  12.150  0.0000E+00  0.0000E+00  0.6880E+03
  12.160  0.0000E+00  0.0000E+00  0.6880E+03
  12.170  0.0000E+00  0.0000E+00  0.6880E+03
  12.180  0.0000E+00  0.0000E+00  0.6880E+03
  12.190  0.0000E+00  0.0000E+00  0.6880E+03
  12.200  0.0000E+00  0.0000E+00  0.6880E+03
  12.210  0.0000E+00  0.0000E+00  0.6880E+03
  12.220  0.0000E+00  0.0000E+00  0.6880E+03
  12.230  0.0000E+00  0.0000E+00  0.6880E+03
  12.240  0.0000E+00  0.0000E+00  0.6880E+03
  12.250  0.0000E+00  0.0000E+00  0.6880E+03
  12.260  0.0000E+00  0.0000E+00  0.6880E+03
  12.270  0.0000E+00  0.0000E+00  0.6880E+03
  12.280  0.0000E+00  0.0000E+00  0.6880E+03
  12.290  0.0000E+00  0.0000E+00  0.6880E+03
  12.300  0.0000E+00  0.0000E+00  0.6880E+03
  12.310  0.0000E+00  0.0000E+00  0.6880E+03
  12.320  0.0000E+00  0.0000E+00  0.6880E+03
  12.330  0.0000E+00  0.0000E+00  0.6880E+03
  12.340  0.0000E+00  0.0000E+00  0.6880E+03
  12.350  0.0000E+00  0.0000E+00  0.6880E+03
  12.360  0.0000E+00  0.0000E+00  0.6880E+03
  12.370  0.0000E+00  0.0000E+00  0.6880E+03
  12.380  0.0000E+00  0.0000E+00  0.6880E+03
  12.390  0.0000E+00  0.0000E+00  0.6880E+03
  12.400  0.0000E+00  0.0000E+00  0.6880E+03
  12.410  0.0000E+00  0.0000E+00  0.6880E+03
  12.420  0.0000E+00  0.0000E+00  0.6880E+03
  12.430  0.0000E+00  0.0000E+00  0.6880E+03
  12.440  0.0000E+00  0.0000E+00  0.6880E+03
  12.450  0.0000E+00  0.0000E+00  0.6880E+03
  12.460  0.0000E+00  0.0000E+00  0.6880E+03
  12.470  0.0000E+00  0.0000E+00  0.6880E+03
  12.480  0.0000E+00  0.0000E+00  0.6880E+03
  12.490  0.0000E+00  0.0000E+00  0.6880E+03
  12.500  0.0000E+00  0.0000E+00  0.6880E+03
  12.510  0.0000E+00  0.0000E+00  0.6880E+03
  12.520  0.0000E+00  0.0000E+00  0.6880E+03
  12.530  0.0000E+00  0.0000E+00  0.6880E+03
  12.540  0.0000E+00  0.0000E+00  0.6880E+03
  12.550  0.0000E+00  0.0000E+00  0.6880E+03
  12.560  0.0000E+00  0.0000E+00  0.6880E+03
  12.570  0.0000E+00  0.0000E+00  0.6880E+03
  12.580  0.0000E+00  0.0000E+00  0.6880E+03
  12.590  0.0000E+00  0.0000E+00  0.6880E+03
  12.600  0.0000E+00  0.0000E+00  0.6880E+03
  12.610  0.0000E+00  0.0000E+00  0.6880E+03
  12.620  0.0000E+00  0.0000E+00  0.6880E+03
  12.630  0.0000E+00  0.0000E+00  0.6880E+03
  12.640  0.0000E+00  0.0000E+00  0.6880E+03
  12.650  0.0000E+00  0.0000E+00  0.6880E+03
  12.660  0.0000E+00  0.0000E+00  0.6880E+03
  12.670  0.0000E+00  0.0000E+00  0.6880E+03
  12.680  0.0000E+00  0.0000E+00  0.6880E+03
  12.690  0.0000E+00  0.0000E+00  0.6880E+03
  12.700  0.0000E+00  0.0000E+00  0.6880E+03
  12.710  0.0000E+00  0.0000E+00  0.6880E+03
  12.720  0.0000E+00  0.0000E+00  0.6880E+03
  12.730  0.0000E+00  0.0000E+00  0.6880E+03
  12.740  0.0000E+00  0.0000E+00  0.6880E+03
  12.750  0.0000E+00  0.0000E+00  0.6880E+03
  12.760  0.0000E+00  0.0000E+00  0.6880E+03
  12.770  0.0000E+00  0.0000E+00  0.6880E+03
  12.780  0.0000E+00  0.0000E+00  0.6880E+03
  12.790  0.0000E+00  0.0000E+00  0.6880E+03
  12.800  0.0000E+00  0.0000E+00  0.6880E+03
  12.810  0.0000E+00  0.0000E+00  0.6880E+03
  12.820  0.0000E+00  0.0000E+00  0.6880E+03
  12.830  0.0000E+00  0.0000E+00  0.6880E+03
  12.840  0.0000E+00  0.0000E+00  0.6880E+03
  12.850  0.0000E+00  0.0000E+00  0.6880E+03
  12.860  0.0000E+00  0.0000E+00  0.6880E+03
  12.870  0.0000E+00  0.0000E+00  0.6880E+03
  12.880  0.0000E+00  0.0000E+00  0.6880E+03
  12.890  0.0000E+00  0.0000E+00  0.6880E+03
  12.900  0.0000E+00  0.0000E+00  0.6880E+03
  12.910  0.0000E+00  0.0000E+00  0.6880E+03
  12.920  0.0000E+00  0.0000E+00  0.6880E+03
  12.930  0.0000E+00  0.0000E+00  0.6880E+03
  12.940  0.0000E+00  0.0000E+00  0.6880E+03
  12.950  0.0000E+00  0.0000E+00  0.6880E+03
  12.960  0.0000E+00  0.0000E+00  0.6880E+03
  12.970  0.0000E+00  0.0000E+00  0.6880E+03
  12.980  0.0000E+00  0.0000E+00  0.6880E+03
  12.990  0.0000E+00  0.0000E+00  0.6880E+03
  13.000  0.0000E+00  0.0000E+00  0.6880E+03
  13.010  0.0000E+00  0.0000E+00  0.6880E+03
  13.020  0.0000E+00  0.0000E+00  0.6880E+03
  13.030  0.0000E+00  0.0000E+00  0.6880E+03
  13.040  0.0000E+00  0.0000E+00  0.6880E+03
  13.050  0.0000E+00  0.0000E+00  0.6880E+03
  13.060  0.0000E+00  0.0000E+00  0.6880E+03
  13.070  0.0000E+00  0.0000E+00  0.6880E+03
  13.080  0.0000E+00  0.0000E+00  0.6880E+03
  13.090  0.0000E+00  0.0000E+00  0.6880E+03
  13.100  0.0000E+00  0.0000E+00  0.6880E+03
  13.110  0.0000E+00  0.0000E+00  0.6880E+03
  13.120  0.0000E+00  0.0000E+00  0.6880E+03
  13.130  0.0000E+00  0.0000E+00  0.6880E+03
  13.140  0.0000E+00  0.0000E+00  0.6880E+03
  13.150  0.0000E+00  0.0000E+00  0.6880E+03
  13.160  0.0000E+00  0.0000E+00  0.6880E+03
  13.170  0.0000E+00  0.0000E+00  0.6880E+03
  13.180  0.0000E+00  0.0000E+00  0.6880E+03
  13.190  0.0000E+00  0.0000E+00  0.6880E+03
  13.200  0.0000E+00  0.0000E+00  0.6880E+03
  13.210  0.0000E+00  0.0000E+00  0.6880E+03
  13.220  0.0000E+00  0.0000E+00  0.6880E+03
  13.230  0.0000E+00  0.0000E+00  0.6880E+03
  13.240  0.0000E+00  0.0000E+00  0.6880E+03
  13.250  0.0000E+00  0.0000E+00  0.6880E+03
  13.260  0.0000E+00  0.0000E+00  0.6880E+03
  13.270  0.0000E+00  0.0000E+00  0.6880E+03
  13.280  0.0000E+00  0.0000E+00  0.6880E+03
  13.290  0.0000E+00  0.0000E+00  0.6880E+03
  13.300  0.0000E+00  0.0000E+00  0.6880E+03
  13.310  0.0000E+00  0.0000E+00  0.6880E+03
  13.320  0.0000E+00  0.0000E+00  0.6880E+03
  13.330  0.0000E+00  0.0000E+00  0.6880E+03
  13.340  0.0000E+00  0.0000E+00  0.6880E+03
  13.350  0.0000E+00  0.0000E+00  0.6880E+03
  13.360  0.0000E+00  0.0000E+00  0.6880E+03
  13.370  0.0000E+00  0.0000E+00  0.6880E+03
  13.380  0.0000E+00  0.0000E+00  0.6880E+03
  13.390  0.0000E+00  0.0000E+00  0.6880E+03
  13.400  0.0000E+00  0.0000E+00  0.6880E+03
  13.410  0.0000E+00  0.0000E+00  0.6880E+03
  13.420  0.0000E+00  0.0000E+00  0.6880E+03
  13.430  0.0000E+00  0.0000E+00  0.6880E+03
  13.440  0.0000E+00  0.0000E+00  0.6880E+03
  13.450  0.0000E+00  0.0000E+00  0.6880E+03
  13.460  0.0000E+00  0.0000E+00  0.6880E+03
  13.470  0.0000E+00  0.0000E+00  0.6880E+03
  13.480  0.0000E+00  0.0000E+00  0.6880E+03
  13.490  0.0000E+00  0.0000E+00  0.6880E+03
  13.500  0.0000E+00  0.0000E+00  0.6880E+03
  13.510  0.0000E+00  0.0000E+00  0.6880E+03
  13.520  0.0000E+00  0.0000E+00  0.6880E+03
  13.530  0.0000E+00  0.0000E+00  0.6880E+03
  13.540  0.0000E+00  0.0000E+00  0.6880E+03
  13.550  0.0000E+00  0.0000E+00  0.6880E+03
  13.560  0.0000E+00  0.0000E+00  0.6880E+03
  13.570  0.0000E+00  0.0000E+00  0.6880E+03
  13.580  0.0000E+00  0.0000E+00  0.6880E+03
  13.590  0.0000E+00  0.0000E+00  0.6880E+03
  13.600  0.0000E+00  0.0000E+00  0.6880E+03
  13.610  0.0000E+00  0.0000E+00  0.6880E+03
  13.620  0.0000E+00  0.0000E+00  0.6880E+03
  13.630  0.0000E+00  0.0000E+00  0.6880E+03
  13.640  0.0000E+00  0.0000E+00  0.6880E+03
  13.650  0.0000E+00  0.0000E+00  0.6880E+03
  13.660  0.0000E+00  0.0000E+00  0.6880E+03
  13.670  0.0000E+00  0.0000E+00  0.6880E+03
  13.680  0.0000E+00  0.0000E+00  0.6880E+03
  13.690  0.0000E+00  0.0000E+00  0.6880E+03
  13.700  0.0000E+00  0.0000E+00  0.6880E+03
  13.710  0.0000E+00  0.0000E+00  0.6880E+03
  13.720  0.0000E+00  0.0000E+00  0.6880E+03
  13.730  0.0000E+00  0.0000E+00  0.6880E+03
  13.740  0.0000E+00  0.0000E+00  0.6880E+03
  13.750  0.0000E+00  0.0000E+00  0.6880E+03
  13.760  0.0000E+00  0.0000E+00  0.6880E+03
  13.770  0.0000E+00  0.0000E+00  0.6880E+03
  13.780  0.0000E+00  0.0000E+00  0.6880E+03
  13.790  0.0000E+00  0.0000E+00  0.6880E+03
  13.800  0.0000E+00  0.0000E+00  0.6880E+03
  13.810  0.0000E+00  0.0000E+00  0.6880E+03
  13.820  0.0000E+00  0.0000E+00  0.6880E+03
  13.830  0.0000E+00  0.0000E+00  0.6880E+03
  13.840  0.0000E+00  0.0000E+00  0.6880E+03
  13.850  0.0000E+00  0.0000E+00  0.6880E+03
  13.860  0.0000E+00  0.0000E+00  0.6880E+03
  13.870  0.0000E+00  0.0000E+00  0.6880E+03
  13.880  0.0000E+00  0.0000E+00  0.6880E+03
  13.890  0.0000E+00  0.0000E+00  0.6880E+03
  13.900  0.0000E+00  0.0000E+00  0.6880E+03
  13.910  0.0000E+00  0.0000E+00  0.6880E+03
  13.920  0.0000E+00  0.0000E+00  0.6880E+03
  13.930  0.0000E+00  0.0000E+00  0.6880E+03
  13.940  0.0000E+00  0.0000E+00  0.6880E+03
  13.950  0.0000E+00  0.0000E+00  0.6880E+03
  13.960  0.0000E+00  0.0000E+00  0.6880E+03
  13.970  0.0000E+00  0.0000E+00  0.6880E+03
  13.980  0.0000E+00  0.0000E+00  0.6880E+03
  13.990  0.0000E+00  0.0000E+00  0.6880E+03
  14.000  0.0000E+00  0.0000E+00  0.6880E+03
  14.010  0.0000E+00  0.0000E+00  0.6880E+03
  14.020  0.0000E+00  0.0000E+00  0.6880E+03
  14.030  0.0000E+00  0.0000E+00  0.6880E+03
  14.040  0.0000E+00  0.0000E+00  0.6880E+03
  14.050  0.0000E+00  0.0000E+00  0.6880E+03
  14.060  0.0000E+00  0.0000E+00  0.6880E+03
  14.070  0.0000E+00  0.0000E+00  0.6880E+03
  14.080  0.0000E+00  0.0000E+00  0.6880E+03
  14.090  0.0000E+00  0.0000E+00  0.6880E+03
  14.100  0.0000E+00  0.0000E+00  0.6880E+03
  14.110  0.0000E+00  0.0000E+00  0.6880E+03
  14.120  0.0000E+00  0.0000E+00  0.6880E+03
  14.130  0.0000E+00  0.0000E+00  0.6880E+03
  14.140  0.0000E+00  0.0000E+00  0.6880E+03
  14.150  0.0000E+00  0.0000E+00  0.6880E+03
  14.160  0.0000E+00  0.0000E+00  0.6880E+03
  14.170  0.0000E+00  0.0000E+00  0.6880E+03
  14.180  0.0000E+00  0.0000E+00  0.6880E+03
  14.190  0.0000E+00  0.0000E+00  0.6880E+03
  14.200  0.0000E+00  0.0000E+00  0.6880E+03
  14.210  0.0000E+00  0.0000E+00  0.6880E+03
  14.220  0.0000E+00  0.0000E+00  0.6880E+03
  14.230  0.0000E+00  0.0000E+00  0.6880E+03
  14.240  0.0000E+00  0.0000E+00  0.6880E+03
  14.250  0.0000E+00  0.0000E+00  0.6880E+03
  14.260  0.0000E+00  0.0000E+00  0.6880E+03
  14.270  0.0000E+00  0.0000E+00  0.6880E+03
  14.280  0.0000E+00  0.0000E+00  0.6880E+03
  14.290  0.0000E+00  0.0000E+00  0.6880E+03
  14.300  0.0000E+00  0.0000E+00  0.6880E+03
  14.310  0.0000E+00  0.0000E+00  0.6880E+03
  14.320  0.0000E+00  0.0000E+00  0.6880E+03
  14.330  0.0000E+00  0.0000E+00  0.6880E+03
  14.340  0.0000E+00  0.0000E+00  0.6880E+03
  14.350  0.0000E+00  0.0000E+00  0.6880E+03
  14.360  0.0000E+00  0.0000E+00  0.6880E+03
  14.370  0.0000E+00  0.0000E+00  0.6880E+03
  14.380  0.0000E+00  0.0000E+00  0.6880E+03
  14.390  0.0000E+00  0.0000E+00  0.6880E+03
  14.400  0.0000E+00  0.0000E+00  0.6880E+03
  14.410  0.0000E+00  0.0000E+00  0.6880E+03
  14.420  0.0000E+00  0.0000E+00  0.6880E+03
  14.430  0.0000E+00  0.0000E+00  0.6880E+03
  14.440  0.0000E+00  0.0000E+00  0.6880E+03
  14.450  0.0000E+00  0.0000E+00  0.6880E+03
  14.460  0.0000E+00  0.0000E+00  0.6880E+03
  14.470  0.0000E+00  0.0000E+00  0.6880E+03
  14.480  0.0000E+00  0.0000E+00  0.6880E+03
  14.490  0.0000E+00  0.0000E+00  0.6880E+03
  14.500  0.0000E+00  0.0000E+00  0.6880E+03
  14.510  0.0000E+00  0.0000E+00  0.6880E+03
  14.520  0.0000E+00  0.0000E+00  0.6880E+03
  14.530  0.0000E+00  0.0000E+00  0.6880E+03
  14.540  0.0000E+00  0.0000E+00  0.6880E+03
  14.550  0.0000E+00  0.0000E+00  0.6880E+03
  14.560  0.0000E+00  0.0000E+00  0.6880E+03
  14.570  0.0000E+00  0.0000E+00  0.6880E+03
  14.580  0.0000E+00  0.0000E+00  0.6880E+03
  14.590  0.0000E+00  0.0000E+00  0.6880E+03
  14.600  0.0000E+00  0.0000E+00  0.6880E+03
  14.610  0.0000E+00  0.0000E+00  0.6880E+03
  14.620  0.0000E+00  0.0000E+00  0.6880E+03
  14.630  0.0000E+00  0.0000E+00  0.6880E+03
  14.640  0.0000E+00  0.0000E+00  0.6880E+03
  14.650  0.0000E+00  0.0000E+00  0.6880E+03
  14.660  0.0000E+00  0.0000E+00  0.6880E+03
  14.670  0.0000E+00  0.0000E+00  0.6880E+03
  14.680  0.0000E+00  0.0000E+00  0.6880E+03
  14.690  0.0000E+00  0.0000E+00  0.6880E+03
  14.700  0.0000E+00  0.0000E+00  0.6880E+03
  14.710  0.0000E+00  0.0000E+00  0.6880E+03
  14.720  0.0000E+00  0.0000E+00  0.6880E+03
  14.730  0.0000E+00  0.0000E+00  0.6880E+03
  14.740  0.0000E+00  0.0000E+00  0.6880E+03
  14.750  0.0000E+00  0.0000E+00  0.6880E+03
  14.760  0.0000E+00  0.0000E+00  0.6880E+03
  14.770  0.0000E+00  0.0000E+00  0.6880E+03
  14.780  0.0000E+00  0.0000E+00  0.6880E+03
  14.790  0.0000E+00  0.0000E+00  0.6880E+03
  14.800  0.0000E+00  0.0000E+00  0.6880E+03
  14.810  0.0000E+00  0.0000E+00  0.6880E+03
  14.820  0.0000E+00  0.0000E+00  0.6880E+03
  14.830  0.0000E+00  0.0000E+00  0.6880E+03
  14.840  0.0000E+00  0.0000E+00  0.6880E+03
  14.850  0.0000E+00  0.0000E+00  0.6880E+03
  14.860  0.0000E+00  0.0000E+00  0.6880E+03
  14.870  0.0000E+00  0.0000E+00  0.6880E+03
  14.880  0.0000E+00  0.0000E+00  0.6880E+03
  14.890  0.0000E+00  0.0000E+00  0.6880E+03
  14.900  0.0000E+00  0.0000E+00  0.6880E+03
  14.910  0.0000E+00  0.0000E+00  0.6880E+03
  14.920  0.0000E+00  0.0000E+00  0.6880E+03
  14.930  0.0000E+00  0.0000E+00  0.6880E+03
  14.940  0.0000E+00  0.0000E+00  0.6880E+03
  14.950  0.0000E+00  0.0000E+00  0.6880E+03
  14.960  0.0000E+00  0.0000E+00  0.6880E+03
  14.970  0.0000E+00  0.0000E+00  0.6880E+03
  14.980  0.0000E+00  0.0000E+00  0.6880E+03
  14.990  0.0000E+00  0.0000E+00  0.6880E+03
  15.000  0.0000E+00  0.0000E+00  0.6880E+03
