#  E (eV)   dosup(E)     dosdw(E)   Int dos(E) EFermi =    5.864 eV
 -15.000  0.0000E+00  0.0000E+00  0.8000E+01
 -14.990  0.0000E+00  0.0000E+00  0.8000E+01
 -14.980  0.0000E+00  0.0000E+00  0.8000E+01
 -14.970  0.0000E+00  0.0000E+00  0.8000E+01
 -14.960  0.0000E+00  0.0000E+00  0.8000E+01
 -14.950  0.0000E+00  0.0000E+00  0.8000E+01
 -14.940  0.0000E+00  0.0000E+00  0.8000E+01
 -14.930  0.0000E+00  0.0000E+00  0.8000E+01
 -14.920  0.0000E+00  0.0000E+00  0.8000E+01
 -14.910  0.0000E+00  0.0000E+00  0.8000E+01
 -14.900  0.0000E+00  0.0000E+00  0.8000E+01
 -14.890  0.0000E+00  0.0000E+00  0.8000E+01
 -14.880  0.0000E+00  0.0000E+00  0.8000E+01
 -14.870  0.0000E+00  0.0000E+00  0.8000E+01
 -14.860  0.0000E+00  0.0000E+00  0.8000E+01
 -14.850  0.0000E+00  0.0000E+00  0.8000E+01
 -14.840  0.0000E+00  0.0000E+00  0.8000E+01
 -14.830  0.0000E+00  0.0000E+00  0.8000E+01
 -14.820  0.0000E+00  0.0000E+00  0.8000E+01
 -14.810  0.0000E+00  0.0000E+00  0.8000E+01
 -14.800  0.0000E+00  0.0000E+00  0.8000E+01
 -14.790  0.0000E+00  0.0000E+00  0.8000E+01
 -14.780  0.0000E+00  0.0000E+00  0.8000E+01
 -14.770  0.0000E+00  0.0000E+00  0.8000E+01
 -14.760  0.0000E+00  0.0000E+00  0.8000E+01
 -14.750  0.0000E+00  0.0000E+00  0.8000E+01
 -14.740  0.0000E+00  0.0000E+00  0.8000E+01
 -14.730  0.0000E+00  0.0000E+00  0.8000E+01
 -14.720  0.0000E+00  0.0000E+00  0.8000E+01
 -14.710  0.0000E+00  0.0000E+00  0.8000E+01
 -14.700  0.0000E+00  0.0000E+00  0.8000E+01
 -14.690  0.0000E+00  0.0000E+00  0.8000E+01
 -14.680  0.0000E+00  0.0000E+00  0.8000E+01
 -14.670  0.0000E+00  0.0000E+00  0.8000E+01
 -14.660  0.0000E+00  0.0000E+00  0.8000E+01
 -14.650  0.0000E+00  0.0000E+00  0.8000E+01
 -14.640  0.0000E+00  0.0000E+00  0.8000E+01
 -14.630  0.0000E+00  0.0000E+00  0.8000E+01
 -14.620  0.0000E+00  0.0000E+00  0.8000E+01
 -14.610  0.0000E+00  0.0000E+00  0.8000E+01
 -14.600  0.0000E+00  0.0000E+00  0.8000E+01
 -14.590  0.0000E+00  0.0000E+00  0.8000E+01
 -14.580  0.0000E+00  0.0000E+00  0.8000E+01
 -14.570  0.0000E+00  0.0000E+00  0.8000E+01
 -14.560  0.0000E+00  0.0000E+00  0.8000E+01
 -14.550  0.0000E+00  0.0000E+00  0.8000E+01
 -14.540  0.0000E+00  0.0000E+00  0.8000E+01
 -14.530  0.0000E+00  0.0000E+00  0.8000E+01
 -14.520  0.0000E+00  0.0000E+00  0.8000E+01
 -14.510  0.0000E+00  0.0000E+00  0.8000E+01
 -14.500  0.0000E+00  0.0000E+00  0.8000E+01
 -14.490  0.0000E+00  0.0000E+00  0.8000E+01
 -14.480  0.0000E+00  0.0000E+00  0.8000E+01
 -14.470  0.0000E+00  0.0000E+00  0.8000E+01
 -14.460  0.0000E+00  0.0000E+00  0.8000E+01
 -14.450  0.0000E+00  0.0000E+00  0.8000E+01
 -14.440  0.0000E+00  0.0000E+00  0.8000E+01
 -14.430  0.0000E+00  0.0000E+00  0.8000E+01
 -14.420  0.0000E+00  0.0000E+00  0.8000E+01
 -14.410  0.0000E+00  0.0000E+00  0.8000E+01
 -14.400  0.0000E+00  0.0000E+00  0.8000E+01
 -14.390  0.0000E+00  0.0000E+00  0.8000E+01
 -14.380  0.0000E+00  0.0000E+00  0.8000E+01
 -14.370  0.0000E+00  0.0000E+00  0.8000E+01
 -14.360  0.0000E+00  0.0000E+00  0.8000E+01
 -14.350  0.0000E+00  0.0000E+00  0.8000E+01
 -14.340  0.0000E+00  0.0000E+00  0.8000E+01
 -14.330  0.0000E+00  0.0000E+00  0.8000E+01
 -14.320  0.0000E+00  0.0000E+00  0.8000E+01
 -14.310  0.0000E+00  0.0000E+00  0.8000E+01
 -14.300  0.0000E+00  0.0000E+00  0.8000E+01
 -14.290  0.0000E+00  0.0000E+00  0.8000E+01
 -14.280  0.0000E+00  0.0000E+00  0.8000E+01
 -14.270  0.0000E+00  0.0000E+00  0.8000E+01
 -14.260  0.0000E+00  0.0000E+00  0.8000E+01
 -14.250  0.0000E+00  0.0000E+00  0.8000E+01
 -14.240  0.0000E+00  0.0000E+00  0.8000E+01
 -14.230  0.0000E+00  0.0000E+00  0.8000E+01
 -14.220  0.0000E+00  0.0000E+00  0.8000E+01
 -14.210  0.0000E+00  0.0000E+00  0.8000E+01
 -14.200  0.0000E+00  0.0000E+00  0.8000E+01
 -14.190  0.0000E+00  0.0000E+00  0.8000E+01
 -14.180  0.0000E+00  0.0000E+00  0.8000E+01
 -14.170  0.0000E+00  0.0000E+00  0.8000E+01
 -14.160  0.0000E+00  0.0000E+00  0.8000E+01
 -14.150  0.0000E+00  0.0000E+00  0.8000E+01
 -14.140  0.0000E+00  0.0000E+00  0.8000E+01
 -14.130  0.0000E+00  0.0000E+00  0.8000E+01
 -14.120  0.0000E+00  0.0000E+00  0.8000E+01
 -14.110  0.0000E+00  0.0000E+00  0.8000E+01
 -14.100  0.0000E+00  0.0000E+00  0.8000E+01
 -14.090  0.0000E+00  0.0000E+00  0.8000E+01
 -14.080  0.0000E+00  0.0000E+00  0.8000E+01
 -14.070  0.0000E+00  0.0000E+00  0.8000E+01
 -14.060  0.0000E+00  0.0000E+00  0.8000E+01
 -14.050  0.0000E+00  0.0000E+00  0.8000E+01
 -14.040  0.0000E+00  0.0000E+00  0.8000E+01
 -14.030  0.0000E+00  0.0000E+00  0.8000E+01
 -14.020  0.0000E+00  0.0000E+00  0.8000E+01
 -14.010  0.0000E+00  0.0000E+00  0.8000E+01
 -14.000  0.0000E+00  0.0000E+00  0.8000E+01
 -13.990  0.0000E+00  0.0000E+00  0.8000E+01
 -13.980  0.0000E+00  0.0000E+00  0.8000E+01
 -13.970  0.0000E+00  0.0000E+00  0.8000E+01
 -13.960  0.0000E+00  0.0000E+00  0.8000E+01
 -13.950  0.0000E+00  0.0000E+00  0.8000E+01
 -13.940  0.0000E+00  0.0000E+00  0.8000E+01
 -13.930  0.0000E+00  0.0000E+00  0.8000E+01
 -13.920  0.0000E+00  0.0000E+00  0.8000E+01
 -13.910  0.0000E+00  0.0000E+00  0.8000E+01
 -13.900  0.0000E+00  0.0000E+00  0.8000E+01
 -13.890  0.0000E+00  0.0000E+00  0.8000E+01
 -13.880  0.0000E+00  0.0000E+00  0.8000E+01
 -13.870  0.0000E+00  0.0000E+00  0.8000E+01
 -13.860  0.0000E+00  0.0000E+00  0.8000E+01
 -13.850  0.0000E+00  0.0000E+00  0.8000E+01
 -13.840  0.0000E+00  0.0000E+00  0.8000E+01
 -13.830  0.0000E+00  0.0000E+00  0.8000E+01
 -13.820  0.0000E+00  0.0000E+00  0.8000E+01
 -13.810  0.0000E+00  0.0000E+00  0.8000E+01
 -13.800  0.0000E+00  0.0000E+00  0.8000E+01
 -13.790  0.0000E+00  0.0000E+00  0.8000E+01
 -13.780  0.0000E+00  0.0000E+00  0.8000E+01
 -13.770  0.0000E+00  0.0000E+00  0.8000E+01
 -13.760  0.0000E+00  0.0000E+00  0.8000E+01
 -13.750  0.0000E+00  0.0000E+00  0.8000E+01
 -13.740  0.0000E+00  0.0000E+00  0.8000E+01
 -13.730  0.0000E+00  0.0000E+00  0.8000E+01
 -13.720  0.0000E+00  0.0000E+00  0.8000E+01
 -13.710  0.0000E+00  0.0000E+00  0.8000E+01
 -13.700  0.0000E+00  0.0000E+00  0.8000E+01
 -13.690  0.0000E+00  0.0000E+00  0.8000E+01
 -13.680  0.0000E+00  0.0000E+00  0.8000E+01
 -13.670  0.0000E+00  0.0000E+00  0.8000E+01
 -13.660  0.0000E+00  0.0000E+00  0.8000E+01
 -13.650  0.0000E+00  0.0000E+00  0.8000E+01
 -13.640  0.0000E+00  0.0000E+00  0.8000E+01
 -13.630  0.0000E+00  0.0000E+00  0.8000E+01
 -13.620  0.0000E+00  0.0000E+00  0.8000E+01
 -13.610  0.0000E+00  0.0000E+00  0.8000E+01
 -13.600  0.0000E+00  0.0000E+00  0.8000E+01
 -13.590  0.0000E+00  0.0000E+00  0.8000E+01
 -13.580  0.0000E+00  0.0000E+00  0.8000E+01
 -13.570  0.0000E+00  0.0000E+00  0.8000E+01
 -13.560  0.0000E+00  0.0000E+00  0.8000E+01
 -13.550  0.0000E+00  0.0000E+00  0.8000E+01
 -13.540  0.0000E+00  0.0000E+00  0.8000E+01
 -13.530  0.0000E+00  0.0000E+00  0.8000E+01
 -13.520  0.0000E+00  0.0000E+00  0.8000E+01
 -13.510  0.0000E+00  0.0000E+00  0.8000E+01
 -13.500  0.0000E+00  0.0000E+00  0.8000E+01
 -13.490  0.0000E+00  0.0000E+00  0.8000E+01
 -13.480  0.0000E+00  0.0000E+00  0.8000E+01
 -13.470  0.0000E+00  0.0000E+00  0.8000E+01
 -13.460  0.0000E+00  0.0000E+00  0.8000E+01
 -13.450  0.0000E+00  0.0000E+00  0.8000E+01
 -13.440  0.0000E+00  0.0000E+00  0.8000E+01
 -13.430  0.0000E+00  0.0000E+00  0.8000E+01
 -13.420  0.0000E+00  0.0000E+00  0.8000E+01
 -13.410  0.0000E+00  0.0000E+00  0.8000E+01
 -13.400  0.0000E+00  0.0000E+00  0.8000E+01
 -13.390  0.0000E+00  0.0000E+00  0.8000E+01
 -13.380  0.0000E+00  0.0000E+00  0.8000E+01
 -13.370  0.0000E+00  0.0000E+00  0.8000E+01
 -13.360  0.0000E+00  0.0000E+00  0.8000E+01
 -13.350  0.0000E+00  0.0000E+00  0.8000E+01
 -13.340  0.0000E+00  0.0000E+00  0.8000E+01
 -13.330  0.0000E+00  0.0000E+00  0.8000E+01
 -13.320  0.0000E+00  0.0000E+00  0.8000E+01
 -13.310  0.0000E+00  0.0000E+00  0.8000E+01
 -13.300  0.0000E+00  0.0000E+00  0.8000E+01
 -13.290  0.0000E+00  0.0000E+00  0.8000E+01
 -13.280  0.0000E+00  0.0000E+00  0.8000E+01
 -13.270  0.0000E+00  0.0000E+00  0.8000E+01
 -13.260  0.0000E+00  0.0000E+00  0.8000E+01
 -13.250  0.0000E+00  0.0000E+00  0.8000E+01
 -13.240  0.0000E+00  0.0000E+00  0.8000E+01
 -13.230  0.0000E+00  0.0000E+00  0.8000E+01
 -13.220  0.0000E+00  0.0000E+00  0.8000E+01
 -13.210  0.0000E+00  0.0000E+00  0.8000E+01
 -13.200  0.0000E+00  0.0000E+00  0.8000E+01
 -13.190  0.0000E+00  0.0000E+00  0.8000E+01
 -13.180  0.0000E+00  0.0000E+00  0.8000E+01
 -13.170  0.0000E+00  0.0000E+00  0.8000E+01
 -13.160  0.0000E+00  0.0000E+00  0.8000E+01
 -13.150  0.0000E+00  0.0000E+00  0.8000E+01
 -13.140  0.0000E+00  0.0000E+00  0.8000E+01
 -13.130  0.0000E+00  0.0000E+00  0.8000E+01
 -13.120  0.0000E+00  0.0000E+00  0.8000E+01
 -13.110  0.0000E+00  0.0000E+00  0.8000E+01
 -13.100  0.0000E+00  0.0000E+00  0.8000E+01
 -13.090  0.0000E+00  0.0000E+00  0.8000E+01
 -13.080  0.0000E+00  0.0000E+00  0.8000E+01
 -13.070  0.0000E+00  0.0000E+00  0.8000E+01
 -13.060  0.0000E+00  0.0000E+00  0.8000E+01
 -13.050  0.0000E+00  0.0000E+00  0.8000E+01
 -13.040  0.0000E+00  0.0000E+00  0.8000E+01
 -13.030  0.0000E+00  0.0000E+00  0.8000E+01
 -13.020  0.0000E+00  0.0000E+00  0.8000E+01
 -13.010  0.0000E+00  0.0000E+00  0.8000E+01
 -13.000  0.0000E+00  0.0000E+00  0.8000E+01
 -12.990  0.0000E+00  0.0000E+00  0.8000E+01
 -12.980  0.0000E+00  0.0000E+00  0.8000E+01
 -12.970  0.0000E+00  0.0000E+00  0.8000E+01
 -12.960  0.0000E+00  0.0000E+00  0.8000E+01
 -12.950  0.0000E+00  0.0000E+00  0.8000E+01
 -12.940  0.0000E+00  0.0000E+00  0.8000E+01
 -12.930  0.0000E+00  0.0000E+00  0.8000E+01
 -12.920  0.0000E+00  0.0000E+00  0.8000E+01
 -12.910  0.0000E+00  0.0000E+00  0.8000E+01
 -12.900  0.0000E+00  0.0000E+00  0.8000E+01
 -12.890  0.0000E+00  0.0000E+00  0.8000E+01
 -12.880  0.0000E+00  0.0000E+00  0.8000E+01
 -12.870  0.0000E+00  0.0000E+00  0.8000E+01
 -12.860  0.0000E+00  0.0000E+00  0.8000E+01
 -12.850  0.0000E+00  0.0000E+00  0.8000E+01
 -12.840  0.0000E+00  0.0000E+00  0.8000E+01
 -12.830  0.0000E+00  0.0000E+00  0.8000E+01
 -12.820  0.0000E+00  0.0000E+00  0.8000E+01
 -12.810  0.0000E+00  0.0000E+00  0.8000E+01
 -12.800  0.0000E+00  0.0000E+00  0.8000E+01
 -12.790  0.0000E+00  0.0000E+00  0.8000E+01
 -12.780  0.0000E+00  0.0000E+00  0.8000E+01
 -12.770  0.0000E+00  0.0000E+00  0.8000E+01
 -12.760  0.0000E+00  0.0000E+00  0.8000E+01
 -12.750  0.0000E+00  0.0000E+00  0.8000E+01
 -12.740  0.0000E+00  0.0000E+00  0.8000E+01
 -12.730  0.0000E+00  0.0000E+00  0.8000E+01
 -12.720  0.0000E+00  0.0000E+00  0.8000E+01
 -12.710  0.0000E+00  0.0000E+00  0.8000E+01
 -12.700  0.0000E+00  0.0000E+00  0.8000E+01
 -12.690  0.0000E+00  0.0000E+00  0.8000E+01
 -12.680  0.0000E+00  0.0000E+00  0.8000E+01
 -12.670  0.0000E+00  0.0000E+00  0.8000E+01
 -12.660  0.0000E+00  0.0000E+00  0.8000E+01
 -12.650  0.0000E+00  0.0000E+00  0.8000E+01
 -12.640  0.0000E+00  0.0000E+00  0.8000E+01
 -12.630  0.0000E+00  0.0000E+00  0.8000E+01
 -12.620  0.0000E+00  0.0000E+00  0.8000E+01
 -12.610  0.0000E+00  0.0000E+00  0.8000E+01
 -12.600  0.0000E+00  0.0000E+00  0.8000E+01
 -12.590  0.0000E+00  0.0000E+00  0.8000E+01
 -12.580  0.0000E+00  0.0000E+00  0.8000E+01
 -12.570  0.0000E+00  0.0000E+00  0.8000E+01
 -12.560  0.0000E+00  0.0000E+00  0.8000E+01
 -12.550  0.0000E+00  0.0000E+00  0.8000E+01
 -12.540  0.0000E+00  0.0000E+00  0.8000E+01
 -12.530  0.0000E+00  0.0000E+00  0.8000E+01
 -12.520  0.0000E+00  0.0000E+00  0.8000E+01
 -12.510  0.0000E+00  0.0000E+00  0.8000E+01
 -12.500  0.0000E+00  0.0000E+00  0.8000E+01
 -12.490  0.0000E+00  0.0000E+00  0.8000E+01
 -12.480  0.0000E+00  0.0000E+00  0.8000E+01
 -12.470  0.0000E+00  0.0000E+00  0.8000E+01
 -12.460  0.0000E+00  0.0000E+00  0.8000E+01
 -12.450  0.0000E+00  0.0000E+00  0.8000E+01
 -12.440  0.0000E+00  0.0000E+00  0.8000E+01
 -12.430  0.0000E+00  0.0000E+00  0.8000E+01
 -12.420  0.0000E+00  0.0000E+00  0.8000E+01
 -12.410  0.0000E+00  0.0000E+00  0.8000E+01
 -12.400  0.0000E+00  0.0000E+00  0.8000E+01
 -12.390  0.0000E+00  0.0000E+00  0.8000E+01
 -12.380  0.0000E+00  0.0000E+00  0.8000E+01
 -12.370  0.0000E+00  0.0000E+00  0.8000E+01
 -12.360  0.0000E+00  0.0000E+00  0.8000E+01
 -12.350  0.0000E+00  0.0000E+00  0.8000E+01
 -12.340  0.0000E+00  0.0000E+00  0.8000E+01
 -12.330  0.0000E+00  0.0000E+00  0.8000E+01
 -12.320  0.0000E+00  0.0000E+00  0.8000E+01
 -12.310  0.0000E+00  0.0000E+00  0.8000E+01
 -12.300  0.0000E+00  0.0000E+00  0.8000E+01
 -12.290  0.0000E+00  0.0000E+00  0.8000E+01
 -12.280  0.0000E+00  0.0000E+00  0.8000E+01
 -12.270  0.0000E+00  0.0000E+00  0.8000E+01
 -12.260  0.0000E+00  0.0000E+00  0.8000E+01
 -12.250  0.0000E+00  0.0000E+00  0.8000E+01
 -12.240  0.0000E+00  0.0000E+00  0.8000E+01
 -12.230  0.0000E+00  0.0000E+00  0.8000E+01
 -12.220  0.0000E+00  0.0000E+00  0.8000E+01
 -12.210  0.0000E+00  0.0000E+00  0.8000E+01
 -12.200  0.0000E+00  0.0000E+00  0.8000E+01
 -12.190  0.0000E+00  0.0000E+00  0.8000E+01
 -12.180  0.0000E+00  0.0000E+00  0.8000E+01
 -12.170  0.0000E+00  0.0000E+00  0.8000E+01
 -12.160  0.0000E+00  0.0000E+00  0.8000E+01
 -12.150  0.0000E+00  0.0000E+00  0.8000E+01
 -12.140  0.0000E+00  0.0000E+00  0.8000E+01
 -12.130  0.0000E+00  0.0000E+00  0.8000E+01
 -12.120  0.0000E+00  0.0000E+00  0.8000E+01
 -12.110  0.0000E+00  0.0000E+00  0.8000E+01
 -12.100  0.0000E+00  0.0000E+00  0.8000E+01
 -12.090  0.0000E+00  0.0000E+00  0.8000E+01
 -12.080  0.0000E+00  0.0000E+00  0.8000E+01
 -12.070  0.0000E+00  0.0000E+00  0.8000E+01
 -12.060  0.0000E+00  0.0000E+00  0.8000E+01
 -12.050  0.0000E+00  0.0000E+00  0.8000E+01
 -12.040  0.0000E+00  0.0000E+00  0.8000E+01
 -12.030  0.0000E+00  0.0000E+00  0.8000E+01
 -12.020  0.0000E+00  0.0000E+00  0.8000E+01
 -12.010  0.0000E+00  0.0000E+00  0.8000E+01
 -12.000  0.0000E+00  0.0000E+00  0.8000E+01
 -11.990  0.0000E+00  0.0000E+00  0.8000E+01
 -11.980  0.0000E+00  0.0000E+00  0.8000E+01
 -11.970  0.0000E+00  0.0000E+00  0.8000E+01
 -11.960  0.0000E+00  0.0000E+00  0.8000E+01
 -11.950  0.0000E+00  0.0000E+00  0.8000E+01
 -11.940  0.0000E+00  0.0000E+00  0.8000E+01
 -11.930  0.0000E+00  0.0000E+00  0.8000E+01
 -11.920  0.0000E+00  0.0000E+00  0.8000E+01
 -11.910  0.0000E+00  0.0000E+00  0.8000E+01
 -11.900  0.0000E+00  0.0000E+00  0.8000E+01
 -11.890  0.0000E+00  0.0000E+00  0.8000E+01
 -11.880  0.0000E+00  0.0000E+00  0.8000E+01
 -11.870  0.0000E+00  0.0000E+00  0.8000E+01
 -11.860  0.0000E+00  0.0000E+00  0.8000E+01
 -11.850  0.0000E+00  0.0000E+00  0.8000E+01
 -11.840  0.0000E+00  0.0000E+00  0.8000E+01
 -11.830  0.0000E+00  0.0000E+00  0.8000E+01
 -11.820  0.0000E+00  0.0000E+00  0.8000E+01
 -11.810  0.0000E+00  0.0000E+00  0.8000E+01
 -11.800  0.0000E+00  0.0000E+00  0.8000E+01
 -11.790  0.0000E+00  0.0000E+00  0.8000E+01
 -11.780  0.0000E+00  0.0000E+00  0.8000E+01
 -11.770  0.0000E+00  0.0000E+00  0.8000E+01
 -11.760  0.0000E+00  0.0000E+00  0.8000E+01
 -11.750  0.0000E+00  0.0000E+00  0.8000E+01
 -11.740  0.0000E+00  0.0000E+00  0.8000E+01
 -11.730  0.0000E+00  0.0000E+00  0.8000E+01
 -11.720  0.0000E+00  0.0000E+00  0.8000E+01
 -11.710  0.0000E+00  0.0000E+00  0.8000E+01
 -11.700  0.0000E+00  0.0000E+00  0.8000E+01
 -11.690  0.0000E+00  0.0000E+00  0.8000E+01
 -11.680  0.0000E+00  0.0000E+00  0.8000E+01
 -11.670  0.0000E+00  0.0000E+00  0.8000E+01
 -11.660  0.0000E+00  0.0000E+00  0.8000E+01
 -11.650  0.0000E+00  0.0000E+00  0.8000E+01
 -11.640  0.0000E+00  0.0000E+00  0.8000E+01
 -11.630  0.0000E+00  0.0000E+00  0.8000E+01
 -11.620  0.0000E+00  0.0000E+00  0.8000E+01
 -11.610  0.0000E+00  0.0000E+00  0.8000E+01
 -11.600  0.0000E+00  0.0000E+00  0.8000E+01
 -11.590  0.0000E+00  0.0000E+00  0.8000E+01
 -11.580  0.0000E+00  0.0000E+00  0.8000E+01
 -11.570  0.0000E+00  0.0000E+00  0.8000E+01
 -11.560  0.0000E+00  0.0000E+00  0.8000E+01
 -11.550  0.0000E+00  0.0000E+00  0.8000E+01
 -11.540  0.0000E+00  0.0000E+00  0.8000E+01
 -11.530  0.0000E+00  0.0000E+00  0.8000E+01
 -11.520  0.0000E+00  0.0000E+00  0.8000E+01
 -11.510  0.0000E+00  0.0000E+00  0.8000E+01
 -11.500  0.0000E+00  0.0000E+00  0.8000E+01
 -11.490  0.0000E+00  0.0000E+00  0.8000E+01
 -11.480  0.0000E+00  0.0000E+00  0.8000E+01
 -11.470  0.0000E+00  0.0000E+00  0.8000E+01
 -11.460  0.0000E+00  0.0000E+00  0.8000E+01
 -11.450  0.0000E+00  0.0000E+00  0.8000E+01
 -11.440  0.0000E+00  0.0000E+00  0.8000E+01
 -11.430  0.0000E+00  0.0000E+00  0.8000E+01
 -11.420  0.0000E+00  0.0000E+00  0.8000E+01
 -11.410  0.0000E+00  0.0000E+00  0.8000E+01
 -11.400  0.0000E+00  0.0000E+00  0.8000E+01
 -11.390  0.0000E+00  0.0000E+00  0.8000E+01
 -11.380  0.0000E+00  0.0000E+00  0.8000E+01
 -11.370  0.0000E+00  0.0000E+00  0.8000E+01
 -11.360  0.0000E+00  0.0000E+00  0.8000E+01
 -11.350  0.0000E+00  0.0000E+00  0.8000E+01
 -11.340  0.0000E+00  0.0000E+00  0.8000E+01
 -11.330  0.0000E+00  0.0000E+00  0.8000E+01
 -11.320  0.0000E+00  0.0000E+00  0.8000E+01
 -11.310  0.0000E+00  0.0000E+00  0.8000E+01
 -11.300  0.0000E+00  0.0000E+00  0.8000E+01
 -11.290  0.0000E+00  0.0000E+00  0.8000E+01
 -11.280  0.0000E+00  0.0000E+00  0.8000E+01
 -11.270  0.0000E+00  0.0000E+00  0.8000E+01
 -11.260  0.0000E+00  0.0000E+00  0.8000E+01
 -11.250  0.0000E+00  0.0000E+00  0.8000E+01
 -11.240  0.0000E+00  0.0000E+00  0.8000E+01
 -11.230  0.0000E+00  0.0000E+00  0.8000E+01
 -11.220  0.0000E+00  0.0000E+00  0.8000E+01
 -11.210  0.0000E+00  0.0000E+00  0.8000E+01
 -11.200  0.0000E+00  0.0000E+00  0.8000E+01
 -11.190  0.0000E+00  0.0000E+00  0.8000E+01
 -11.180  0.0000E+00  0.0000E+00  0.8000E+01
 -11.170  0.0000E+00  0.0000E+00  0.8000E+01
 -11.160  0.0000E+00  0.0000E+00  0.8000E+01
 -11.150  0.0000E+00  0.0000E+00  0.8000E+01
 -11.140  0.0000E+00  0.0000E+00  0.8000E+01
 -11.130  0.0000E+00  0.0000E+00  0.8000E+01
 -11.120  0.0000E+00  0.0000E+00  0.8000E+01
 -11.110  0.0000E+00  0.0000E+00  0.8000E+01
 -11.100  0.0000E+00  0.0000E+00  0.8000E+01
 -11.090  0.0000E+00  0.0000E+00  0.8000E+01
 -11.080  0.0000E+00  0.0000E+00  0.8000E+01
 -11.070  0.0000E+00  0.0000E+00  0.8000E+01
 -11.060  0.0000E+00  0.0000E+00  0.8000E+01
 -11.050  0.0000E+00  0.0000E+00  0.8000E+01
 -11.040  0.0000E+00  0.0000E+00  0.8000E+01
 -11.030  0.0000E+00  0.0000E+00  0.8000E+01
 -11.020  0.0000E+00  0.0000E+00  0.8000E+01
 -11.010  0.0000E+00  0.0000E+00  0.8000E+01
 -11.000  0.0000E+00  0.0000E+00  0.8000E+01
 -10.990  0.0000E+00  0.0000E+00  0.8000E+01
 -10.980  0.0000E+00  0.0000E+00  0.8000E+01
 -10.970  0.0000E+00  0.0000E+00  0.8000E+01
 -10.960  0.0000E+00  0.0000E+00  0.8000E+01
 -10.950  0.0000E+00  0.0000E+00  0.8000E+01
 -10.940  0.0000E+00  0.0000E+00  0.8000E+01
 -10.930  0.0000E+00  0.0000E+00  0.8000E+01
 -10.920  0.0000E+00  0.0000E+00  0.8000E+01
 -10.910  0.0000E+00  0.0000E+00  0.8000E+01
 -10.900  0.0000E+00  0.0000E+00  0.8000E+01
 -10.890  0.0000E+00  0.0000E+00  0.8000E+01
 -10.880  0.0000E+00  0.0000E+00  0.8000E+01
 -10.870  0.0000E+00  0.0000E+00  0.8000E+01
 -10.860  0.0000E+00  0.0000E+00  0.8000E+01
 -10.850  0.0000E+00  0.0000E+00  0.8000E+01
 -10.840  0.0000E+00  0.0000E+00  0.8000E+01
 -10.830  0.0000E+00  0.0000E+00  0.8000E+01
 -10.820  0.0000E+00  0.0000E+00  0.8000E+01
 -10.810  0.0000E+00  0.0000E+00  0.8000E+01
 -10.800  0.0000E+00  0.0000E+00  0.8000E+01
 -10.790  0.0000E+00  0.0000E+00  0.8000E+01
 -10.780  0.0000E+00  0.0000E+00  0.8000E+01
 -10.770  0.0000E+00  0.0000E+00  0.8000E+01
 -10.760  0.0000E+00  0.0000E+00  0.8000E+01
 -10.750  0.0000E+00  0.0000E+00  0.8000E+01
 -10.740  0.0000E+00  0.0000E+00  0.8000E+01
 -10.730  0.0000E+00  0.0000E+00  0.8000E+01
 -10.720  0.0000E+00  0.0000E+00  0.8000E+01
 -10.710  0.0000E+00  0.0000E+00  0.8000E+01
 -10.700  0.0000E+00  0.0000E+00  0.8000E+01
 -10.690  0.0000E+00  0.0000E+00  0.8000E+01
 -10.680  0.0000E+00  0.0000E+00  0.8000E+01
 -10.670  0.0000E+00  0.0000E+00  0.8000E+01
 -10.660  0.0000E+00  0.0000E+00  0.8000E+01
 -10.650  0.0000E+00  0.0000E+00  0.8000E+01
 -10.640  0.0000E+00  0.0000E+00  0.8000E+01
 -10.630  0.0000E+00  0.0000E+00  0.8000E+01
 -10.620  0.0000E+00  0.0000E+00  0.8000E+01
 -10.610  0.0000E+00  0.0000E+00  0.8000E+01
 -10.600  0.0000E+00  0.0000E+00  0.8000E+01
 -10.590  0.0000E+00  0.0000E+00  0.8000E+01
 -10.580  0.0000E+00  0.0000E+00  0.8000E+01
 -10.570  0.0000E+00  0.0000E+00  0.8000E+01
 -10.560  0.0000E+00  0.0000E+00  0.8000E+01
 -10.550  0.0000E+00  0.0000E+00  0.8000E+01
 -10.540  0.0000E+00  0.0000E+00  0.8000E+01
 -10.530  0.0000E+00  0.0000E+00  0.8000E+01
 -10.520  0.0000E+00  0.0000E+00  0.8000E+01
 -10.510  0.0000E+00  0.0000E+00  0.8000E+01
 -10.500  0.0000E+00  0.0000E+00  0.8000E+01
 -10.490  0.0000E+00  0.0000E+00  0.8000E+01
 -10.480  0.0000E+00  0.0000E+00  0.8000E+01
 -10.470  0.0000E+00  0.0000E+00  0.8000E+01
 -10.460  0.0000E+00  0.0000E+00  0.8000E+01
 -10.450  0.0000E+00  0.0000E+00  0.8000E+01
 -10.440  0.0000E+00  0.0000E+00  0.8000E+01
 -10.430  0.0000E+00  0.0000E+00  0.8000E+01
 -10.420  0.0000E+00  0.0000E+00  0.8000E+01
 -10.410  0.0000E+00  0.0000E+00  0.8000E+01
 -10.400  0.0000E+00  0.0000E+00  0.8000E+01
 -10.390  0.0000E+00  0.0000E+00  0.8000E+01
 -10.380  0.0000E+00  0.0000E+00  0.8000E+01
 -10.370  0.0000E+00  0.0000E+00  0.8000E+01
 -10.360  0.0000E+00  0.0000E+00  0.8000E+01
 -10.350  0.0000E+00  0.0000E+00  0.8000E+01
 -10.340  0.0000E+00  0.0000E+00  0.8000E+01
 -10.330  0.0000E+00  0.0000E+00  0.8000E+01
 -10.320  0.0000E+00  0.0000E+00  0.8000E+01
 -10.310  0.0000E+00  0.0000E+00  0.8000E+01
 -10.300  0.0000E+00  0.0000E+00  0.8000E+01
 -10.290  0.0000E+00  0.0000E+00  0.8000E+01
 -10.280  0.0000E+00  0.0000E+00  0.8000E+01
 -10.270  0.0000E+00  0.0000E+00  0.8000E+01
 -10.260  0.0000E+00  0.0000E+00  0.8000E+01
 -10.250  0.0000E+00  0.0000E+00  0.8000E+01
 -10.240  0.0000E+00  0.0000E+00  0.8000E+01
 -10.230  0.0000E+00  0.0000E+00  0.8000E+01
 -10.220  0.0000E+00  0.0000E+00  0.8000E+01
 -10.210  0.0000E+00  0.0000E+00  0.8000E+01
 -10.200  0.0000E+00  0.0000E+00  0.8000E+01
 -10.190  0.0000E+00  0.0000E+00  0.8000E+01
 -10.180  0.0000E+00  0.0000E+00  0.8000E+01
 -10.170  0.0000E+00  0.0000E+00  0.8000E+01
 -10.160  0.0000E+00  0.0000E+00  0.8000E+01
 -10.150  0.0000E+00  0.0000E+00  0.8000E+01
 -10.140  0.0000E+00  0.0000E+00  0.8000E+01
 -10.130  0.0000E+00  0.0000E+00  0.8000E+01
 -10.120  0.0000E+00  0.0000E+00  0.8000E+01
 -10.110  0.0000E+00  0.0000E+00  0.8000E+01
 -10.100  0.0000E+00  0.0000E+00  0.8000E+01
 -10.090  0.0000E+00  0.0000E+00  0.8000E+01
 -10.080  0.0000E+00  0.0000E+00  0.8000E+01
 -10.070  0.0000E+00  0.0000E+00  0.8000E+01
 -10.060  0.0000E+00  0.0000E+00  0.8000E+01
 -10.050  0.0000E+00  0.0000E+00  0.8000E+01
 -10.040  0.0000E+00  0.0000E+00  0.8000E+01
 -10.030  0.0000E+00  0.0000E+00  0.8000E+01
 -10.020  0.0000E+00  0.0000E+00  0.8000E+01
 -10.010  0.0000E+00  0.0000E+00  0.8000E+01
 -10.000  0.0000E+00  0.0000E+00  0.8000E+01
  -9.990  0.0000E+00  0.0000E+00  0.8000E+01
  -9.980  0.0000E+00  0.0000E+00  0.8000E+01
  -9.970  0.0000E+00  0.0000E+00  0.8000E+01
  -9.960  0.0000E+00  0.0000E+00  0.8000E+01
  -9.950  0.0000E+00  0.0000E+00  0.8000E+01
  -9.940  0.0000E+00  0.0000E+00  0.8000E+01
  -9.930  0.0000E+00  0.0000E+00  0.8000E+01
  -9.920  0.0000E+00  0.0000E+00  0.8000E+01
  -9.910  0.0000E+00  0.0000E+00  0.8000E+01
  -9.900  0.0000E+00  0.0000E+00  0.8000E+01
  -9.890  0.0000E+00  0.0000E+00  0.8000E+01
  -9.880  0.0000E+00  0.0000E+00  0.8000E+01
  -9.870  0.0000E+00  0.0000E+00  0.8000E+01
  -9.860  0.0000E+00  0.0000E+00  0.8000E+01
  -9.850  0.0000E+00  0.0000E+00  0.8000E+01
  -9.840  0.0000E+00  0.0000E+00  0.8000E+01
  -9.830  0.0000E+00  0.0000E+00  0.8000E+01
  -9.820  0.0000E+00  0.0000E+00  0.8000E+01
  -9.810  0.0000E+00  0.0000E+00  0.8000E+01
  -9.800  0.0000E+00  0.0000E+00  0.8000E+01
  -9.790  0.0000E+00  0.0000E+00  0.8000E+01
  -9.780  0.0000E+00  0.0000E+00  0.8000E+01
  -9.770  0.0000E+00  0.0000E+00  0.8000E+01
  -9.760  0.0000E+00  0.0000E+00  0.8000E+01
  -9.750  0.0000E+00  0.0000E+00  0.8000E+01
  -9.740  0.0000E+00  0.0000E+00  0.8000E+01
  -9.730  0.0000E+00  0.0000E+00  0.8000E+01
  -9.720  0.0000E+00  0.0000E+00  0.8000E+01
  -9.710  0.0000E+00  0.0000E+00  0.8000E+01
  -9.700  0.0000E+00  0.0000E+00  0.8000E+01
  -9.690  0.0000E+00  0.0000E+00  0.8000E+01
  -9.680  0.0000E+00  0.0000E+00  0.8000E+01
  -9.670  0.0000E+00  0.0000E+00  0.8000E+01
  -9.660  0.0000E+00  0.0000E+00  0.8000E+01
  -9.650  0.0000E+00  0.0000E+00  0.8000E+01
  -9.640  0.0000E+00  0.0000E+00  0.8000E+01
  -9.630  0.0000E+00  0.0000E+00  0.8000E+01
  -9.620  0.0000E+00  0.0000E+00  0.8000E+01
  -9.610  0.0000E+00  0.0000E+00  0.8000E+01
  -9.600  0.0000E+00  0.0000E+00  0.8000E+01
  -9.590  0.0000E+00  0.0000E+00  0.8000E+01
  -9.580  0.0000E+00  0.0000E+00  0.8000E+01
  -9.570  0.0000E+00  0.0000E+00  0.8000E+01
  -9.560  0.0000E+00  0.0000E+00  0.8000E+01
  -9.550  0.0000E+00  0.0000E+00  0.8000E+01
  -9.540  0.0000E+00  0.0000E+00  0.8000E+01
  -9.530  0.0000E+00  0.0000E+00  0.8000E+01
  -9.520  0.0000E+00  0.0000E+00  0.8000E+01
  -9.510  0.0000E+00  0.0000E+00  0.8000E+01
  -9.500  0.0000E+00  0.0000E+00  0.8000E+01
  -9.490  0.0000E+00  0.0000E+00  0.8000E+01
  -9.480  0.0000E+00  0.0000E+00  0.8000E+01
  -9.470  0.0000E+00  0.0000E+00  0.8000E+01
  -9.460  0.0000E+00  0.0000E+00  0.8000E+01
  -9.450  0.0000E+00  0.0000E+00  0.8000E+01
  -9.440  0.0000E+00  0.0000E+00  0.8000E+01
  -9.430  0.0000E+00  0.0000E+00  0.8000E+01
  -9.420  0.0000E+00  0.0000E+00  0.8000E+01
  -9.410  0.0000E+00  0.0000E+00  0.8000E+01
  -9.400  0.0000E+00  0.0000E+00  0.8000E+01
  -9.390  0.0000E+00  0.0000E+00  0.8000E+01
  -9.380  0.0000E+00  0.0000E+00  0.8000E+01
  -9.370  0.0000E+00  0.0000E+00  0.8000E+01
  -9.360  0.0000E+00  0.0000E+00  0.8000E+01
  -9.350  0.0000E+00  0.0000E+00  0.8000E+01
  -9.340  0.0000E+00  0.0000E+00  0.8000E+01
  -9.330  0.0000E+00  0.0000E+00  0.8000E+01
  -9.320  0.0000E+00  0.0000E+00  0.8000E+01
  -9.310  0.0000E+00  0.0000E+00  0.8000E+01
  -9.300  0.0000E+00  0.0000E+00  0.8000E+01
  -9.290  0.0000E+00  0.0000E+00  0.8000E+01
  -9.280  0.0000E+00  0.0000E+00  0.8000E+01
  -9.270  0.0000E+00  0.0000E+00  0.8000E+01
  -9.260  0.0000E+00  0.0000E+00  0.8000E+01
  -9.250  0.0000E+00  0.0000E+00  0.8000E+01
  -9.240  0.0000E+00  0.0000E+00  0.8000E+01
  -9.230  0.0000E+00  0.0000E+00  0.8000E+01
  -9.220  0.0000E+00  0.0000E+00  0.8000E+01
  -9.210  0.0000E+00  0.0000E+00  0.8000E+01
  -9.200  0.0000E+00  0.0000E+00  0.8000E+01
  -9.190  0.0000E+00  0.0000E+00  0.8000E+01
  -9.180  0.0000E+00  0.0000E+00  0.8000E+01
  -9.170  0.0000E+00  0.0000E+00  0.8000E+01
  -9.160  0.0000E+00  0.0000E+00  0.8000E+01
  -9.150  0.0000E+00  0.0000E+00  0.8000E+01
  -9.140  0.0000E+00  0.0000E+00  0.8000E+01
  -9.130  0.0000E+00  0.0000E+00  0.8000E+01
  -9.120  0.0000E+00  0.0000E+00  0.8000E+01
  -9.110  0.0000E+00  0.0000E+00  0.8000E+01
  -9.100  0.0000E+00  0.0000E+00  0.8000E+01
  -9.090  0.0000E+00  0.0000E+00  0.8000E+01
  -9.080  0.0000E+00  0.0000E+00  0.8000E+01
  -9.070  0.0000E+00  0.0000E+00  0.8000E+01
  -9.060  0.0000E+00  0.0000E+00  0.8000E+01
  -9.050  0.0000E+00  0.0000E+00  0.8000E+01
  -9.040  0.0000E+00  0.0000E+00  0.8000E+01
  -9.030  0.0000E+00  0.0000E+00  0.8000E+01
  -9.020  0.0000E+00  0.0000E+00  0.8000E+01
  -9.010  0.0000E+00  0.0000E+00  0.8000E+01
  -9.000  0.0000E+00  0.0000E+00  0.8000E+01
  -8.990  0.0000E+00  0.0000E+00  0.8000E+01
  -8.980  0.0000E+00  0.0000E+00  0.8000E+01
  -8.970  0.0000E+00  0.0000E+00  0.8000E+01
  -8.960  0.0000E+00  0.0000E+00  0.8000E+01
  -8.950  0.0000E+00  0.0000E+00  0.8000E+01
  -8.940  0.0000E+00  0.0000E+00  0.8000E+01
  -8.930  0.0000E+00  0.0000E+00  0.8000E+01
  -8.920  0.0000E+00  0.0000E+00  0.8000E+01
  -8.910  0.0000E+00  0.0000E+00  0.8000E+01
  -8.900  0.0000E+00  0.0000E+00  0.8000E+01
  -8.890  0.0000E+00  0.0000E+00  0.8000E+01
  -8.880  0.0000E+00  0.0000E+00  0.8000E+01
  -8.870  0.0000E+00  0.0000E+00  0.8000E+01
  -8.860  0.0000E+00  0.0000E+00  0.8000E+01
  -8.850  0.0000E+00  0.0000E+00  0.8000E+01
  -8.840  0.0000E+00  0.0000E+00  0.8000E+01
  -8.830  0.0000E+00  0.0000E+00  0.8000E+01
  -8.820  0.0000E+00  0.0000E+00  0.8000E+01
  -8.810  0.0000E+00  0.0000E+00  0.8000E+01
  -8.800  0.0000E+00  0.0000E+00  0.8000E+01
  -8.790  0.0000E+00  0.0000E+00  0.8000E+01
  -8.780  0.0000E+00  0.0000E+00  0.8000E+01
  -8.770  0.0000E+00  0.0000E+00  0.8000E+01
  -8.760  0.0000E+00  0.0000E+00  0.8000E+01
  -8.750  0.0000E+00  0.0000E+00  0.8000E+01
  -8.740  0.0000E+00  0.0000E+00  0.8000E+01
  -8.730  0.0000E+00  0.0000E+00  0.8000E+01
  -8.720  0.0000E+00  0.0000E+00  0.8000E+01
  -8.710  0.0000E+00  0.0000E+00  0.8000E+01
  -8.700  0.0000E+00  0.0000E+00  0.8000E+01
  -8.690  0.0000E+00  0.0000E+00  0.8000E+01
  -8.680  0.0000E+00  0.0000E+00  0.8000E+01
  -8.670  0.0000E+00  0.0000E+00  0.8000E+01
  -8.660  0.0000E+00  0.0000E+00  0.8000E+01
  -8.650  0.0000E+00  0.0000E+00  0.8000E+01
  -8.640  0.0000E+00  0.0000E+00  0.8000E+01
  -8.630  0.0000E+00  0.0000E+00  0.8000E+01
  -8.620  0.0000E+00  0.0000E+00  0.8000E+01
  -8.610  0.0000E+00  0.0000E+00  0.8000E+01
  -8.600  0.0000E+00  0.0000E+00  0.8000E+01
  -8.590  0.0000E+00  0.0000E+00  0.8000E+01
  -8.580  0.0000E+00  0.0000E+00  0.8000E+01
  -8.570  0.0000E+00  0.0000E+00  0.8000E+01
  -8.560  0.0000E+00  0.0000E+00  0.8000E+01
  -8.550  0.0000E+00  0.0000E+00  0.8000E+01
  -8.540  0.0000E+00  0.0000E+00  0.8000E+01
  -8.530  0.0000E+00  0.0000E+00  0.8000E+01
  -8.520  0.0000E+00  0.0000E+00  0.8000E+01
  -8.510  0.0000E+00  0.0000E+00  0.8000E+01
  -8.500  0.0000E+00  0.0000E+00  0.8000E+01
  -8.490  0.0000E+00  0.0000E+00  0.8000E+01
  -8.480  0.0000E+00  0.0000E+00  0.8000E+01
  -8.470  0.0000E+00  0.0000E+00  0.8000E+01
  -8.460  0.0000E+00  0.0000E+00  0.8000E+01
  -8.450  0.0000E+00  0.0000E+00  0.8000E+01
  -8.440  0.0000E+00  0.0000E+00  0.8000E+01
  -8.430  0.0000E+00  0.0000E+00  0.8000E+01
  -8.420  0.0000E+00  0.0000E+00  0.8000E+01
  -8.410  0.0000E+00  0.0000E+00  0.8000E+01
  -8.400  0.0000E+00  0.0000E+00  0.8000E+01
  -8.390  0.0000E+00  0.0000E+00  0.8000E+01
  -8.380  0.0000E+00  0.0000E+00  0.8000E+01
  -8.370  0.0000E+00  0.0000E+00  0.8000E+01
  -8.360  0.0000E+00  0.0000E+00  0.8000E+01
  -8.350  0.0000E+00  0.0000E+00  0.8000E+01
  -8.340  0.0000E+00  0.0000E+00  0.8000E+01
  -8.330  0.0000E+00  0.0000E+00  0.8000E+01
  -8.320  0.0000E+00  0.0000E+00  0.8000E+01
  -8.310  0.0000E+00  0.0000E+00  0.8000E+01
  -8.300  0.0000E+00  0.0000E+00  0.8000E+01
  -8.290  0.0000E+00  0.0000E+00  0.8000E+01
  -8.280  0.0000E+00  0.0000E+00  0.8000E+01
  -8.270  0.0000E+00  0.0000E+00  0.8000E+01
  -8.260  0.0000E+00  0.0000E+00  0.8000E+01
  -8.250  0.0000E+00  0.0000E+00  0.8000E+01
  -8.240  0.0000E+00  0.0000E+00  0.8000E+01
  -8.230  0.0000E+00  0.0000E+00  0.8000E+01
  -8.220  0.0000E+00  0.0000E+00  0.8000E+01
  -8.210  0.0000E+00  0.0000E+00  0.8000E+01
  -8.200  0.0000E+00  0.0000E+00  0.8000E+01
  -8.190  0.0000E+00  0.0000E+00  0.8000E+01
  -8.180  0.0000E+00  0.0000E+00  0.8000E+01
  -8.170  0.0000E+00  0.0000E+00  0.8000E+01
  -8.160  0.0000E+00  0.0000E+00  0.8000E+01
  -8.150  0.0000E+00  0.0000E+00  0.8000E+01
  -8.140  0.0000E+00  0.0000E+00  0.8000E+01
  -8.130  0.0000E+00  0.0000E+00  0.8000E+01
  -8.120  0.0000E+00  0.0000E+00  0.8000E+01
  -8.110  0.0000E+00  0.0000E+00  0.8000E+01
  -8.100  0.0000E+00  0.0000E+00  0.8000E+01
  -8.090  0.0000E+00  0.0000E+00  0.8000E+01
  -8.080  0.0000E+00  0.0000E+00  0.8000E+01
  -8.070  0.0000E+00  0.0000E+00  0.8000E+01
  -8.060  0.0000E+00  0.0000E+00  0.8000E+01
  -8.050  0.0000E+00  0.0000E+00  0.8000E+01
  -8.040  0.0000E+00  0.0000E+00  0.8000E+01
  -8.030  0.0000E+00  0.0000E+00  0.8000E+01
  -8.020  0.0000E+00  0.0000E+00  0.8000E+01
  -8.010  0.0000E+00  0.0000E+00  0.8000E+01
  -8.000  0.0000E+00  0.0000E+00  0.8000E+01
  -7.990  0.0000E+00  0.0000E+00  0.8000E+01
  -7.980  0.0000E+00  0.0000E+00  0.8000E+01
  -7.970  0.0000E+00  0.0000E+00  0.8000E+01
  -7.960  0.0000E+00  0.0000E+00  0.8000E+01
  -7.950  0.0000E+00  0.0000E+00  0.8000E+01
  -7.940  0.0000E+00  0.0000E+00  0.8000E+01
  -7.930  0.0000E+00  0.0000E+00  0.8000E+01
  -7.920  0.0000E+00  0.0000E+00  0.8000E+01
  -7.910  0.0000E+00  0.0000E+00  0.8000E+01
  -7.900  0.0000E+00  0.0000E+00  0.8000E+01
  -7.890  0.0000E+00  0.0000E+00  0.8000E+01
  -7.880  0.0000E+00  0.0000E+00  0.8000E+01
  -7.870  0.0000E+00  0.0000E+00  0.8000E+01
  -7.860  0.0000E+00  0.0000E+00  0.8000E+01
  -7.850  0.0000E+00  0.0000E+00  0.8000E+01
  -7.840  0.0000E+00  0.0000E+00  0.8000E+01
  -7.830  0.0000E+00  0.0000E+00  0.8000E+01
  -7.820  0.0000E+00  0.0000E+00  0.8000E+01
  -7.810  0.0000E+00  0.0000E+00  0.8000E+01
  -7.800  0.0000E+00  0.0000E+00  0.8000E+01
  -7.790  0.0000E+00  0.0000E+00  0.8000E+01
  -7.780  0.0000E+00  0.0000E+00  0.8000E+01
  -7.770  0.0000E+00  0.0000E+00  0.8000E+01
  -7.760  0.0000E+00  0.0000E+00  0.8000E+01
  -7.750  0.0000E+00  0.0000E+00  0.8000E+01
  -7.740  0.0000E+00  0.0000E+00  0.8000E+01
  -7.730  0.0000E+00  0.0000E+00  0.8000E+01
  -7.720  0.0000E+00  0.0000E+00  0.8000E+01
  -7.710  0.0000E+00  0.0000E+00  0.8000E+01
  -7.700  0.0000E+00  0.0000E+00  0.8000E+01
  -7.690  0.0000E+00  0.0000E+00  0.8000E+01
  -7.680  0.0000E+00  0.0000E+00  0.8000E+01
  -7.670  0.0000E+00  0.0000E+00  0.8000E+01
  -7.660  0.0000E+00  0.0000E+00  0.8000E+01
  -7.650  0.0000E+00  0.0000E+00  0.8000E+01
  -7.640  0.0000E+00  0.0000E+00  0.8000E+01
  -7.630  0.0000E+00  0.0000E+00  0.8000E+01
  -7.620  0.0000E+00  0.0000E+00  0.8000E+01
  -7.610  0.0000E+00  0.0000E+00  0.8000E+01
  -7.600  0.0000E+00  0.0000E+00  0.8000E+01
  -7.590  0.0000E+00  0.0000E+00  0.8000E+01
  -7.580  0.0000E+00  0.0000E+00  0.8000E+01
  -7.570  0.0000E+00  0.0000E+00  0.8000E+01
  -7.560  0.0000E+00  0.0000E+00  0.8000E+01
  -7.550  0.0000E+00  0.0000E+00  0.8000E+01
  -7.540  0.0000E+00  0.0000E+00  0.8000E+01
  -7.530  0.0000E+00  0.0000E+00  0.8000E+01
  -7.520  0.0000E+00  0.0000E+00  0.8000E+01
  -7.510  0.0000E+00  0.0000E+00  0.8000E+01
  -7.500  0.0000E+00  0.0000E+00  0.8000E+01
  -7.490  0.0000E+00  0.0000E+00  0.8000E+01
  -7.480  0.0000E+00  0.0000E+00  0.8000E+01
  -7.470  0.1451E-02  0.0000E+00  0.8000E+01
  -7.460  0.7812E-01  0.0000E+00  0.8000E+01
  -7.450  0.4563E+00  0.0000E+00  0.8003E+01
  -7.440  0.1167E+01  0.0000E+00  0.8010E+01
  -7.430  0.2035E+01  0.1188E-02  0.8027E+01
  -7.420  0.2665E+01  0.3931E-01  0.8050E+01
  -7.410  0.3092E+01  0.3118E+00  0.8081E+01
  -7.400  0.3395E+01  0.8955E+00  0.8119E+01
  -7.390  0.3733E+01  0.1710E+01  0.8168E+01
  -7.380  0.4031E+01  0.2336E+01  0.8227E+01
  -7.370  0.4526E+01  0.2682E+01  0.8295E+01
  -7.360  0.5370E+01  0.2831E+01  0.8372E+01
  -7.350  0.6321E+01  0.2891E+01  0.8459E+01
  -7.340  0.7168E+01  0.3014E+01  0.8556E+01
  -7.330  0.7312E+01  0.3130E+01  0.8660E+01
  -7.320  0.6809E+01  0.3365E+01  0.8763E+01
  -7.310  0.6176E+01  0.3785E+01  0.8864E+01
  -7.300  0.5954E+01  0.4278E+01  0.8964E+01
  -7.290  0.6001E+01  0.4801E+01  0.9070E+01
  -7.280  0.5553E+01  0.5472E+01  0.9179E+01
  -7.270  0.5193E+01  0.5826E+01  0.9290E+01
  -7.260  0.4603E+01  0.5735E+01  0.9397E+01
  -7.250  0.3995E+01  0.5347E+01  0.9495E+01
  -7.240  0.4136E+01  0.5090E+01  0.9587E+01
  -7.230  0.5004E+01  0.5282E+01  0.9683E+01
  -7.220  0.5929E+01  0.6091E+01  0.9794E+01
  -7.210  0.6659E+01  0.7025E+01  0.9923E+01
  -7.200  0.6779E+01  0.8005E+01  0.1007E+02
  -7.190  0.6975E+01  0.8525E+01  0.1022E+02
  -7.180  0.7303E+01  0.8515E+01  0.1037E+02
  -7.170  0.7624E+01  0.8361E+01  0.1053E+02
  -7.160  0.7949E+01  0.8088E+01  0.1069E+02
  -7.150  0.8381E+01  0.7706E+01  0.1085E+02
  -7.140  0.8627E+01  0.7397E+01  0.1102E+02
  -7.130  0.8547E+01  0.7290E+01  0.1117E+02
  -7.120  0.1226E+02  0.7348E+01  0.1134E+02
  -7.110  0.1063E+02  0.7486E+01  0.1154E+02
  -7.100  0.6823E+01  0.7838E+01  0.1169E+02
  -7.090  0.8619E+01  0.8134E+01  0.1185E+02
  -7.080  0.1173E+02  0.8558E+01  0.1203E+02
  -7.070  0.1495E+02  0.1052E+02  0.1226E+02
  -7.060  0.1706E+02  0.1225E+02  0.1254E+02
  -7.050  0.1690E+02  0.1273E+02  0.1284E+02
  -7.040  0.1496E+02  0.1250E+02  0.1312E+02
  -7.030  0.8659E+01  0.1159E+02  0.1335E+02
  -7.020  0.8579E+01  0.1154E+02  0.1355E+02
  -7.010  0.8741E+01  0.1164E+02  0.1376E+02
  -7.000  0.9031E+01  0.1189E+02  0.1396E+02
  -6.990  0.9516E+01  0.1202E+02  0.1417E+02
  -6.980  0.1122E+02  0.1177E+02  0.1439E+02
  -6.970  0.1202E+02  0.1118E+02  0.1463E+02
  -6.960  0.1103E+02  0.9425E+01  0.1485E+02
  -6.950  0.1190E+02  0.8686E+01  0.1505E+02
  -6.940  0.1320E+02  0.1035E+02  0.1526E+02
  -6.930  0.1444E+02  0.1201E+02  0.1552E+02
  -6.920  0.1632E+02  0.1258E+02  0.1579E+02
  -6.910  0.1915E+02  0.1215E+02  0.1609E+02
  -6.900  0.2184E+02  0.1253E+02  0.1642E+02
  -6.890  0.2601E+02  0.1305E+02  0.1679E+02
  -6.880  0.2400E+02  0.1343E+02  0.1716E+02
  -6.870  0.2755E+02  0.1479E+02  0.1755E+02
  -6.860  0.2404E+02  0.1803E+02  0.1797E+02
  -6.850  0.2753E+02  0.2242E+02  0.1843E+02
  -6.840  0.1955E+02  0.2429E+02  0.1892E+02
  -6.830  0.1384E+02  0.2739E+02  0.1933E+02
  -6.820  0.1111E+02  0.2654E+02  0.1973E+02
  -6.810  0.1045E+02  0.2442E+02  0.2009E+02
  -6.800  0.1206E+02  0.2226E+02  0.2043E+02
  -6.790  0.1493E+02  0.1935E+02  0.2078E+02
  -6.780  0.1848E+02  0.1659E+02  0.2112E+02
  -6.770  0.3108E+02  0.1425E+02  0.2152E+02
  -6.760  0.2989E+02  0.1331E+02  0.2198E+02
  -6.750  0.2040E+02  0.1727E+02  0.2238E+02
  -6.740  0.1593E+02  0.2029E+02  0.2276E+02
  -6.730  0.1214E+02  0.1934E+02  0.2309E+02
  -6.720  0.1621E+02  0.1742E+02  0.2342E+02
  -6.710  0.2157E+02  0.1593E+02  0.2376E+02
  -6.700  0.4157E+02  0.1488E+02  0.2422E+02
  -6.690  0.4946E+02  0.1438E+02  0.2481E+02
  -6.680  0.4352E+02  0.1564E+02  0.2542E+02
  -6.670  0.3484E+02  0.2432E+02  0.2605E+02
  -6.660  0.3392E+02  0.3305E+02  0.2668E+02
  -6.650  0.2525E+02  0.2460E+02  0.2726E+02
  -6.640  0.2473E+02  0.3361E+02  0.2781E+02
  -6.630  0.2177E+02  0.3323E+02  0.2837E+02
  -6.620  0.2657E+02  0.3812E+02  0.2896E+02
  -6.610  0.4611E+02  0.3491E+02  0.2968E+02
  -6.600  0.3930E+02  0.3192E+02  0.3046E+02
  -6.590  0.4595E+02  0.3219E+02  0.3119E+02
  -6.580  0.3799E+02  0.3863E+02  0.3191E+02
  -6.570  0.3336E+02  0.5081E+02  0.3274E+02
  -6.560  0.3551E+02  0.5351E+02  0.3360E+02
  -6.550  0.3604E+02  0.3957E+02  0.3443E+02
  -6.540  0.3673E+02  0.3477E+02  0.3516E+02
  -6.530  0.3762E+02  0.3378E+02  0.3587E+02
  -6.520  0.3890E+02  0.4369E+02  0.3663E+02
  -6.510  0.3996E+02  0.4090E+02  0.3745E+02
  -6.500  0.4285E+02  0.4481E+02  0.3829E+02
  -6.490  0.4889E+02  0.4848E+02  0.3921E+02
  -6.480  0.5366E+02  0.5132E+02  0.4023E+02
  -6.470  0.4867E+02  0.4966E+02  0.4125E+02
  -6.460  0.5215E+02  0.4886E+02  0.4224E+02
  -6.450  0.6671E+02  0.5559E+02  0.4333E+02
  -6.440  0.6158E+02  0.6663E+02  0.4454E+02
  -6.430  0.5344E+02  0.8700E+02  0.4584E+02
  -6.420  0.5203E+02  0.6872E+02  0.4717E+02
  -6.410  0.5806E+02  0.5704E+02  0.4834E+02
  -6.400  0.7285E+02  0.4680E+02  0.4952E+02
  -6.390  0.6682E+02  0.3972E+02  0.5059E+02
  -6.380  0.4927E+02  0.4934E+02  0.5142E+02
  -6.370  0.6225E+02  0.6842E+02  0.5258E+02
  -6.360  0.5120E+02  0.7455E+02  0.5391E+02
  -6.350  0.5276E+02  0.6816E+02  0.5515E+02
  -6.340  0.7172E+02  0.5152E+02  0.5639E+02
  -6.330  0.5635E+02  0.4803E+02  0.5764E+02
  -6.320  0.6010E+02  0.5817E+02  0.5872E+02
  -6.310  0.5874E+02  0.6464E+02  0.5995E+02
  -6.300  0.5555E+02  0.5569E+02  0.6117E+02
  -6.290  0.5091E+02  0.6402E+02  0.6234E+02
  -6.280  0.5487E+02  0.6997E+02  0.6358E+02
  -6.270  0.6265E+02  0.7306E+02  0.6491E+02
  -6.260  0.6726E+02  0.7926E+02  0.6633E+02
  -6.250  0.6715E+02  0.6839E+02  0.6779E+02
  -6.240  0.6280E+02  0.7392E+02  0.6913E+02
  -6.230  0.3613E+02  0.5790E+02  0.7020E+02
  -6.220  0.2752E+02  0.3723E+02  0.7098E+02
  -6.210  0.2764E+02  0.2674E+02  0.7160E+02
  -6.200  0.1692E-02  0.1692E+02  0.7197E+02
  -6.190  0.0000E+00  0.0000E+00  0.7200E+02
  -6.180  0.0000E+00  0.0000E+00  0.7200E+02
  -6.170  0.0000E+00  0.0000E+00  0.7200E+02
  -6.160  0.0000E+00  0.0000E+00  0.7200E+02
  -6.150  0.0000E+00  0.0000E+00  0.7200E+02
  -6.140  0.0000E+00  0.0000E+00  0.7200E+02
  -6.130  0.0000E+00  0.0000E+00  0.7200E+02
  -6.120  0.0000E+00  0.0000E+00  0.7200E+02
  -6.110  0.0000E+00  0.0000E+00  0.7200E+02
  -6.100  0.0000E+00  0.0000E+00  0.7200E+02
  -6.090  0.0000E+00  0.0000E+00  0.7200E+02
  -6.080  0.0000E+00  0.0000E+00  0.7200E+02
  -6.070  0.0000E+00  0.0000E+00  0.7200E+02
  -6.060  0.0000E+00  0.0000E+00  0.7200E+02
  -6.050  0.0000E+00  0.0000E+00  0.7200E+02
  -6.040  0.0000E+00  0.0000E+00  0.7200E+02
  -6.030  0.0000E+00  0.0000E+00  0.7200E+02
  -6.020  0.0000E+00  0.0000E+00  0.7200E+02
  -6.010  0.0000E+00  0.0000E+00  0.7200E+02
  -6.000  0.0000E+00  0.0000E+00  0.7200E+02
  -5.990  0.0000E+00  0.0000E+00  0.7200E+02
  -5.980  0.0000E+00  0.0000E+00  0.7200E+02
  -5.970  0.0000E+00  0.0000E+00  0.7200E+02
  -5.960  0.0000E+00  0.0000E+00  0.7200E+02
  -5.950  0.0000E+00  0.0000E+00  0.7200E+02
  -5.940  0.0000E+00  0.0000E+00  0.7200E+02
  -5.930  0.0000E+00  0.0000E+00  0.7200E+02
  -5.920  0.0000E+00  0.0000E+00  0.7200E+02
  -5.910  0.0000E+00  0.0000E+00  0.7200E+02
  -5.900  0.0000E+00  0.0000E+00  0.7200E+02
  -5.890  0.0000E+00  0.0000E+00  0.7200E+02
  -5.880  0.0000E+00  0.0000E+00  0.7200E+02
  -5.870  0.0000E+00  0.0000E+00  0.7200E+02
  -5.860  0.0000E+00  0.0000E+00  0.7200E+02
  -5.850  0.0000E+00  0.0000E+00  0.7200E+02
  -5.840  0.0000E+00  0.0000E+00  0.7200E+02
  -5.830  0.0000E+00  0.0000E+00  0.7200E+02
  -5.820  0.0000E+00  0.0000E+00  0.7200E+02
  -5.810  0.0000E+00  0.0000E+00  0.7200E+02
  -5.800  0.0000E+00  0.0000E+00  0.7200E+02
  -5.790  0.0000E+00  0.0000E+00  0.7200E+02
  -5.780  0.0000E+00  0.0000E+00  0.7200E+02
  -5.770  0.0000E+00  0.0000E+00  0.7200E+02
  -5.760  0.0000E+00  0.0000E+00  0.7200E+02
  -5.750  0.0000E+00  0.0000E+00  0.7200E+02
  -5.740  0.0000E+00  0.0000E+00  0.7200E+02
  -5.730  0.0000E+00  0.0000E+00  0.7200E+02
  -5.720  0.0000E+00  0.0000E+00  0.7200E+02
  -5.710  0.0000E+00  0.0000E+00  0.7200E+02
  -5.700  0.0000E+00  0.0000E+00  0.7200E+02
  -5.690  0.0000E+00  0.0000E+00  0.7200E+02
  -5.680  0.0000E+00  0.0000E+00  0.7200E+02
  -5.670  0.0000E+00  0.0000E+00  0.7200E+02
  -5.660  0.0000E+00  0.0000E+00  0.7200E+02
  -5.650  0.0000E+00  0.0000E+00  0.7200E+02
  -5.640  0.0000E+00  0.0000E+00  0.7200E+02
  -5.630  0.0000E+00  0.0000E+00  0.7200E+02
  -5.620  0.0000E+00  0.0000E+00  0.7200E+02
  -5.610  0.0000E+00  0.0000E+00  0.7200E+02
  -5.600  0.0000E+00  0.0000E+00  0.7200E+02
  -5.590  0.0000E+00  0.0000E+00  0.7200E+02
  -5.580  0.0000E+00  0.0000E+00  0.7200E+02
  -5.570  0.0000E+00  0.0000E+00  0.7200E+02
  -5.560  0.0000E+00  0.0000E+00  0.7200E+02
  -5.550  0.0000E+00  0.0000E+00  0.7200E+02
  -5.540  0.0000E+00  0.0000E+00  0.7200E+02
  -5.530  0.0000E+00  0.0000E+00  0.7200E+02
  -5.520  0.0000E+00  0.0000E+00  0.7200E+02
  -5.510  0.0000E+00  0.0000E+00  0.7200E+02
  -5.500  0.0000E+00  0.0000E+00  0.7200E+02
  -5.490  0.0000E+00  0.0000E+00  0.7200E+02
  -5.480  0.0000E+00  0.0000E+00  0.7200E+02
  -5.470  0.0000E+00  0.0000E+00  0.7200E+02
  -5.460  0.0000E+00  0.0000E+00  0.7200E+02
  -5.450  0.0000E+00  0.0000E+00  0.7200E+02
  -5.440  0.0000E+00  0.0000E+00  0.7200E+02
  -5.430  0.0000E+00  0.0000E+00  0.7200E+02
  -5.420  0.0000E+00  0.0000E+00  0.7200E+02
  -5.410  0.0000E+00  0.0000E+00  0.7200E+02
  -5.400  0.0000E+00  0.0000E+00  0.7200E+02
  -5.390  0.0000E+00  0.0000E+00  0.7200E+02
  -5.380  0.0000E+00  0.0000E+00  0.7200E+02
  -5.370  0.0000E+00  0.0000E+00  0.7200E+02
  -5.360  0.0000E+00  0.0000E+00  0.7200E+02
  -5.350  0.0000E+00  0.0000E+00  0.7200E+02
  -5.340  0.0000E+00  0.0000E+00  0.7200E+02
  -5.330  0.0000E+00  0.0000E+00  0.7200E+02
  -5.320  0.0000E+00  0.0000E+00  0.7200E+02
  -5.310  0.0000E+00  0.0000E+00  0.7200E+02
  -5.300  0.0000E+00  0.0000E+00  0.7200E+02
  -5.290  0.0000E+00  0.0000E+00  0.7200E+02
  -5.280  0.0000E+00  0.0000E+00  0.7200E+02
  -5.270  0.0000E+00  0.0000E+00  0.7200E+02
  -5.260  0.0000E+00  0.0000E+00  0.7200E+02
  -5.250  0.0000E+00  0.0000E+00  0.7200E+02
  -5.240  0.0000E+00  0.0000E+00  0.7200E+02
  -5.230  0.0000E+00  0.0000E+00  0.7200E+02
  -5.220  0.0000E+00  0.0000E+00  0.7200E+02
  -5.210  0.0000E+00  0.0000E+00  0.7200E+02
  -5.200  0.0000E+00  0.0000E+00  0.7200E+02
  -5.190  0.0000E+00  0.0000E+00  0.7200E+02
  -5.180  0.0000E+00  0.0000E+00  0.7200E+02
  -5.170  0.0000E+00  0.0000E+00  0.7200E+02
  -5.160  0.0000E+00  0.0000E+00  0.7200E+02
  -5.150  0.0000E+00  0.0000E+00  0.7200E+02
  -5.140  0.0000E+00  0.0000E+00  0.7200E+02
  -5.130  0.0000E+00  0.0000E+00  0.7200E+02
  -5.120  0.0000E+00  0.0000E+00  0.7200E+02
  -5.110  0.0000E+00  0.0000E+00  0.7200E+02
  -5.100  0.0000E+00  0.0000E+00  0.7200E+02
  -5.090  0.0000E+00  0.0000E+00  0.7200E+02
  -5.080  0.0000E+00  0.0000E+00  0.7200E+02
  -5.070  0.0000E+00  0.0000E+00  0.7200E+02
  -5.060  0.0000E+00  0.0000E+00  0.7200E+02
  -5.050  0.0000E+00  0.0000E+00  0.7200E+02
  -5.040  0.0000E+00  0.0000E+00  0.7200E+02
  -5.030  0.0000E+00  0.0000E+00  0.7200E+02
  -5.020  0.0000E+00  0.0000E+00  0.7200E+02
  -5.010  0.0000E+00  0.0000E+00  0.7200E+02
  -5.000  0.0000E+00  0.0000E+00  0.7200E+02
  -4.990  0.0000E+00  0.0000E+00  0.7200E+02
  -4.980  0.0000E+00  0.0000E+00  0.7200E+02
  -4.970  0.0000E+00  0.0000E+00  0.7200E+02
  -4.960  0.0000E+00  0.0000E+00  0.7200E+02
  -4.950  0.0000E+00  0.0000E+00  0.7200E+02
  -4.940  0.0000E+00  0.0000E+00  0.7200E+02
  -4.930  0.0000E+00  0.0000E+00  0.7200E+02
  -4.920  0.0000E+00  0.0000E+00  0.7200E+02
  -4.910  0.0000E+00  0.0000E+00  0.7200E+02
  -4.900  0.0000E+00  0.0000E+00  0.7200E+02
  -4.890  0.0000E+00  0.0000E+00  0.7200E+02
  -4.880  0.0000E+00  0.0000E+00  0.7200E+02
  -4.870  0.0000E+00  0.0000E+00  0.7200E+02
  -4.860  0.0000E+00  0.0000E+00  0.7200E+02
  -4.850  0.0000E+00  0.0000E+00  0.7200E+02
  -4.840  0.0000E+00  0.0000E+00  0.7200E+02
  -4.830  0.0000E+00  0.0000E+00  0.7200E+02
  -4.820  0.0000E+00  0.0000E+00  0.7200E+02
  -4.810  0.0000E+00  0.0000E+00  0.7200E+02
  -4.800  0.0000E+00  0.0000E+00  0.7200E+02
  -4.790  0.0000E+00  0.0000E+00  0.7200E+02
  -4.780  0.0000E+00  0.0000E+00  0.7200E+02
  -4.770  0.0000E+00  0.0000E+00  0.7200E+02
  -4.760  0.0000E+00  0.0000E+00  0.7200E+02
  -4.750  0.0000E+00  0.0000E+00  0.7200E+02
  -4.740  0.0000E+00  0.0000E+00  0.7200E+02
  -4.730  0.0000E+00  0.0000E+00  0.7200E+02
  -4.720  0.0000E+00  0.0000E+00  0.7200E+02
  -4.710  0.0000E+00  0.0000E+00  0.7200E+02
  -4.700  0.0000E+00  0.0000E+00  0.7200E+02
  -4.690  0.0000E+00  0.0000E+00  0.7200E+02
  -4.680  0.0000E+00  0.0000E+00  0.7200E+02
  -4.670  0.0000E+00  0.0000E+00  0.7200E+02
  -4.660  0.0000E+00  0.0000E+00  0.7200E+02
  -4.650  0.0000E+00  0.0000E+00  0.7200E+02
  -4.640  0.0000E+00  0.0000E+00  0.7200E+02
  -4.630  0.0000E+00  0.0000E+00  0.7200E+02
  -4.620  0.0000E+00  0.0000E+00  0.7200E+02
  -4.610  0.0000E+00  0.0000E+00  0.7200E+02
  -4.600  0.0000E+00  0.0000E+00  0.7200E+02
  -4.590  0.0000E+00  0.0000E+00  0.7200E+02
  -4.580  0.0000E+00  0.0000E+00  0.7200E+02
  -4.570  0.0000E+00  0.0000E+00  0.7200E+02
  -4.560  0.0000E+00  0.0000E+00  0.7200E+02
  -4.550  0.0000E+00  0.0000E+00  0.7200E+02
  -4.540  0.0000E+00  0.0000E+00  0.7200E+02
  -4.530  0.0000E+00  0.0000E+00  0.7200E+02
  -4.520  0.0000E+00  0.0000E+00  0.7200E+02
  -4.510  0.0000E+00  0.0000E+00  0.7200E+02
  -4.500  0.0000E+00  0.0000E+00  0.7200E+02
  -4.490  0.0000E+00  0.0000E+00  0.7200E+02
  -4.480  0.0000E+00  0.0000E+00  0.7200E+02
  -4.470  0.0000E+00  0.0000E+00  0.7200E+02
  -4.460  0.0000E+00  0.0000E+00  0.7200E+02
  -4.450  0.0000E+00  0.0000E+00  0.7200E+02
  -4.440  0.0000E+00  0.0000E+00  0.7200E+02
  -4.430  0.0000E+00  0.0000E+00  0.7200E+02
  -4.420  0.0000E+00  0.0000E+00  0.7200E+02
  -4.410  0.0000E+00  0.0000E+00  0.7200E+02
  -4.400  0.0000E+00  0.0000E+00  0.7200E+02
  -4.390  0.0000E+00  0.0000E+00  0.7200E+02
  -4.380  0.0000E+00  0.0000E+00  0.7200E+02
  -4.370  0.0000E+00  0.0000E+00  0.7200E+02
  -4.360  0.0000E+00  0.0000E+00  0.7200E+02
  -4.350  0.0000E+00  0.0000E+00  0.7200E+02
  -4.340  0.0000E+00  0.0000E+00  0.7200E+02
  -4.330  0.0000E+00  0.0000E+00  0.7200E+02
  -4.320  0.0000E+00  0.0000E+00  0.7200E+02
  -4.310  0.0000E+00  0.0000E+00  0.7200E+02
  -4.300  0.0000E+00  0.0000E+00  0.7200E+02
  -4.290  0.0000E+00  0.0000E+00  0.7200E+02
  -4.280  0.0000E+00  0.0000E+00  0.7200E+02
  -4.270  0.0000E+00  0.0000E+00  0.7200E+02
  -4.260  0.0000E+00  0.0000E+00  0.7200E+02
  -4.250  0.0000E+00  0.0000E+00  0.7200E+02
  -4.240  0.0000E+00  0.0000E+00  0.7200E+02
  -4.230  0.0000E+00  0.0000E+00  0.7200E+02
  -4.220  0.0000E+00  0.0000E+00  0.7200E+02
  -4.210  0.0000E+00  0.0000E+00  0.7200E+02
  -4.200  0.0000E+00  0.0000E+00  0.7200E+02
  -4.190  0.0000E+00  0.0000E+00  0.7200E+02
  -4.180  0.0000E+00  0.0000E+00  0.7200E+02
  -4.170  0.0000E+00  0.0000E+00  0.7200E+02
  -4.160  0.0000E+00  0.0000E+00  0.7200E+02
  -4.150  0.0000E+00  0.0000E+00  0.7200E+02
  -4.140  0.0000E+00  0.0000E+00  0.7200E+02
  -4.130  0.0000E+00  0.0000E+00  0.7200E+02
  -4.120  0.0000E+00  0.0000E+00  0.7200E+02
  -4.110  0.0000E+00  0.0000E+00  0.7200E+02
  -4.100  0.0000E+00  0.0000E+00  0.7200E+02
  -4.090  0.0000E+00  0.0000E+00  0.7200E+02
  -4.080  0.0000E+00  0.0000E+00  0.7200E+02
  -4.070  0.0000E+00  0.0000E+00  0.7200E+02
  -4.060  0.0000E+00  0.0000E+00  0.7200E+02
  -4.050  0.0000E+00  0.0000E+00  0.7200E+02
  -4.040  0.0000E+00  0.0000E+00  0.7200E+02
  -4.030  0.0000E+00  0.0000E+00  0.7200E+02
  -4.020  0.0000E+00  0.0000E+00  0.7200E+02
  -4.010  0.0000E+00  0.0000E+00  0.7200E+02
  -4.000  0.0000E+00  0.0000E+00  0.7200E+02
  -3.990  0.0000E+00  0.0000E+00  0.7200E+02
  -3.980  0.0000E+00  0.0000E+00  0.7200E+02
  -3.970  0.0000E+00  0.0000E+00  0.7200E+02
  -3.960  0.0000E+00  0.0000E+00  0.7200E+02
  -3.950  0.0000E+00  0.0000E+00  0.7200E+02
  -3.940  0.0000E+00  0.0000E+00  0.7200E+02
  -3.930  0.0000E+00  0.0000E+00  0.7200E+02
  -3.920  0.0000E+00  0.0000E+00  0.7200E+02
  -3.910  0.0000E+00  0.0000E+00  0.7200E+02
  -3.900  0.0000E+00  0.0000E+00  0.7200E+02
  -3.890  0.0000E+00  0.0000E+00  0.7200E+02
  -3.880  0.0000E+00  0.0000E+00  0.7200E+02
  -3.870  0.0000E+00  0.0000E+00  0.7200E+02
  -3.860  0.0000E+00  0.0000E+00  0.7200E+02
  -3.850  0.0000E+00  0.0000E+00  0.7200E+02
  -3.840  0.0000E+00  0.0000E+00  0.7200E+02
  -3.830  0.0000E+00  0.0000E+00  0.7200E+02
  -3.820  0.0000E+00  0.0000E+00  0.7200E+02
  -3.810  0.0000E+00  0.0000E+00  0.7200E+02
  -3.800  0.0000E+00  0.0000E+00  0.7200E+02
  -3.790  0.0000E+00  0.0000E+00  0.7200E+02
  -3.780  0.0000E+00  0.0000E+00  0.7200E+02
  -3.770  0.0000E+00  0.0000E+00  0.7200E+02
  -3.760  0.0000E+00  0.0000E+00  0.7200E+02
  -3.750  0.0000E+00  0.0000E+00  0.7200E+02
  -3.740  0.0000E+00  0.0000E+00  0.7200E+02
  -3.730  0.0000E+00  0.0000E+00  0.7200E+02
  -3.720  0.0000E+00  0.0000E+00  0.7200E+02
  -3.710  0.0000E+00  0.0000E+00  0.7200E+02
  -3.700  0.0000E+00  0.0000E+00  0.7200E+02
  -3.690  0.0000E+00  0.0000E+00  0.7200E+02
  -3.680  0.0000E+00  0.0000E+00  0.7200E+02
  -3.670  0.0000E+00  0.0000E+00  0.7200E+02
  -3.660  0.0000E+00  0.0000E+00  0.7200E+02
  -3.650  0.0000E+00  0.0000E+00  0.7200E+02
  -3.640  0.0000E+00  0.0000E+00  0.7200E+02
  -3.630  0.0000E+00  0.0000E+00  0.7200E+02
  -3.620  0.0000E+00  0.0000E+00  0.7200E+02
  -3.610  0.0000E+00  0.0000E+00  0.7200E+02
  -3.600  0.0000E+00  0.0000E+00  0.7200E+02
  -3.590  0.0000E+00  0.0000E+00  0.7200E+02
  -3.580  0.0000E+00  0.0000E+00  0.7200E+02
  -3.570  0.0000E+00  0.0000E+00  0.7200E+02
  -3.560  0.0000E+00  0.0000E+00  0.7200E+02
  -3.550  0.0000E+00  0.0000E+00  0.7200E+02
  -3.540  0.0000E+00  0.0000E+00  0.7200E+02
  -3.530  0.0000E+00  0.0000E+00  0.7200E+02
  -3.520  0.0000E+00  0.0000E+00  0.7200E+02
  -3.510  0.0000E+00  0.0000E+00  0.7200E+02
  -3.500  0.0000E+00  0.0000E+00  0.7200E+02
  -3.490  0.0000E+00  0.0000E+00  0.7200E+02
  -3.480  0.0000E+00  0.0000E+00  0.7200E+02
  -3.470  0.0000E+00  0.0000E+00  0.7200E+02
  -3.460  0.0000E+00  0.0000E+00  0.7200E+02
  -3.450  0.0000E+00  0.0000E+00  0.7200E+02
  -3.440  0.0000E+00  0.0000E+00  0.7200E+02
  -3.430  0.0000E+00  0.0000E+00  0.7200E+02
  -3.420  0.0000E+00  0.0000E+00  0.7200E+02
  -3.410  0.0000E+00  0.0000E+00  0.7200E+02
  -3.400  0.0000E+00  0.0000E+00  0.7200E+02
  -3.390  0.0000E+00  0.0000E+00  0.7200E+02
  -3.380  0.0000E+00  0.0000E+00  0.7200E+02
  -3.370  0.0000E+00  0.0000E+00  0.7200E+02
  -3.360  0.0000E+00  0.0000E+00  0.7200E+02
  -3.350  0.0000E+00  0.0000E+00  0.7200E+02
  -3.340  0.0000E+00  0.0000E+00  0.7200E+02
  -3.330  0.0000E+00  0.0000E+00  0.7200E+02
  -3.320  0.0000E+00  0.0000E+00  0.7200E+02
  -3.310  0.0000E+00  0.0000E+00  0.7200E+02
  -3.300  0.0000E+00  0.0000E+00  0.7200E+02
  -3.290  0.0000E+00  0.0000E+00  0.7200E+02
  -3.280  0.0000E+00  0.0000E+00  0.7200E+02
  -3.270  0.0000E+00  0.0000E+00  0.7200E+02
  -3.260  0.0000E+00  0.0000E+00  0.7200E+02
  -3.250  0.0000E+00  0.0000E+00  0.7200E+02
  -3.240  0.0000E+00  0.0000E+00  0.7200E+02
  -3.230  0.0000E+00  0.0000E+00  0.7200E+02
  -3.220  0.0000E+00  0.0000E+00  0.7200E+02
  -3.210  0.0000E+00  0.0000E+00  0.7200E+02
  -3.200  0.0000E+00  0.0000E+00  0.7200E+02
  -3.190  0.0000E+00  0.0000E+00  0.7200E+02
  -3.180  0.0000E+00  0.0000E+00  0.7200E+02
  -3.170  0.0000E+00  0.0000E+00  0.7200E+02
  -3.160  0.0000E+00  0.0000E+00  0.7200E+02
  -3.150  0.0000E+00  0.0000E+00  0.7200E+02
  -3.140  0.0000E+00  0.0000E+00  0.7200E+02
  -3.130  0.0000E+00  0.0000E+00  0.7200E+02
  -3.120  0.0000E+00  0.0000E+00  0.7200E+02
  -3.110  0.0000E+00  0.0000E+00  0.7200E+02
  -3.100  0.0000E+00  0.0000E+00  0.7200E+02
  -3.090  0.0000E+00  0.0000E+00  0.7200E+02
  -3.080  0.0000E+00  0.0000E+00  0.7200E+02
  -3.070  0.0000E+00  0.0000E+00  0.7200E+02
  -3.060  0.0000E+00  0.0000E+00  0.7200E+02
  -3.050  0.0000E+00  0.0000E+00  0.7200E+02
  -3.040  0.0000E+00  0.0000E+00  0.7200E+02
  -3.030  0.0000E+00  0.0000E+00  0.7200E+02
  -3.020  0.0000E+00  0.0000E+00  0.7200E+02
  -3.010  0.0000E+00  0.0000E+00  0.7200E+02
  -3.000  0.0000E+00  0.0000E+00  0.7200E+02
  -2.990  0.0000E+00  0.0000E+00  0.7200E+02
  -2.980  0.0000E+00  0.0000E+00  0.7200E+02
  -2.970  0.0000E+00  0.0000E+00  0.7200E+02
  -2.960  0.0000E+00  0.0000E+00  0.7200E+02
  -2.950  0.0000E+00  0.0000E+00  0.7200E+02
  -2.940  0.0000E+00  0.0000E+00  0.7200E+02
  -2.930  0.0000E+00  0.0000E+00  0.7200E+02
  -2.920  0.0000E+00  0.0000E+00  0.7200E+02
  -2.910  0.0000E+00  0.0000E+00  0.7200E+02
  -2.900  0.0000E+00  0.0000E+00  0.7200E+02
  -2.890  0.0000E+00  0.0000E+00  0.7200E+02
  -2.880  0.0000E+00  0.0000E+00  0.7200E+02
  -2.870  0.0000E+00  0.0000E+00  0.7200E+02
  -2.860  0.0000E+00  0.0000E+00  0.7200E+02
  -2.850  0.0000E+00  0.0000E+00  0.7200E+02
  -2.840  0.0000E+00  0.0000E+00  0.7200E+02
  -2.830  0.0000E+00  0.0000E+00  0.7200E+02
  -2.820  0.0000E+00  0.0000E+00  0.7200E+02
  -2.810  0.0000E+00  0.0000E+00  0.7200E+02
  -2.800  0.0000E+00  0.0000E+00  0.7200E+02
  -2.790  0.0000E+00  0.0000E+00  0.7200E+02
  -2.780  0.0000E+00  0.0000E+00  0.7200E+02
  -2.770  0.0000E+00  0.0000E+00  0.7200E+02
  -2.760  0.0000E+00  0.0000E+00  0.7200E+02
  -2.750  0.0000E+00  0.0000E+00  0.7200E+02
  -2.740  0.0000E+00  0.0000E+00  0.7200E+02
  -2.730  0.0000E+00  0.0000E+00  0.7200E+02
  -2.720  0.0000E+00  0.0000E+00  0.7200E+02
  -2.710  0.0000E+00  0.0000E+00  0.7200E+02
  -2.700  0.0000E+00  0.0000E+00  0.7200E+02
  -2.690  0.0000E+00  0.0000E+00  0.7200E+02
  -2.680  0.0000E+00  0.0000E+00  0.7200E+02
  -2.670  0.0000E+00  0.0000E+00  0.7200E+02
  -2.660  0.0000E+00  0.0000E+00  0.7200E+02
  -2.650  0.0000E+00  0.0000E+00  0.7200E+02
  -2.640  0.0000E+00  0.0000E+00  0.7200E+02
  -2.630  0.0000E+00  0.0000E+00  0.7200E+02
  -2.620  0.0000E+00  0.0000E+00  0.7200E+02
  -2.610  0.0000E+00  0.0000E+00  0.7200E+02
  -2.600  0.0000E+00  0.0000E+00  0.7200E+02
  -2.590  0.0000E+00  0.0000E+00  0.7200E+02
  -2.580  0.0000E+00  0.0000E+00  0.7200E+02
  -2.570  0.0000E+00  0.0000E+00  0.7200E+02
  -2.560  0.0000E+00  0.0000E+00  0.7200E+02
  -2.550  0.0000E+00  0.0000E+00  0.7200E+02
  -2.540  0.0000E+00  0.0000E+00  0.7200E+02
  -2.530  0.0000E+00  0.0000E+00  0.7200E+02
  -2.520  0.0000E+00  0.0000E+00  0.7200E+02
  -2.510  0.0000E+00  0.0000E+00  0.7200E+02
  -2.500  0.0000E+00  0.0000E+00  0.7200E+02
  -2.490  0.0000E+00  0.0000E+00  0.7200E+02
  -2.480  0.0000E+00  0.0000E+00  0.7200E+02
  -2.470  0.0000E+00  0.0000E+00  0.7200E+02
  -2.460  0.0000E+00  0.0000E+00  0.7200E+02
  -2.450  0.0000E+00  0.0000E+00  0.7200E+02
  -2.440  0.0000E+00  0.0000E+00  0.7200E+02
  -2.430  0.0000E+00  0.0000E+00  0.7200E+02
  -2.420  0.0000E+00  0.0000E+00  0.7200E+02
  -2.410  0.0000E+00  0.0000E+00  0.7200E+02
  -2.400  0.0000E+00  0.0000E+00  0.7200E+02
  -2.390  0.0000E+00  0.0000E+00  0.7200E+02
  -2.380  0.0000E+00  0.0000E+00  0.7200E+02
  -2.370  0.0000E+00  0.0000E+00  0.7200E+02
  -2.360  0.0000E+00  0.0000E+00  0.7200E+02
  -2.350  0.0000E+00  0.0000E+00  0.7200E+02
  -2.340  0.0000E+00  0.0000E+00  0.7200E+02
  -2.330  0.0000E+00  0.0000E+00  0.7200E+02
  -2.320  0.0000E+00  0.0000E+00  0.7200E+02
  -2.310  0.0000E+00  0.0000E+00  0.7200E+02
  -2.300  0.0000E+00  0.0000E+00  0.7200E+02
  -2.290  0.0000E+00  0.0000E+00  0.7200E+02
  -2.280  0.0000E+00  0.0000E+00  0.7200E+02
  -2.270  0.0000E+00  0.0000E+00  0.7200E+02
  -2.260  0.0000E+00  0.0000E+00  0.7200E+02
  -2.250  0.0000E+00  0.0000E+00  0.7200E+02
  -2.240  0.0000E+00  0.0000E+00  0.7200E+02
  -2.230  0.0000E+00  0.0000E+00  0.7200E+02
  -2.220  0.0000E+00  0.0000E+00  0.7200E+02
  -2.210  0.0000E+00  0.0000E+00  0.7200E+02
  -2.200  0.0000E+00  0.0000E+00  0.7200E+02
  -2.190  0.0000E+00  0.0000E+00  0.7200E+02
  -2.180  0.0000E+00  0.0000E+00  0.7200E+02
  -2.170  0.0000E+00  0.0000E+00  0.7200E+02
  -2.160  0.0000E+00  0.0000E+00  0.7200E+02
  -2.150  0.0000E+00  0.0000E+00  0.7200E+02
  -2.140  0.0000E+00  0.0000E+00  0.7200E+02
  -2.130  0.0000E+00  0.0000E+00  0.7200E+02
  -2.120  0.0000E+00  0.0000E+00  0.7200E+02
  -2.110  0.0000E+00  0.0000E+00  0.7200E+02
  -2.100  0.0000E+00  0.0000E+00  0.7200E+02
  -2.090  0.0000E+00  0.0000E+00  0.7200E+02
  -2.080  0.0000E+00  0.0000E+00  0.7200E+02
  -2.070  0.0000E+00  0.0000E+00  0.7200E+02
  -2.060  0.0000E+00  0.0000E+00  0.7200E+02
  -2.050  0.0000E+00  0.0000E+00  0.7200E+02
  -2.040  0.0000E+00  0.0000E+00  0.7200E+02
  -2.030  0.0000E+00  0.0000E+00  0.7200E+02
  -2.020  0.0000E+00  0.0000E+00  0.7200E+02
  -2.010  0.0000E+00  0.0000E+00  0.7200E+02
  -2.000  0.0000E+00  0.0000E+00  0.7200E+02
  -1.990  0.0000E+00  0.0000E+00  0.7200E+02
  -1.980  0.0000E+00  0.0000E+00  0.7200E+02
  -1.970  0.0000E+00  0.0000E+00  0.7200E+02
  -1.960  0.0000E+00  0.0000E+00  0.7200E+02
  -1.950  0.0000E+00  0.0000E+00  0.7200E+02
  -1.940  0.0000E+00  0.0000E+00  0.7200E+02
  -1.930  0.0000E+00  0.0000E+00  0.7200E+02
  -1.920  0.0000E+00  0.0000E+00  0.7200E+02
  -1.910  0.0000E+00  0.0000E+00  0.7200E+02
  -1.900  0.0000E+00  0.0000E+00  0.7200E+02
  -1.890  0.0000E+00  0.0000E+00  0.7200E+02
  -1.880  0.0000E+00  0.0000E+00  0.7200E+02
  -1.870  0.0000E+00  0.0000E+00  0.7200E+02
  -1.860  0.0000E+00  0.0000E+00  0.7200E+02
  -1.850  0.0000E+00  0.0000E+00  0.7200E+02
  -1.840  0.0000E+00  0.0000E+00  0.7200E+02
  -1.830  0.0000E+00  0.0000E+00  0.7200E+02
  -1.820  0.0000E+00  0.0000E+00  0.7200E+02
  -1.810  0.0000E+00  0.0000E+00  0.7200E+02
  -1.800  0.0000E+00  0.0000E+00  0.7200E+02
  -1.790  0.0000E+00  0.0000E+00  0.7200E+02
  -1.780  0.0000E+00  0.0000E+00  0.7200E+02
  -1.770  0.0000E+00  0.0000E+00  0.7200E+02
  -1.760  0.0000E+00  0.0000E+00  0.7200E+02
  -1.750  0.0000E+00  0.0000E+00  0.7200E+02
  -1.740  0.0000E+00  0.0000E+00  0.7200E+02
  -1.730  0.0000E+00  0.0000E+00  0.7200E+02
  -1.720  0.0000E+00  0.0000E+00  0.7200E+02
  -1.710  0.0000E+00  0.0000E+00  0.7200E+02
  -1.700  0.0000E+00  0.0000E+00  0.7200E+02
  -1.690  0.0000E+00  0.0000E+00  0.7200E+02
  -1.680  0.0000E+00  0.0000E+00  0.7200E+02
  -1.670  0.0000E+00  0.0000E+00  0.7200E+02
  -1.660  0.0000E+00  0.0000E+00  0.7200E+02
  -1.650  0.0000E+00  0.0000E+00  0.7200E+02
  -1.640  0.0000E+00  0.0000E+00  0.7200E+02
  -1.630  0.0000E+00  0.0000E+00  0.7200E+02
  -1.620  0.0000E+00  0.0000E+00  0.7200E+02
  -1.610  0.0000E+00  0.0000E+00  0.7200E+02
  -1.600  0.0000E+00  0.0000E+00  0.7200E+02
  -1.590  0.0000E+00  0.0000E+00  0.7200E+02
  -1.580  0.0000E+00  0.0000E+00  0.7200E+02
  -1.570  0.0000E+00  0.0000E+00  0.7200E+02
  -1.560  0.0000E+00  0.0000E+00  0.7200E+02
  -1.550  0.0000E+00  0.0000E+00  0.7200E+02
  -1.540  0.0000E+00  0.0000E+00  0.7200E+02
  -1.530  0.0000E+00  0.0000E+00  0.7200E+02
  -1.520  0.0000E+00  0.0000E+00  0.7200E+02
  -1.510  0.0000E+00  0.0000E+00  0.7200E+02
  -1.500  0.0000E+00  0.0000E+00  0.7200E+02
  -1.490  0.0000E+00  0.0000E+00  0.7200E+02
  -1.480  0.0000E+00  0.0000E+00  0.7200E+02
  -1.470  0.0000E+00  0.0000E+00  0.7200E+02
  -1.460  0.0000E+00  0.0000E+00  0.7200E+02
  -1.450  0.0000E+00  0.0000E+00  0.7200E+02
  -1.440  0.0000E+00  0.0000E+00  0.7200E+02
  -1.430  0.0000E+00  0.0000E+00  0.7200E+02
  -1.420  0.0000E+00  0.0000E+00  0.7200E+02
  -1.410  0.0000E+00  0.0000E+00  0.7200E+02
  -1.400  0.0000E+00  0.0000E+00  0.7200E+02
  -1.390  0.0000E+00  0.0000E+00  0.7200E+02
  -1.380  0.0000E+00  0.0000E+00  0.7200E+02
  -1.370  0.0000E+00  0.0000E+00  0.7200E+02
  -1.360  0.0000E+00  0.0000E+00  0.7200E+02
  -1.350  0.0000E+00  0.0000E+00  0.7200E+02
  -1.340  0.0000E+00  0.0000E+00  0.7200E+02
  -1.330  0.0000E+00  0.0000E+00  0.7200E+02
  -1.320  0.0000E+00  0.0000E+00  0.7200E+02
  -1.310  0.0000E+00  0.0000E+00  0.7200E+02
  -1.300  0.0000E+00  0.0000E+00  0.7200E+02
  -1.290  0.0000E+00  0.0000E+00  0.7200E+02
  -1.280  0.0000E+00  0.0000E+00  0.7200E+02
  -1.270  0.0000E+00  0.0000E+00  0.7200E+02
  -1.260  0.0000E+00  0.0000E+00  0.7200E+02
  -1.250  0.0000E+00  0.0000E+00  0.7200E+02
  -1.240  0.0000E+00  0.0000E+00  0.7200E+02
  -1.230  0.0000E+00  0.0000E+00  0.7200E+02
  -1.220  0.0000E+00  0.0000E+00  0.7200E+02
  -1.210  0.0000E+00  0.0000E+00  0.7200E+02
  -1.200  0.0000E+00  0.0000E+00  0.7200E+02
  -1.190  0.0000E+00  0.0000E+00  0.7200E+02
  -1.180  0.0000E+00  0.0000E+00  0.7200E+02
  -1.170  0.0000E+00  0.0000E+00  0.7200E+02
  -1.160  0.0000E+00  0.0000E+00  0.7200E+02
  -1.150  0.0000E+00  0.0000E+00  0.7200E+02
  -1.140  0.0000E+00  0.0000E+00  0.7200E+02
  -1.130  0.0000E+00  0.0000E+00  0.7200E+02
  -1.120  0.0000E+00  0.0000E+00  0.7200E+02
  -1.110  0.0000E+00  0.0000E+00  0.7200E+02
  -1.100  0.0000E+00  0.0000E+00  0.7200E+02
  -1.090  0.0000E+00  0.0000E+00  0.7200E+02
  -1.080  0.0000E+00  0.0000E+00  0.7200E+02
  -1.070  0.0000E+00  0.0000E+00  0.7200E+02
  -1.060  0.0000E+00  0.0000E+00  0.7200E+02
  -1.050  0.0000E+00  0.0000E+00  0.7200E+02
  -1.040  0.0000E+00  0.0000E+00  0.7200E+02
  -1.030  0.0000E+00  0.0000E+00  0.7200E+02
  -1.020  0.0000E+00  0.0000E+00  0.7200E+02
  -1.010  0.0000E+00  0.0000E+00  0.7200E+02
  -1.000  0.0000E+00  0.0000E+00  0.7200E+02
  -0.990  0.0000E+00  0.0000E+00  0.7200E+02
  -0.980  0.0000E+00  0.0000E+00  0.7200E+02
  -0.970  0.0000E+00  0.0000E+00  0.7200E+02
  -0.960  0.0000E+00  0.0000E+00  0.7200E+02
  -0.950  0.0000E+00  0.0000E+00  0.7200E+02
  -0.940  0.0000E+00  0.0000E+00  0.7200E+02
  -0.930  0.0000E+00  0.0000E+00  0.7200E+02
  -0.920  0.0000E+00  0.0000E+00  0.7200E+02
  -0.910  0.0000E+00  0.0000E+00  0.7200E+02
  -0.900  0.0000E+00  0.0000E+00  0.7200E+02
  -0.890  0.0000E+00  0.0000E+00  0.7200E+02
  -0.880  0.0000E+00  0.0000E+00  0.7200E+02
  -0.870  0.0000E+00  0.0000E+00  0.7200E+02
  -0.860  0.0000E+00  0.0000E+00  0.7200E+02
  -0.850  0.0000E+00  0.0000E+00  0.7200E+02
  -0.840  0.0000E+00  0.0000E+00  0.7200E+02
  -0.830  0.0000E+00  0.0000E+00  0.7200E+02
  -0.820  0.0000E+00  0.0000E+00  0.7200E+02
  -0.810  0.0000E+00  0.0000E+00  0.7200E+02
  -0.800  0.0000E+00  0.0000E+00  0.7200E+02
  -0.790  0.0000E+00  0.0000E+00  0.7200E+02
  -0.780  0.0000E+00  0.0000E+00  0.7200E+02
  -0.770  0.0000E+00  0.0000E+00  0.7200E+02
  -0.760  0.0000E+00  0.0000E+00  0.7200E+02
  -0.750  0.0000E+00  0.0000E+00  0.7200E+02
  -0.740  0.0000E+00  0.0000E+00  0.7200E+02
  -0.730  0.0000E+00  0.0000E+00  0.7200E+02
  -0.720  0.0000E+00  0.0000E+00  0.7200E+02
  -0.710  0.0000E+00  0.0000E+00  0.7200E+02
  -0.700  0.0000E+00  0.0000E+00  0.7200E+02
  -0.690  0.5140E-02  0.0000E+00  0.7200E+02
  -0.680  0.7790E+01  0.1499E-02  0.7203E+02
  -0.670  0.2680E+02  0.8035E+01  0.7221E+02
  -0.660  0.8238E+02  0.2778E+02  0.7290E+02
  -0.650  0.1138E+03  0.8200E+02  0.7446E+02
  -0.640  0.1364E+03  0.1250E+03  0.7677E+02
  -0.630  0.1588E+03  0.1614E+03  0.7971E+02
  -0.620  0.1956E+03  0.2188E+03  0.8324E+02
  -0.610  0.2097E+03  0.2015E+03  0.8726E+02
  -0.600  0.2063E+03  0.2278E+03  0.9157E+02
  -0.590  0.1255E+03  0.1686E+03  0.9508E+02
  -0.580  0.2207E+03  0.1307E+03  0.9776E+02
  -0.570  0.4326E+03  0.2082E+03  0.1017E+03
  -0.560  0.3025E+03  0.3528E+03  0.1084E+03
  -0.550  0.3506E+03  0.3136E+03  0.1148E+03
  -0.540  0.2972E+03  0.2969E+03  0.1208E+03
  -0.530  0.3089E+03  0.3483E+03  0.1272E+03
  -0.520  0.3634E+03  0.3415E+03  0.1338E+03
  -0.510  0.3414E+03  0.3430E+03  0.1411E+03
  -0.500  0.3636E+03  0.2981E+03  0.1476E+03
  -0.490  0.6241E+03  0.6642E+03  0.1565E+03
  -0.480  0.2213E+03  0.2766E+03  0.1636E+03
  -0.470  0.1799E+03  0.1660E+03  0.1678E+03
  -0.460  0.2683E+03  0.2952E+03  0.1730E+03
  -0.450  0.2064E+03  0.4080E+03  0.1788E+03
  -0.440  0.1735E+03  0.1958E+03  0.1833E+03
  -0.430  0.1991E+03  0.1741E+03  0.1869E+03
  -0.420  0.1251E+03  0.1188E+03  0.1903E+03
  -0.410  0.1946E+03  0.1884E+03  0.1935E+03
  -0.400  0.2961E+03  0.1548E+03  0.1972E+03
  -0.390  0.1971E+03  0.2331E+03  0.2011E+03
  -0.380  0.1784E+03  0.2402E+03  0.2052E+03
  -0.370  0.1867E+03  0.1328E+03  0.2086E+03
  -0.360  0.8280E+02  0.1455E+03  0.2116E+03
  -0.350  0.1620E+03  0.9144E+02  0.2136E+03
  -0.340  0.1658E+03  0.1582E+03  0.2166E+03
  -0.330  0.1293E+03  0.1332E+03  0.2195E+03
  -0.320  0.1461E+03  0.1389E+03  0.2222E+03
  -0.310  0.1091E+03  0.1414E+03  0.2251E+03
  -0.300  0.1509E+03  0.1249E+03  0.2275E+03
  -0.290  0.1165E+03  0.1024E+03  0.2300E+03
  -0.280  0.8880E+02  0.9144E+02  0.2320E+03
  -0.270  0.1147E+03  0.1148E+03  0.2339E+03
  -0.260  0.1316E+03  0.1121E+03  0.2362E+03
  -0.250  0.1661E+03  0.1437E+03  0.2391E+03
  -0.240  0.1715E+03  0.1508E+03  0.2425E+03
  -0.230  0.2472E+03  0.2260E+03  0.2464E+03
  -0.220  0.1706E+03  0.2449E+03  0.2506E+03
  -0.210  0.1373E+03  0.1396E+03  0.2539E+03
  -0.200  0.3412E+03  0.4937E+03  0.2582E+03
  -0.190  0.3426E+03  0.4480E+03  0.2653E+03
  -0.180  0.1939E+03  0.3561E+03  0.2717E+03
  -0.170  0.2033E+03  0.1716E+03  0.2763E+03
  -0.160  0.2336E+03  0.1466E+03  0.2803E+03
  -0.150  0.1849E+03  0.8931E+02  0.2833E+03
  -0.140  0.3260E+03  0.3736E+03  0.2889E+03
  -0.130  0.2788E+03  0.3978E+03  0.2969E+03
  -0.120  0.2223E+03  0.2221E+03  0.3024E+03
  -0.110  0.2612E+03  0.2766E+03  0.3072E+03
  -0.100  0.4961E+03  0.4132E+03  0.3140E+03
  -0.090  0.4147E+03  0.4755E+03  0.3253E+03
  -0.080  0.3748E+03  0.3982E+03  0.3321E+03
  -0.070  0.2738E+03  0.2993E+03  0.3399E+03
  -0.060  0.2298E+03  0.2024E+03  0.3446E+03
  -0.050  0.3339E+03  0.1657E+03  0.3490E+03
  -0.040  0.6716E+02  0.9359E+02  0.3520E+03
  -0.030  0.5862E+02  0.7256E+02  0.3535E+03
  -0.020  0.9650E+02  0.6995E+02  0.3549E+03
  -0.010  0.8094E+02  0.8762E+02  0.3567E+03
   0.000  0.5246E+02  0.6802E+02  0.3582E+03
   0.010  0.4066E+02  0.4730E+02  0.3592E+03
   0.020  0.4522E+02  0.4383E+02  0.3600E+03
   0.030  0.7873E+02  0.5109E+02  0.3612E+03
   0.040  0.8212E+02  0.8434E+02  0.3628E+03
   0.050  0.3421E+02  0.5440E+02  0.3641E+03
   0.060  0.6016E+02  0.3644E+02  0.3651E+03
   0.070  0.5153E+02  0.6258E+02  0.3663E+03
   0.080  0.8081E+02  0.6002E+02  0.3675E+03
   0.090  0.4901E+02  0.6587E+02  0.3688E+03
   0.100  0.4594E+02  0.5555E+02  0.3699E+03
   0.110  0.5237E+02  0.3805E+02  0.3708E+03
   0.120  0.6871E+02  0.6434E+02  0.3719E+03
   0.130  0.6767E+02  0.6913E+02  0.3733E+03
   0.140  0.5437E+02  0.6321E+02  0.3746E+03
   0.150  0.5845E+02  0.5416E+02  0.3757E+03
   0.160  0.8193E+02  0.7366E+02  0.3770E+03
   0.170  0.6191E+02  0.7179E+02  0.3785E+03
   0.180  0.5121E+02  0.5706E+02  0.3797E+03
   0.190  0.3593E+02  0.4776E+02  0.3807E+03
   0.200  0.1899E+02  0.2696E+02  0.3813E+03
   0.210  0.1080E+02  0.1826E+02  0.3817E+03
   0.220  0.4366E+01  0.5901E+01  0.3819E+03
   0.230  0.1535E+01  0.2404E+01  0.3820E+03
   0.240  0.1649E+00  0.4620E+00  0.3820E+03
   0.250  0.0000E+00  0.1368E-02  0.3820E+03
   0.260  0.0000E+00  0.0000E+00  0.3820E+03
   0.270  0.0000E+00  0.0000E+00  0.3820E+03
   0.280  0.0000E+00  0.0000E+00  0.3820E+03
   0.290  0.0000E+00  0.0000E+00  0.3820E+03
   0.300  0.0000E+00  0.0000E+00  0.3820E+03
   0.310  0.0000E+00  0.0000E+00  0.3820E+03
   0.320  0.0000E+00  0.0000E+00  0.3820E+03
   0.330  0.0000E+00  0.0000E+00  0.3820E+03
   0.340  0.0000E+00  0.0000E+00  0.3820E+03
   0.350  0.0000E+00  0.0000E+00  0.3820E+03
   0.360  0.0000E+00  0.0000E+00  0.3820E+03
   0.370  0.0000E+00  0.0000E+00  0.3820E+03
   0.380  0.6074E-03  0.0000E+00  0.3820E+03
   0.390  0.8014E-02  0.3343E-05  0.3820E+03
   0.400  0.2832E-01  0.1036E-02  0.3820E+03
   0.410  0.6185E-01  0.8198E-02  0.3820E+03
   0.420  0.1094E+00  0.2673E-01  0.3820E+03
   0.430  0.1715E+00  0.5698E-01  0.3820E+03
   0.440  0.2481E+00  0.9898E-01  0.3820E+03
   0.450  0.3393E+00  0.1534E+00  0.3820E+03
   0.460  0.4450E+00  0.2208E+00  0.3820E+03
   0.470  0.5653E+00  0.3011E+00  0.3820E+03
   0.480  0.7001E+00  0.3944E+00  0.3820E+03
   0.490  0.8495E+00  0.5006E+00  0.3820E+03
   0.500  0.1034E+01  0.6197E+00  0.3821E+03
   0.510  0.1492E+01  0.7518E+00  0.3821E+03
   0.520  0.2124E+01  0.9045E+00  0.3821E+03
   0.530  0.3082E+01  0.1214E+01  0.3821E+03
   0.540  0.3976E+01  0.1744E+01  0.3822E+03
   0.550  0.4507E+01  0.2357E+01  0.3823E+03
   0.560  0.4686E+01  0.3273E+01  0.3823E+03
   0.570  0.4516E+01  0.3983E+01  0.3824E+03
   0.580  0.4043E+01  0.4363E+01  0.3825E+03
   0.590  0.3917E+01  0.4419E+01  0.3826E+03
   0.600  0.4203E+01  0.4154E+01  0.3827E+03
   0.610  0.4516E+01  0.3684E+01  0.3827E+03
   0.620  0.4829E+01  0.3642E+01  0.3828E+03
   0.630  0.5167E+01  0.3879E+01  0.3829E+03
   0.640  0.5522E+01  0.4136E+01  0.3830E+03
   0.650  0.5897E+01  0.4388E+01  0.3831E+03
   0.660  0.6292E+01  0.4661E+01  0.3832E+03
   0.670  0.6707E+01  0.4949E+01  0.3833E+03
   0.680  0.7128E+01  0.5253E+01  0.3835E+03
   0.690  0.7532E+01  0.5574E+01  0.3836E+03
   0.700  0.8135E+01  0.5911E+01  0.3837E+03
   0.710  0.9148E+01  0.6256E+01  0.3839E+03
   0.720  0.1061E+02  0.6576E+01  0.3840E+03
   0.730  0.1237E+02  0.6968E+01  0.3842E+03
   0.740  0.1400E+02  0.7766E+01  0.3844E+03
   0.750  0.1472E+02  0.9061E+01  0.3846E+03
   0.760  0.1476E+02  0.1071E+02  0.3849E+03
   0.770  0.1543E+02  0.1183E+02  0.3851E+03
   0.780  0.1507E+02  0.1247E+02  0.3854E+03
   0.790  0.1339E+02  0.1248E+02  0.3857E+03
   0.800  0.1409E+02  0.1270E+02  0.3860E+03
   0.810  0.1593E+02  0.1284E+02  0.3862E+03
   0.820  0.1639E+02  0.1201E+02  0.3865E+03
   0.830  0.1665E+02  0.1232E+02  0.3868E+03
   0.840  0.1662E+02  0.1225E+02  0.3871E+03
   0.850  0.1627E+02  0.1252E+02  0.3874E+03
   0.860  0.1548E+02  0.1276E+02  0.3877E+03
   0.870  0.1445E+02  0.1296E+02  0.3879E+03
   0.880  0.1410E+02  0.1315E+02  0.3882E+03
   0.890  0.1477E+02  0.1330E+02  0.3885E+03
   0.900  0.1505E+02  0.1344E+02  0.3888E+03
   0.910  0.1404E+02  0.1355E+02  0.3891E+03
   0.920  0.1333E+02  0.1363E+02  0.3893E+03
   0.930  0.2280E+02  0.1369E+02  0.3897E+03
   0.940  0.2761E+02  0.1372E+02  0.3900E+03
   0.950  0.3316E+02  0.1419E+02  0.3905E+03
   0.960  0.3902E+02  0.1595E+02  0.3910E+03
   0.970  0.3553E+02  0.1721E+02  0.3916E+03
   0.980  0.3615E+02  0.1818E+02  0.3921E+03
   0.990  0.2662E+02  0.1917E+02  0.3926E+03
   1.000  0.1468E+02  0.2056E+02  0.3930E+03
   1.010  0.3223E+02  0.2156E+02  0.3934E+03
   1.020  0.4806E+02  0.2677E+02  0.3942E+03
   1.030  0.3284E+02  0.3505E+02  0.3949E+03
   1.040  0.2103E+02  0.4301E+02  0.3955E+03
   1.050  0.3203E+02  0.3655E+02  0.3962E+03
   1.060  0.3470E+02  0.3483E+02  0.3969E+03
   1.070  0.4535E+02  0.2960E+02  0.3976E+03
   1.080  0.5689E+02  0.2976E+02  0.3984E+03
   1.090  0.7193E+02  0.3559E+02  0.3994E+03
   1.100  0.4736E+02  0.5214E+02  0.4004E+03
   1.110  0.7967E+02  0.6124E+02  0.4017E+03
   1.120  0.2212E+02  0.5950E+02  0.4026E+03
   1.130  0.4548E+02  0.5754E+02  0.4035E+03
   1.140  0.4372E+02  0.4560E+02  0.4045E+03
   1.150  0.3400E+02  0.5089E+02  0.4053E+03
   1.160  0.3720E+02  0.2805E+02  0.4062E+03
   1.170  0.4013E+02  0.2583E+02  0.4068E+03
   1.180  0.4013E+02  0.2967E+02  0.4075E+03
   1.190  0.6537E+02  0.1803E+02  0.4082E+03
   1.200  0.4258E+02  0.1079E+02  0.4090E+03
   1.210  0.1382E+02  0.1510E+02  0.4093E+03
   1.220  0.2476E+02  0.2275E+02  0.4097E+03
   1.230  0.2278E+02  0.2730E+02  0.4102E+03
   1.240  0.2344E+02  0.2880E+02  0.4107E+03
   1.250  0.2851E+02  0.2964E+02  0.4112E+03
   1.260  0.2149E+02  0.2914E+02  0.4118E+03
   1.270  0.1659E+02  0.2853E+02  0.4123E+03
   1.280  0.1570E+02  0.3038E+02  0.4127E+03
   1.290  0.1550E+02  0.3176E+02  0.4132E+03
   1.300  0.1797E+02  0.3162E+02  0.4137E+03
   1.310  0.1654E+02  0.2989E+02  0.4141E+03
   1.320  0.1543E+02  0.2721E+02  0.4146E+03
   1.330  0.1582E+02  0.2478E+02  0.4150E+03
   1.340  0.1755E+02  0.2312E+02  0.4154E+03
   1.350  0.1895E+02  0.2279E+02  0.4158E+03
   1.360  0.1891E+02  0.2341E+02  0.4162E+03
   1.370  0.1734E+02  0.2503E+02  0.4167E+03
   1.380  0.1592E+02  0.2761E+02  0.4171E+03
   1.390  0.1595E+02  0.2431E+02  0.4175E+03
   1.400  0.1888E+02  0.1983E+02  0.4179E+03
   1.410  0.1843E+02  0.1666E+02  0.4183E+03
   1.420  0.1764E+02  0.1469E+02  0.4186E+03
   1.430  0.1658E+02  0.1330E+02  0.4189E+03
   1.440  0.1543E+02  0.1243E+02  0.4192E+03
   1.450  0.1376E+02  0.1178E+02  0.4195E+03
   1.460  0.1323E+02  0.1154E+02  0.4197E+03
   1.470  0.1354E+02  0.1158E+02  0.4200E+03
   1.480  0.1056E+02  0.1172E+02  0.4202E+03
   1.490  0.1365E+02  0.1213E+02  0.4205E+03
   1.500  0.1629E+02  0.1298E+02  0.4207E+03
   1.510  0.1828E+02  0.1388E+02  0.4210E+03
   1.520  0.1983E+02  0.1461E+02  0.4214E+03
   1.530  0.2081E+02  0.1516E+02  0.4217E+03
   1.540  0.2088E+02  0.1555E+02  0.4221E+03
   1.550  0.1940E+02  0.1581E+02  0.4225E+03
   1.560  0.1443E+02  0.1588E+02  0.4228E+03
   1.570  0.1137E+02  0.1574E+02  0.4231E+03
   1.580  0.1099E+02  0.1538E+02  0.4233E+03
   1.590  0.1083E+02  0.1479E+02  0.4236E+03
   1.600  0.1082E+02  0.1394E+02  0.4238E+03
   1.610  0.1129E+02  0.1285E+02  0.4241E+03
   1.620  0.1207E+02  0.1162E+02  0.4243E+03
   1.630  0.1296E+02  0.1103E+02  0.4246E+03
   1.640  0.1380E+02  0.1090E+02  0.4248E+03
   1.650  0.1447E+02  0.1077E+02  0.4251E+03
   1.660  0.1502E+02  0.1060E+02  0.4253E+03
   1.670  0.1548E+02  0.1060E+02  0.4256E+03
   1.680  0.1671E+02  0.1056E+02  0.4258E+03
   1.690  0.1815E+02  0.1164E+02  0.4261E+03
   1.700  0.1943E+02  0.1170E+02  0.4264E+03
   1.710  0.1935E+02  0.1083E+02  0.4267E+03
   1.720  0.1803E+02  0.1133E+02  0.4270E+03
   1.730  0.1662E+02  0.1115E+02  0.4273E+03
   1.740  0.1531E+02  0.1057E+02  0.4276E+03
   1.750  0.1527E+02  0.9806E+01  0.4278E+03
   1.760  0.2064E+02  0.9687E+01  0.4281E+03
   1.770  0.2527E+02  0.9226E+01  0.4284E+03
   1.780  0.2619E+02  0.8068E+01  0.4288E+03
   1.790  0.2370E+02  0.6575E+01  0.4291E+03
   1.800  0.1905E+02  0.5134E+01  0.4294E+03
   1.810  0.9362E+01  0.4852E+01  0.4296E+03
   1.820  0.1035E+02  0.5148E+01  0.4297E+03
   1.830  0.1420E+02  0.5487E+01  0.4299E+03
   1.840  0.1610E+02  0.5835E+01  0.4301E+03
   1.850  0.1697E+02  0.6268E+01  0.4303E+03
   1.860  0.1675E+02  0.6839E+01  0.4306E+03
   1.870  0.1607E+02  0.7406E+01  0.4308E+03
   1.880  0.1447E+02  0.7943E+01  0.4310E+03
   1.890  0.1043E+02  0.8480E+01  0.4312E+03
   1.900  0.9689E+01  0.8989E+01  0.4314E+03
   1.910  0.9049E+01  0.9446E+01  0.4316E+03
   1.920  0.8381E+01  0.9999E+01  0.4318E+03
   1.930  0.7969E+01  0.1049E+02  0.4320E+03
   1.940  0.7867E+01  0.1083E+02  0.4322E+03
   1.950  0.7893E+01  0.1100E+02  0.4324E+03
   1.960  0.7987E+01  0.1101E+02  0.4325E+03
   1.970  0.8037E+01  0.1087E+02  0.4327E+03
   1.980  0.8068E+01  0.1059E+02  0.4329E+03
   1.990  0.8476E+01  0.1024E+02  0.4331E+03
   2.000  0.9028E+01  0.9844E+01  0.4333E+03
   2.010  0.9511E+01  0.9405E+01  0.4335E+03
   2.020  0.9689E+01  0.9033E+01  0.4337E+03
   2.030  0.1006E+02  0.8711E+01  0.4339E+03
   2.040  0.1019E+02  0.8427E+01  0.4340E+03
   2.050  0.1017E+02  0.8219E+01  0.4342E+03
   2.060  0.1019E+02  0.8037E+01  0.4344E+03
   2.070  0.1025E+02  0.7886E+01  0.4346E+03
   2.080  0.1035E+02  0.7807E+01  0.4348E+03
   2.090  0.1041E+02  0.7738E+01  0.4350E+03
   2.100  0.1039E+02  0.7713E+01  0.4351E+03
   2.110  0.1031E+02  0.7737E+01  0.4353E+03
   2.120  0.1014E+02  0.7714E+01  0.4355E+03
   2.130  0.9886E+01  0.7777E+01  0.4357E+03
   2.140  0.9571E+01  0.7873E+01  0.4359E+03
   2.150  0.9181E+01  0.7911E+01  0.4360E+03
   2.160  0.8722E+01  0.7892E+01  0.4362E+03
   2.170  0.8327E+01  0.7813E+01  0.4364E+03
   2.180  0.8008E+01  0.7674E+01  0.4365E+03
   2.190  0.7811E+01  0.7475E+01  0.4367E+03
   2.200  0.7723E+01  0.7217E+01  0.4368E+03
   2.210  0.7734E+01  0.6902E+01  0.4370E+03
   2.220  0.7830E+01  0.6507E+01  0.4371E+03
   2.230  0.7974E+01  0.6034E+01  0.4373E+03
   2.240  0.8111E+01  0.4814E+01  0.4374E+03
   2.250  0.8223E+01  0.5570E+01  0.4375E+03
   2.260  0.8327E+01  0.7524E+01  0.4377E+03
   2.270  0.8426E+01  0.6090E+01  0.4378E+03
   2.280  0.8527E+01  0.6201E+01  0.4380E+03
   2.290  0.8608E+01  0.6333E+01  0.4381E+03
   2.300  0.8652E+01  0.6467E+01  0.4383E+03
   2.310  0.8637E+01  0.6611E+01  0.4384E+03
   2.320  0.8586E+01  0.6741E+01  0.4386E+03
   2.330  0.8464E+01  0.6851E+01  0.4387E+03
   2.340  0.8108E+01  0.6931E+01  0.4389E+03
   2.350  0.7864E+01  0.6955E+01  0.4390E+03
   2.360  0.7645E+01  0.6944E+01  0.4392E+03
   2.370  0.7991E+01  0.6957E+01  0.4393E+03
   2.380  0.7996E+01  0.7005E+01  0.4395E+03
   2.390  0.7674E+01  0.7025E+01  0.4396E+03
   2.400  0.7532E+01  0.7017E+01  0.4398E+03
   2.410  0.7580E+01  0.6981E+01  0.4399E+03
   2.420  0.7594E+01  0.6917E+01  0.4401E+03
   2.430  0.7544E+01  0.6824E+01  0.4402E+03
   2.440  0.7430E+01  0.6707E+01  0.4403E+03
   2.450  0.7254E+01  0.6584E+01  0.4405E+03
   2.460  0.7016E+01  0.6423E+01  0.4406E+03
   2.470  0.6764E+01  0.6268E+01  0.4408E+03
   2.480  0.6561E+01  0.6350E+01  0.4409E+03
   2.490  0.6495E+01  0.6912E+01  0.4410E+03
   2.500  0.6445E+01  0.7364E+01  0.4412E+03
   2.510  0.6407E+01  0.7719E+01  0.4413E+03
   2.520  0.6382E+01  0.7923E+01  0.4414E+03
   2.530  0.6376E+01  0.8272E+01  0.4416E+03
   2.540  0.6649E+01  0.8627E+01  0.4417E+03
   2.550  0.6984E+01  0.9039E+01  0.4419E+03
   2.560  0.7300E+01  0.9525E+01  0.4420E+03
   2.570  0.7734E+01  0.1009E+02  0.4422E+03
   2.580  0.8255E+01  0.1063E+02  0.4424E+03
   2.590  0.9773E+01  0.1118E+02  0.4426E+03
   2.600  0.1076E+02  0.1170E+02  0.4428E+03
   2.610  0.1144E+02  0.1218E+02  0.4431E+03
   2.620  0.1203E+02  0.1265E+02  0.4433E+03
   2.630  0.1251E+02  0.1310E+02  0.4435E+03
   2.640  0.1297E+02  0.1354E+02  0.4438E+03
   2.650  0.1333E+02  0.1436E+02  0.4441E+03
   2.660  0.1362E+02  0.1691E+02  0.4444E+03
   2.670  0.1388E+02  0.1740E+02  0.4447E+03
   2.680  0.1420E+02  0.1679E+02  0.4450E+03
   2.690  0.1461E+02  0.1824E+02  0.4453E+03
   2.700  0.1502E+02  0.2061E+02  0.4456E+03
   2.710  0.1552E+02  0.2321E+02  0.4460E+03
   2.720  0.1649E+02  0.2570E+02  0.4464E+03
   2.730  0.1746E+02  0.2714E+02  0.4469E+03
   2.740  0.1841E+02  0.2793E+02  0.4473E+03
   2.750  0.1919E+02  0.3008E+02  0.4478E+03
   2.760  0.2010E+02  0.3287E+02  0.4483E+03
   2.770  0.2215E+02  0.3740E+02  0.4489E+03
   2.780  0.2468E+02  0.3912E+02  0.4495E+03
   2.790  0.2957E+02  0.3889E+02  0.4501E+03
   2.800  0.4205E+02  0.2318E+02  0.4509E+03
   2.810  0.3962E+02  0.2105E+02  0.4515E+03
   2.820  0.3338E+02  0.1839E+02  0.4521E+03
   2.830  0.3135E+02  0.1652E+02  0.4526E+03
   2.840  0.2784E+02  0.1508E+02  0.4530E+03
   2.850  0.2470E+02  0.1911E+02  0.4535E+03
   2.860  0.2041E+02  0.3400E+02  0.4540E+03
   2.870  0.1776E+02  0.3319E+02  0.4545E+03
   2.880  0.1611E+02  0.2913E+02  0.4550E+03
   2.890  0.1571E+02  0.3231E+02  0.4554E+03
   2.900  0.2147E+02  0.2075E+02  0.4559E+03
   2.910  0.2488E+02  0.1803E+02  0.4563E+03
   2.920  0.2253E+02  0.1949E+02  0.4567E+03
   2.930  0.1399E+02  0.2549E+02  0.4571E+03
   2.940  0.1518E+02  0.2510E+02  0.4575E+03
   2.950  0.1665E+02  0.1815E+02  0.4579E+03
   2.960  0.2465E+02  0.1403E+02  0.4582E+03
   2.970  0.2416E+02  0.1362E+02  0.4586E+03
   2.980  0.1878E+02  0.1347E+02  0.4590E+03
   2.990  0.1642E+02  0.1764E+02  0.4593E+03
   3.000  0.1685E+02  0.2200E+02  0.4597E+03
   3.010  0.1628E+02  0.2467E+02  0.4601E+03
   3.020  0.1587E+02  0.2620E+02  0.4605E+03
   3.030  0.1579E+02  0.2676E+02  0.4609E+03
   3.040  0.1601E+02  0.2654E+02  0.4613E+03
   3.050  0.1649E+02  0.2566E+02  0.4617E+03
   3.060  0.1749E+02  0.2451E+02  0.4622E+03
   3.070  0.1876E+02  0.2315E+02  0.4626E+03
   3.080  0.2157E+02  0.2231E+02  0.4630E+03
   3.090  0.2241E+02  0.2114E+02  0.4635E+03
   3.100  0.2423E+02  0.1971E+02  0.4639E+03
   3.110  0.2644E+02  0.2030E+02  0.4643E+03
   3.120  0.2866E+02  0.2019E+02  0.4648E+03
   3.130  0.3131E+02  0.2009E+02  0.4653E+03
   3.140  0.3339E+02  0.2011E+02  0.4658E+03
   3.150  0.3499E+02  0.2029E+02  0.4664E+03
   3.160  0.3586E+02  0.2033E+02  0.4669E+03
   3.170  0.3379E+02  0.1725E+02  0.4675E+03
   3.180  0.3104E+02  0.1524E+02  0.4680E+03
   3.190  0.3084E+02  0.1290E+02  0.4684E+03
   3.200  0.2529E+02  0.1535E+02  0.4689E+03
   3.210  0.2352E+02  0.1593E+02  0.4693E+03
   3.220  0.2234E+02  0.1639E+02  0.4697E+03
   3.230  0.2124E+02  0.1699E+02  0.4700E+03
   3.240  0.2066E+02  0.1775E+02  0.4704E+03
   3.250  0.2013E+02  0.1867E+02  0.4708E+03
   3.260  0.1947E+02  0.1983E+02  0.4712E+03
   3.270  0.1880E+02  0.3030E+02  0.4717E+03
   3.280  0.1829E+02  0.2575E+02  0.4721E+03
   3.290  0.1796E+02  0.3677E+02  0.4726E+03
   3.300  0.1750E+02  0.4061E+02  0.4732E+03
   3.310  0.1656E+02  0.3425E+02  0.4737E+03
   3.320  0.1643E+02  0.3620E+02  0.4742E+03
   3.330  0.1814E+02  0.3422E+02  0.4747E+03
   3.340  0.2242E+02  0.3330E+02  0.4753E+03
   3.350  0.2420E+02  0.3139E+02  0.4759E+03
   3.360  0.2585E+02  0.3100E+02  0.4764E+03
   3.370  0.2768E+02  0.3009E+02  0.4770E+03
   3.380  0.2863E+02  0.3089E+02  0.4776E+03
   3.390  0.2924E+02  0.2993E+02  0.4782E+03
   3.400  0.3016E+02  0.2909E+02  0.4788E+03
   3.410  0.3014E+02  0.2905E+02  0.4794E+03
   3.420  0.3002E+02  0.2919E+02  0.4800E+03
   3.430  0.2934E+02  0.2974E+02  0.4806E+03
   3.440  0.2928E+02  0.2876E+02  0.4812E+03
   3.450  0.2940E+02  0.2905E+02  0.4817E+03
   3.460  0.2909E+02  0.3008E+02  0.4823E+03
   3.470  0.2894E+02  0.3084E+02  0.4829E+03
   3.480  0.2906E+02  0.3085E+02  0.4835E+03
   3.490  0.2992E+02  0.2842E+02  0.4841E+03
   3.500  0.3100E+02  0.2828E+02  0.4847E+03
   3.510  0.3176E+02  0.2889E+02  0.4853E+03
   3.520  0.3259E+02  0.2926E+02  0.4859E+03
   3.530  0.3328E+02  0.2935E+02  0.4865E+03
   3.540  0.3375E+02  0.2950E+02  0.4872E+03
   3.550  0.3390E+02  0.2964E+02  0.4878E+03
   3.560  0.3366E+02  0.2860E+02  0.4884E+03
   3.570  0.3334E+02  0.2859E+02  0.4891E+03
   3.580  0.3300E+02  0.2936E+02  0.4897E+03
   3.590  0.3328E+02  0.3044E+02  0.4903E+03
   3.600  0.3381E+02  0.2994E+02  0.4909E+03
   3.610  0.3385E+02  0.2931E+02  0.4916E+03
   3.620  0.3448E+02  0.2991E+02  0.4922E+03
   3.630  0.3202E+02  0.3114E+02  0.4929E+03
   3.640  0.3099E+02  0.3183E+02  0.4935E+03
   3.650  0.3131E+02  0.3180E+02  0.4941E+03
   3.660  0.2919E+02  0.3131E+02  0.4947E+03
   3.670  0.2799E+02  0.3047E+02  0.4953E+03
   3.680  0.2838E+02  0.2942E+02  0.4959E+03
   3.690  0.2926E+02  0.2884E+02  0.4965E+03
   3.700  0.3078E+02  0.3064E+02  0.4971E+03
   3.710  0.2937E+02  0.3325E+02  0.4977E+03
   3.720  0.3042E+02  0.3023E+02  0.4983E+03
   3.730  0.2971E+02  0.2626E+02  0.4989E+03
   3.740  0.2591E+02  0.2416E+02  0.4995E+03
   3.750  0.2603E+02  0.2197E+02  0.4999E+03
   3.760  0.2656E+02  0.2265E+02  0.5004E+03
   3.770  0.2699E+02  0.2546E+02  0.5009E+03
   3.780  0.2601E+02  0.2845E+02  0.5015E+03
   3.790  0.2468E+02  0.2715E+02  0.5020E+03
   3.800  0.2377E+02  0.2875E+02  0.5025E+03
   3.810  0.2423E+02  0.3098E+02  0.5031E+03
   3.820  0.2616E+02  0.3271E+02  0.5036E+03
   3.830  0.2529E+02  0.3288E+02  0.5042E+03
   3.840  0.2599E+02  0.3324E+02  0.5048E+03
   3.850  0.2599E+02  0.3242E+02  0.5054E+03
   3.860  0.2699E+02  0.2835E+02  0.5060E+03
   3.870  0.2635E+02  0.2220E+02  0.5065E+03
   3.880  0.3746E+02  0.2904E+02  0.5071E+03
   3.890  0.4972E+02  0.4170E+02  0.5079E+03
   3.900  0.5706E+02  0.4616E+02  0.5089E+03
   3.910  0.4532E+02  0.4404E+02  0.5098E+03
   3.920  0.4054E+02  0.4066E+02  0.5107E+03
   3.930  0.3766E+02  0.3571E+02  0.5114E+03
   3.940  0.3351E+02  0.3136E+02  0.5121E+03
   3.950  0.3332E+02  0.3163E+02  0.5128E+03
   3.960  0.2844E+02  0.3610E+02  0.5134E+03
   3.970  0.2721E+02  0.3495E+02  0.5141E+03
   3.980  0.2669E+02  0.2864E+02  0.5146E+03
   3.990  0.2678E+02  0.2532E+02  0.5152E+03
   4.000  0.2582E+02  0.2399E+02  0.5157E+03
   4.010  0.2548E+02  0.2301E+02  0.5162E+03
   4.020  0.2410E+02  0.2153E+02  0.5166E+03
   4.030  0.2096E+02  0.2155E+02  0.5171E+03
   4.040  0.2035E+02  0.2197E+02  0.5175E+03
   4.050  0.2019E+02  0.2233E+02  0.5179E+03
   4.060  0.2051E+02  0.2242E+02  0.5184E+03
   4.070  0.2118E+02  0.2253E+02  0.5188E+03
   4.080  0.2203E+02  0.2342E+02  0.5192E+03
   4.090  0.2297E+02  0.2504E+02  0.5197E+03
   4.100  0.2375E+02  0.2697E+02  0.5202E+03
   4.110  0.2472E+02  0.2941E+02  0.5207E+03
   4.120  0.2589E+02  0.2577E+02  0.5213E+03
   4.130  0.2929E+02  0.2520E+02  0.5218E+03
   4.140  0.2966E+02  0.2613E+02  0.5223E+03
   4.150  0.2907E+02  0.2759E+02  0.5229E+03
   4.160  0.2987E+02  0.2926E+02  0.5235E+03
   4.170  0.3056E+02  0.3062E+02  0.5241E+03
   4.180  0.3216E+02  0.3235E+02  0.5247E+03
   4.190  0.3206E+02  0.3385E+02  0.5254E+03
   4.200  0.3222E+02  0.3400E+02  0.5260E+03
   4.210  0.3297E+02  0.3417E+02  0.5267E+03
   4.220  0.3406E+02  0.3308E+02  0.5274E+03
   4.230  0.3184E+02  0.3190E+02  0.5280E+03
   4.240  0.3157E+02  0.3118E+02  0.5287E+03
   4.250  0.3144E+02  0.3098E+02  0.5293E+03
   4.260  0.3114E+02  0.3119E+02  0.5299E+03
   4.270  0.3061E+02  0.3074E+02  0.5305E+03
   4.280  0.3035E+02  0.3121E+02  0.5311E+03
   4.290  0.3032E+02  0.3123E+02  0.5317E+03
   4.300  0.3136E+02  0.3161E+02  0.5324E+03
   4.310  0.3115E+02  0.3169E+02  0.5330E+03
   4.320  0.3021E+02  0.3074E+02  0.5336E+03
   4.330  0.3013E+02  0.3033E+02  0.5342E+03
   4.340  0.3058E+02  0.3036E+02  0.5348E+03
   4.350  0.3108E+02  0.3508E+02  0.5355E+03
   4.360  0.3256E+02  0.3341E+02  0.5361E+03
   4.370  0.3516E+02  0.3353E+02  0.5368E+03
   4.380  0.3792E+02  0.3356E+02  0.5375E+03
   4.390  0.4086E+02  0.3286E+02  0.5382E+03
   4.400  0.4138E+02  0.3230E+02  0.5390E+03
   4.410  0.4070E+02  0.3375E+02  0.5397E+03
   4.420  0.3625E+02  0.3164E+02  0.5404E+03
   4.430  0.3374E+02  0.3191E+02  0.5411E+03
   4.440  0.3031E+02  0.2805E+02  0.5417E+03
   4.450  0.2825E+02  0.2775E+02  0.5423E+03
   4.460  0.2697E+02  0.2794E+02  0.5428E+03
   4.470  0.2627E+02  0.2651E+02  0.5434E+03
   4.480  0.2557E+02  0.2552E+02  0.5439E+03
   4.490  0.2504E+02  0.2579E+02  0.5444E+03
   4.500  0.2371E+02  0.2546E+02  0.5449E+03
   4.510  0.2179E+02  0.2373E+02  0.5454E+03
   4.520  0.2004E+02  0.2254E+02  0.5458E+03
   4.530  0.1943E+02  0.2694E+02  0.5463E+03
   4.540  0.1987E+02  0.2882E+02  0.5467E+03
   4.550  0.2186E+02  0.2678E+02  0.5472E+03
   4.560  0.2272E+02  0.2711E+02  0.5477E+03
   4.570  0.2079E+02  0.2665E+02  0.5482E+03
   4.580  0.1964E+02  0.2631E+02  0.5487E+03
   4.590  0.2182E+02  0.3061E+02  0.5492E+03
   4.600  0.2252E+02  0.2638E+02  0.5496E+03
   4.610  0.2315E+02  0.2648E+02  0.5501E+03
   4.620  0.2408E+02  0.2534E+02  0.5506E+03
   4.630  0.2458E+02  0.2391E+02  0.5511E+03
   4.640  0.2549E+02  0.2447E+02  0.5516E+03
   4.650  0.2597E+02  0.2555E+02  0.5521E+03
   4.660  0.2661E+02  0.2536E+02  0.5526E+03
   4.670  0.2683E+02  0.2539E+02  0.5532E+03
   4.680  0.2723E+02  0.2697E+02  0.5537E+03
   4.690  0.2919E+02  0.2732E+02  0.5542E+03
   4.700  0.2950E+02  0.2768E+02  0.5548E+03
   4.710  0.2804E+02  0.2818E+02  0.5554E+03
   4.720  0.2567E+02  0.2858E+02  0.5559E+03
   4.730  0.2617E+02  0.2678E+02  0.5565E+03
   4.740  0.2877E+02  0.2593E+02  0.5570E+03
   4.750  0.2973E+02  0.2624E+02  0.5575E+03
   4.760  0.4082E+02  0.2736E+02  0.5581E+03
   4.770  0.5460E+02  0.3565E+02  0.5588E+03
   4.780  0.3322E+02  0.3793E+02  0.5596E+03
   4.790  0.2871E+02  0.4025E+02  0.5603E+03
   4.800  0.3233E+02  0.2995E+02  0.5609E+03
   4.810  0.3430E+02  0.2336E+02  0.5615E+03
   4.820  0.3260E+02  0.2120E+02  0.5621E+03
   4.830  0.2747E+02  0.1966E+02  0.5626E+03
   4.840  0.2639E+02  0.1855E+02  0.5631E+03
   4.850  0.2486E+02  0.1759E+02  0.5635E+03
   4.860  0.2294E+02  0.1680E+02  0.5639E+03
   4.870  0.2215E+02  0.1621E+02  0.5643E+03
   4.880  0.2095E+02  0.1578E+02  0.5647E+03
   4.890  0.2111E+02  0.1546E+02  0.5650E+03
   4.900  0.1964E+02  0.1523E+02  0.5654E+03
   4.910  0.1845E+02  0.1504E+02  0.5657E+03
   4.920  0.1808E+02  0.1483E+02  0.5661E+03
   4.930  0.1780E+02  0.1462E+02  0.5664E+03
   4.940  0.1739E+02  0.1474E+02  0.5667E+03
   4.950  0.1688E+02  0.1505E+02  0.5670E+03
   4.960  0.1632E+02  0.1428E+02  0.5673E+03
   4.970  0.1590E+02  0.1329E+02  0.5676E+03
   4.980  0.1580E+02  0.1353E+02  0.5679E+03
   4.990  0.1620E+02  0.1396E+02  0.5682E+03
   5.000  0.1692E+02  0.1546E+02  0.5685E+03
   5.010  0.1720E+02  0.1620E+02  0.5689E+03
   5.020  0.1673E+02  0.1524E+02  0.5692E+03
   5.030  0.1572E+02  0.1431E+02  0.5695E+03
   5.040  0.1494E+02  0.1490E+02  0.5698E+03
   5.050  0.1470E+02  0.1552E+02  0.5701E+03
   5.060  0.1458E+02  0.1779E+02  0.5704E+03
   5.070  0.1438E+02  0.1990E+02  0.5708E+03
   5.080  0.1408E+02  0.1705E+02  0.5711E+03
   5.090  0.1370E+02  0.1521E+02  0.5714E+03
   5.100  0.1309E+02  0.1297E+02  0.5717E+03
   5.110  0.1210E+02  0.1170E+02  0.5719E+03
   5.120  0.1148E+02  0.1052E+02  0.5721E+03
   5.130  0.1379E+02  0.9910E+01  0.5724E+03
   5.140  0.1573E+02  0.9387E+01  0.5726E+03
   5.150  0.1741E+02  0.8969E+01  0.5729E+03
   5.160  0.1894E+02  0.8465E+01  0.5731E+03
   5.170  0.1798E+02  0.7905E+01  0.5734E+03
   5.180  0.1281E+02  0.7430E+01  0.5736E+03
   5.190  0.1052E+02  0.7076E+01  0.5738E+03
   5.200  0.9208E+01  0.7737E+01  0.5740E+03
   5.210  0.8842E+01  0.9538E+01  0.5742E+03
   5.220  0.8416E+01  0.1339E+02  0.5744E+03
   5.230  0.7941E+01  0.9844E+01  0.5745E+03
   5.240  0.7417E+01  0.9792E+01  0.5747E+03
   5.250  0.6844E+01  0.1021E+02  0.5749E+03
   5.260  0.6239E+01  0.1069E+02  0.5751E+03
   5.270  0.5649E+01  0.1108E+02  0.5752E+03
   5.280  0.5401E+01  0.1142E+02  0.5754E+03
   5.290  0.5573E+01  0.1173E+02  0.5756E+03
   5.300  0.5854E+01  0.1182E+02  0.5757E+03
   5.310  0.5956E+01  0.1183E+02  0.5759E+03
   5.320  0.6162E+01  0.1145E+02  0.5761E+03
   5.330  0.7272E+01  0.1035E+02  0.5763E+03
   5.340  0.8779E+01  0.9308E+01  0.5765E+03
   5.350  0.1093E+02  0.8500E+01  0.5766E+03
   5.360  0.1414E+02  0.7679E+01  0.5768E+03
   5.370  0.1535E+02  0.6844E+01  0.5771E+03
   5.380  0.1473E+02  0.6047E+01  0.5773E+03
   5.390  0.1386E+02  0.5424E+01  0.5775E+03
   5.400  0.1299E+02  0.5315E+01  0.5777E+03
   5.410  0.1249E+02  0.5084E+01  0.5779E+03
   5.420  0.1138E+02  0.4515E+01  0.5780E+03
   5.430  0.1026E+02  0.3754E+01  0.5782E+03
   5.440  0.9136E+01  0.2786E+01  0.5783E+03
   5.450  0.7997E+01  0.1570E+01  0.5784E+03
   5.460  0.6833E+01  0.5069E+00  0.5785E+03
   5.470  0.5717E+01  0.2170E+00  0.5786E+03
   5.480  0.4947E+01  0.5828E-01  0.5786E+03
   5.490  0.4396E+01  0.4194E-02  0.5787E+03
   5.500  0.3880E+01  0.1037E-02  0.5787E+03
   5.510  0.3444E+01  0.2237E-03  0.5787E+03
   5.520  0.3116E+01  0.0000E+00  0.5788E+03
   5.530  0.3086E+01  0.0000E+00  0.5788E+03
   5.540  0.3323E+01  0.0000E+00  0.5788E+03
   5.550  0.3367E+01  0.0000E+00  0.5789E+03
   5.560  0.3230E+01  0.0000E+00  0.5789E+03
   5.570  0.2912E+01  0.0000E+00  0.5789E+03
   5.580  0.2414E+01  0.0000E+00  0.5790E+03
   5.590  0.1723E+01  0.0000E+00  0.5790E+03
   5.600  0.8794E+00  0.0000E+00  0.5790E+03
   5.610  0.3713E+00  0.0000E+00  0.5790E+03
   5.620  0.1861E+00  0.0000E+00  0.5790E+03
   5.630  0.6933E-01  0.0000E+00  0.5790E+03
   5.640  0.1077E-01  0.0000E+00  0.5790E+03
   5.650  0.9012E-03  0.0000E+00  0.5790E+03
   5.660  0.2533E-03  0.0000E+00  0.5790E+03
   5.670  0.7385E-05  0.0000E+00  0.5790E+03
   5.680  0.0000E+00  0.0000E+00  0.5790E+03
   5.690  0.0000E+00  0.0000E+00  0.5790E+03
   5.700  0.0000E+00  0.0000E+00  0.5790E+03
   5.710  0.0000E+00  0.0000E+00  0.5790E+03
   5.720  0.0000E+00  0.0000E+00  0.5790E+03
   5.730  0.0000E+00  0.0000E+00  0.5790E+03
   5.740  0.0000E+00  0.0000E+00  0.5790E+03
   5.750  0.0000E+00  0.0000E+00  0.5790E+03
   5.760  0.0000E+00  0.0000E+00  0.5790E+03
   5.770  0.0000E+00  0.0000E+00  0.5790E+03
   5.780  0.0000E+00  0.0000E+00  0.5790E+03
   5.790  0.0000E+00  0.0000E+00  0.5790E+03
   5.800  0.0000E+00  0.0000E+00  0.5790E+03
   5.810  0.0000E+00  0.0000E+00  0.5790E+03
   5.820  0.0000E+00  0.0000E+00  0.5790E+03
   5.830  0.0000E+00  0.0000E+00  0.5790E+03
   5.840  0.0000E+00  0.0000E+00  0.5790E+03
   5.850  0.0000E+00  0.0000E+00  0.5790E+03
   5.860  0.0000E+00  0.0000E+00  0.5790E+03
   5.870  0.0000E+00  0.0000E+00  0.5790E+03
   5.880  0.0000E+00  0.0000E+00  0.5790E+03
   5.890  0.0000E+00  0.0000E+00  0.5790E+03
   5.900  0.0000E+00  0.0000E+00  0.5790E+03
   5.910  0.0000E+00  0.0000E+00  0.5790E+03
   5.920  0.0000E+00  0.0000E+00  0.5790E+03
   5.930  0.0000E+00  0.0000E+00  0.5790E+03
   5.940  0.0000E+00  0.0000E+00  0.5790E+03
   5.950  0.0000E+00  0.0000E+00  0.5790E+03
   5.960  0.0000E+00  0.0000E+00  0.5790E+03
   5.970  0.0000E+00  0.0000E+00  0.5790E+03
   5.980  0.0000E+00  0.0000E+00  0.5790E+03
   5.990  0.0000E+00  0.0000E+00  0.5790E+03
   6.000  0.0000E+00  0.0000E+00  0.5790E+03
   6.010  0.0000E+00  0.0000E+00  0.5790E+03
   6.020  0.0000E+00  0.0000E+00  0.5790E+03
   6.030  0.0000E+00  0.0000E+00  0.5790E+03
   6.040  0.0000E+00  0.0000E+00  0.5790E+03
   6.050  0.0000E+00  0.0000E+00  0.5790E+03
   6.060  0.0000E+00  0.0000E+00  0.5790E+03
   6.070  0.0000E+00  0.0000E+00  0.5790E+03
   6.080  0.0000E+00  0.3638E-01  0.5790E+03
   6.090  0.0000E+00  0.1677E+02  0.5790E+03
   6.100  0.0000E+00  0.6426E+02  0.5795E+03
   6.110  0.0000E+00  0.5594E+02  0.5801E+03
   6.120  0.0000E+00  0.4523E+02  0.5807E+03
   6.130  0.0000E+00  0.9192E+01  0.5810E+03
   6.140  0.0000E+00  0.1025E+01  0.5810E+03
   6.150  0.0000E+00  0.0000E+00  0.5810E+03
   6.160  0.0000E+00  0.0000E+00  0.5810E+03
   6.170  0.0000E+00  0.0000E+00  0.5810E+03
   6.180  0.0000E+00  0.0000E+00  0.5810E+03
   6.190  0.0000E+00  0.0000E+00  0.5810E+03
   6.200  0.0000E+00  0.0000E+00  0.5810E+03
   6.210  0.0000E+00  0.0000E+00  0.5810E+03
   6.220  0.0000E+00  0.0000E+00  0.5810E+03
   6.230  0.0000E+00  0.0000E+00  0.5810E+03
   6.240  0.0000E+00  0.0000E+00  0.5810E+03
   6.250  0.0000E+00  0.0000E+00  0.5810E+03
   6.260  0.0000E+00  0.0000E+00  0.5810E+03
   6.270  0.0000E+00  0.0000E+00  0.5810E+03
   6.280  0.0000E+00  0.0000E+00  0.5810E+03
   6.290  0.0000E+00  0.0000E+00  0.5810E+03
   6.300  0.0000E+00  0.0000E+00  0.5810E+03
   6.310  0.0000E+00  0.0000E+00  0.5810E+03
   6.320  0.0000E+00  0.0000E+00  0.5810E+03
   6.330  0.0000E+00  0.0000E+00  0.5810E+03
   6.340  0.0000E+00  0.0000E+00  0.5810E+03
   6.350  0.0000E+00  0.0000E+00  0.5810E+03
   6.360  0.0000E+00  0.0000E+00  0.5810E+03
   6.370  0.0000E+00  0.0000E+00  0.5810E+03
   6.380  0.0000E+00  0.0000E+00  0.5810E+03
   6.390  0.0000E+00  0.0000E+00  0.5810E+03
   6.400  0.0000E+00  0.0000E+00  0.5810E+03
   6.410  0.0000E+00  0.0000E+00  0.5810E+03
   6.420  0.0000E+00  0.0000E+00  0.5810E+03
   6.430  0.0000E+00  0.0000E+00  0.5810E+03
   6.440  0.0000E+00  0.0000E+00  0.5810E+03
   6.450  0.0000E+00  0.0000E+00  0.5810E+03
   6.460  0.0000E+00  0.0000E+00  0.5810E+03
   6.470  0.0000E+00  0.0000E+00  0.5810E+03
   6.480  0.0000E+00  0.0000E+00  0.5810E+03
   6.490  0.0000E+00  0.0000E+00  0.5810E+03
   6.500  0.0000E+00  0.0000E+00  0.5810E+03
   6.510  0.0000E+00  0.0000E+00  0.5810E+03
   6.520  0.0000E+00  0.0000E+00  0.5810E+03
   6.530  0.0000E+00  0.0000E+00  0.5810E+03
   6.540  0.0000E+00  0.0000E+00  0.5810E+03
   6.550  0.0000E+00  0.0000E+00  0.5810E+03
   6.560  0.0000E+00  0.0000E+00  0.5810E+03
   6.570  0.0000E+00  0.2969E+00  0.5810E+03
   6.580  0.0000E+00  0.2201E+01  0.5810E+03
   6.590  0.0000E+00  0.7350E+01  0.5811E+03
   6.600  0.0000E+00  0.2008E+02  0.5812E+03
   6.610  0.0000E+00  0.2884E+02  0.5814E+03
   6.620  0.0000E+00  0.1871E+02  0.5817E+03
   6.630  0.0000E+00  0.1628E+02  0.5819E+03
   6.640  0.0000E+00  0.2411E+02  0.5821E+03
   6.650  0.0000E+00  0.2831E+02  0.5823E+03
   6.660  0.0000E+00  0.4435E+02  0.5827E+03
   6.670  0.0000E+00  0.5659E+02  0.5832E+03
   6.680  0.0000E+00  0.4804E+02  0.5838E+03
   6.690  0.0000E+00  0.4523E+01  0.5840E+03
   6.700  0.0000E+00  0.2877E-01  0.5840E+03
   6.710  0.0000E+00  0.5955E-05  0.5840E+03
   6.720  0.0000E+00  0.0000E+00  0.5840E+03
   6.730  0.0000E+00  0.0000E+00  0.5840E+03
   6.740  0.0000E+00  0.0000E+00  0.5840E+03
   6.750  0.0000E+00  0.0000E+00  0.5840E+03
   6.760  0.0000E+00  0.0000E+00  0.5840E+03
   6.770  0.0000E+00  0.0000E+00  0.5840E+03
   6.780  0.0000E+00  0.0000E+00  0.5840E+03
   6.790  0.0000E+00  0.0000E+00  0.5840E+03
   6.800  0.0000E+00  0.0000E+00  0.5840E+03
   6.810  0.0000E+00  0.0000E+00  0.5840E+03
   6.820  0.0000E+00  0.0000E+00  0.5840E+03
   6.830  0.0000E+00  0.0000E+00  0.5840E+03
   6.840  0.0000E+00  0.0000E+00  0.5840E+03
   6.850  0.0000E+00  0.0000E+00  0.5840E+03
   6.860  0.0000E+00  0.0000E+00  0.5840E+03
   6.870  0.0000E+00  0.0000E+00  0.5840E+03
   6.880  0.0000E+00  0.0000E+00  0.5840E+03
   6.890  0.0000E+00  0.0000E+00  0.5840E+03
   6.900  0.0000E+00  0.0000E+00  0.5840E+03
   6.910  0.0000E+00  0.0000E+00  0.5840E+03
   6.920  0.0000E+00  0.0000E+00  0.5840E+03
   6.930  0.0000E+00  0.0000E+00  0.5840E+03
   6.940  0.0000E+00  0.0000E+00  0.5840E+03
   6.950  0.0000E+00  0.0000E+00  0.5840E+03
   6.960  0.0000E+00  0.0000E+00  0.5840E+03
   6.970  0.0000E+00  0.0000E+00  0.5840E+03
   6.980  0.0000E+00  0.0000E+00  0.5840E+03
   6.990  0.0000E+00  0.0000E+00  0.5840E+03
   7.000  0.0000E+00  0.0000E+00  0.5840E+03
   7.010  0.0000E+00  0.0000E+00  0.5840E+03
   7.020  0.0000E+00  0.0000E+00  0.5840E+03
   7.030  0.0000E+00  0.0000E+00  0.5840E+03
   7.040  0.0000E+00  0.0000E+00  0.5840E+03
   7.050  0.0000E+00  0.0000E+00  0.5840E+03
   7.060  0.0000E+00  0.0000E+00  0.5840E+03
   7.070  0.0000E+00  0.0000E+00  0.5840E+03
   7.080  0.0000E+00  0.0000E+00  0.5840E+03
   7.090  0.0000E+00  0.0000E+00  0.5840E+03
   7.100  0.0000E+00  0.0000E+00  0.5840E+03
   7.110  0.0000E+00  0.0000E+00  0.5840E+03
   7.120  0.0000E+00  0.0000E+00  0.5840E+03
   7.130  0.0000E+00  0.0000E+00  0.5840E+03
   7.140  0.0000E+00  0.0000E+00  0.5840E+03
   7.150  0.0000E+00  0.0000E+00  0.5840E+03
   7.160  0.0000E+00  0.0000E+00  0.5840E+03
   7.170  0.0000E+00  0.0000E+00  0.5840E+03
   7.180  0.0000E+00  0.0000E+00  0.5840E+03
   7.190  0.0000E+00  0.0000E+00  0.5840E+03
   7.200  0.0000E+00  0.0000E+00  0.5840E+03
   7.210  0.0000E+00  0.0000E+00  0.5840E+03
   7.220  0.0000E+00  0.0000E+00  0.5840E+03
   7.230  0.0000E+00  0.0000E+00  0.5840E+03
   7.240  0.0000E+00  0.0000E+00  0.5840E+03
   7.250  0.0000E+00  0.0000E+00  0.5840E+03
   7.260  0.0000E+00  0.0000E+00  0.5840E+03
   7.270  0.0000E+00  0.0000E+00  0.5840E+03
   7.280  0.0000E+00  0.0000E+00  0.5840E+03
   7.290  0.0000E+00  0.0000E+00  0.5840E+03
   7.300  0.0000E+00  0.0000E+00  0.5840E+03
   7.310  0.0000E+00  0.0000E+00  0.5840E+03
   7.320  0.0000E+00  0.0000E+00  0.5840E+03
   7.330  0.0000E+00  0.0000E+00  0.5840E+03
   7.340  0.0000E+00  0.0000E+00  0.5840E+03
   7.350  0.0000E+00  0.0000E+00  0.5840E+03
   7.360  0.0000E+00  0.0000E+00  0.5840E+03
   7.370  0.0000E+00  0.0000E+00  0.5840E+03
   7.380  0.0000E+00  0.0000E+00  0.5840E+03
   7.390  0.0000E+00  0.0000E+00  0.5840E+03
   7.400  0.0000E+00  0.0000E+00  0.5840E+03
   7.410  0.0000E+00  0.0000E+00  0.5840E+03
   7.420  0.0000E+00  0.0000E+00  0.5840E+03
   7.430  0.0000E+00  0.0000E+00  0.5840E+03
   7.440  0.0000E+00  0.0000E+00  0.5840E+03
   7.450  0.0000E+00  0.0000E+00  0.5840E+03
   7.460  0.0000E+00  0.0000E+00  0.5840E+03
   7.470  0.0000E+00  0.0000E+00  0.5840E+03
   7.480  0.4052E-07  0.0000E+00  0.5840E+03
   7.490  0.3516E-04  0.0000E+00  0.5840E+03
   7.500  0.1359E-03  0.0000E+00  0.5840E+03
   7.510  0.3023E-03  0.8566E-05  0.5840E+03
   7.520  0.6215E-03  0.7314E-04  0.5840E+03
   7.530  0.1198E-02  0.2010E-03  0.5840E+03
   7.540  0.2032E-02  0.4151E-03  0.5840E+03
   7.550  0.3123E-02  0.8503E-03  0.5840E+03
   7.560  0.4471E-02  0.1529E-02  0.5840E+03
   7.570  0.6077E-02  0.2450E-02  0.5840E+03
   7.580  0.7941E-02  0.3614E-02  0.5840E+03
   7.590  0.1006E-01  0.5022E-02  0.5840E+03
   7.600  0.1244E-01  0.6672E-02  0.5840E+03
   7.610  0.1507E-01  0.8566E-02  0.5840E+03
   7.620  0.1797E-01  0.1070E-01  0.5840E+03
   7.630  0.2112E-01  0.1308E-01  0.5840E+03
   7.640  0.2453E-01  0.1570E-01  0.5840E+03
   7.650  0.2819E-01  0.1857E-01  0.5840E+03
   7.660  0.3211E-01  0.2168E-01  0.5840E+03
   7.670  0.3629E-01  0.2503E-01  0.5840E+03
   7.680  0.4073E-01  0.2863E-01  0.5840E+03
   7.690  0.4542E-01  0.3246E-01  0.5840E+03
   7.700  0.5038E-01  0.3655E-01  0.5840E+03
   7.710  0.5559E-01  0.4087E-01  0.5840E+03
   7.720  0.6105E-01  0.4544E-01  0.5840E+03
   7.730  0.6678E-01  0.5025E-01  0.5840E+03
   7.740  0.7276E-01  0.5530E-01  0.5840E+03
   7.750  0.7900E-01  0.6060E-01  0.5840E+03
   7.760  0.8549E-01  0.6614E-01  0.5840E+03
   7.770  0.9225E-01  0.7192E-01  0.5840E+03
   7.780  0.9926E-01  0.7794E-01  0.5840E+03
   7.790  0.1065E+00  0.8421E-01  0.5840E+03
   7.800  0.1141E+00  0.9072E-01  0.5840E+03
   7.810  0.1218E+00  0.9748E-01  0.5840E+03
   7.820  0.1299E+00  0.1045E+00  0.5840E+03
   7.830  0.1382E+00  0.1117E+00  0.5840E+03
   7.840  0.1467E+00  0.1192E+00  0.5840E+03
   7.850  0.1555E+00  0.1269E+00  0.5840E+03
   7.860  0.1646E+00  0.1349E+00  0.5840E+03
   7.870  0.1739E+00  0.1431E+00  0.5840E+03
   7.880  0.1835E+00  0.1516E+00  0.5840E+03
   7.890  0.1921E+00  0.1603E+00  0.5840E+03
   7.900  0.2015E+00  0.1692E+00  0.5840E+03
   7.910  0.2120E+00  0.1784E+00  0.5841E+03
   7.920  0.2238E+00  0.1871E+00  0.5841E+03
   7.930  0.2379E+00  0.1958E+00  0.5841E+03
   7.940  0.2521E+00  0.2056E+00  0.5841E+03
   7.950  0.2653E+00  0.2169E+00  0.5841E+03
   7.960  0.2779E+00  0.2300E+00  0.5841E+03
   7.970  0.2898E+00  0.2448E+00  0.5841E+03
   7.980  0.3013E+00  0.2587E+00  0.5841E+03
   7.990  0.3123E+00  0.2719E+00  0.5841E+03
   8.000  0.3229E+00  0.2843E+00  0.5841E+03
   8.010  0.3332E+00  0.2962E+00  0.5841E+03
   8.020  0.3433E+00  0.3076E+00  0.5841E+03
   8.030  0.3532E+00  0.3187E+00  0.5841E+03
   8.040  0.3628E+00  0.3294E+00  0.5841E+03
   8.050  0.3723E+00  0.3398E+00  0.5841E+03
   8.060  0.3815E+00  0.3500E+00  0.5841E+03
   8.070  0.3906E+00  0.3599E+00  0.5841E+03
   8.080  0.3994E+00  0.3697E+00  0.5842E+03
   8.090  0.4080E+00  0.3793E+00  0.5842E+03
   8.100  0.4165E+00  0.3887E+00  0.5842E+03
   8.110  0.4247E+00  0.3978E+00  0.5842E+03
   8.120  0.4327E+00  0.4068E+00  0.5842E+03
   8.130  0.4405E+00  0.4155E+00  0.5842E+03
   8.140  0.4482E+00  0.4241E+00  0.5842E+03
   8.150  0.4556E+00  0.4324E+00  0.5842E+03
   8.160  0.4628E+00  0.4406E+00  0.5842E+03
   8.170  0.4688E+00  0.4485E+00  0.5842E+03
   8.180  0.4725E+00  0.4563E+00  0.5842E+03
   8.190  0.4739E+00  0.4638E+00  0.5842E+03
   8.200  0.4733E+00  0.4708E+00  0.5843E+03
   8.210  0.4736E+00  0.4753E+00  0.5843E+03
   8.220  0.4752E+00  0.4775E+00  0.5843E+03
   8.230  0.4778E+00  0.4774E+00  0.5843E+03
   8.240  0.4812E+00  0.4769E+00  0.5843E+03
   8.250  0.4843E+00  0.4783E+00  0.5843E+03
   8.260  0.4871E+00  0.4805E+00  0.5843E+03
   8.270  0.4900E+00  0.4839E+00  0.5843E+03
   8.280  0.4933E+00  0.4872E+00  0.5843E+03
   8.290  0.4970E+00  0.4902E+00  0.5843E+03
   8.300  0.5012E+00  0.4931E+00  0.5844E+03
   8.310  0.5063E+00  0.4963E+00  0.5844E+03
   8.320  0.5123E+00  0.5000E+00  0.5844E+03
   8.330  0.5191E+00  0.5042E+00  0.5844E+03
   8.340  0.5269E+00  0.5093E+00  0.5844E+03
   8.350  0.5357E+00  0.5152E+00  0.5844E+03
   8.360  0.5461E+00  0.5221E+00  0.5844E+03
   8.370  0.5582E+00  0.5299E+00  0.5844E+03
   8.380  0.5712E+00  0.5388E+00  0.5844E+03
   8.390  0.5845E+00  0.5493E+00  0.5844E+03
   8.400  0.5980E+00  0.5616E+00  0.5845E+03
   8.410  0.6116E+00  0.5748E+00  0.5845E+03
   8.420  0.6254E+00  0.5883E+00  0.5845E+03
   8.430  0.6393E+00  0.6021E+00  0.5845E+03
   8.440  0.6531E+00  0.6160E+00  0.5845E+03
   8.450  0.6671E+00  0.6301E+00  0.5845E+03
   8.460  0.6813E+00  0.6443E+00  0.5845E+03
   8.470  0.6958E+00  0.6584E+00  0.5845E+03
   8.480  0.7105E+00  0.6727E+00  0.5846E+03
   8.490  0.7256E+00  0.6872E+00  0.5846E+03
   8.500  0.7411E+00  0.7020E+00  0.5846E+03
   8.510  0.7569E+00  0.7171E+00  0.5846E+03
   8.520  0.7731E+00  0.7325E+00  0.5846E+03
   8.530  0.7898E+00  0.7483E+00  0.5846E+03
   8.540  0.8070E+00  0.7645E+00  0.5846E+03
   8.550  0.8247E+00  0.7811E+00  0.5847E+03
   8.560  0.8430E+00  0.7982E+00  0.5847E+03
   8.570  0.8617E+00  0.8158E+00  0.5847E+03
   8.580  0.8810E+00  0.8340E+00  0.5847E+03
   8.590  0.9007E+00  0.8527E+00  0.5847E+03
   8.600  0.9210E+00  0.8719E+00  0.5847E+03
   8.610  0.9418E+00  0.8917E+00  0.5848E+03
   8.620  0.9631E+00  0.9119E+00  0.5848E+03
   8.630  0.9850E+00  0.9328E+00  0.5848E+03
   8.640  0.1007E+01  0.9541E+00  0.5848E+03
   8.650  0.1030E+01  0.9760E+00  0.5848E+03
   8.660  0.1054E+01  0.9984E+00  0.5849E+03
   8.670  0.1077E+01  0.1021E+01  0.5849E+03
   8.680  0.1102E+01  0.1045E+01  0.5849E+03
   8.690  0.1127E+01  0.1069E+01  0.5849E+03
   8.700  0.1152E+01  0.1093E+01  0.5850E+03
   8.710  0.1178E+01  0.1118E+01  0.5850E+03
   8.720  0.1204E+01  0.1144E+01  0.5850E+03
   8.730  0.1231E+01  0.1170E+01  0.5850E+03
   8.740  0.1259E+01  0.1197E+01  0.5850E+03
   8.750  0.1287E+01  0.1224E+01  0.5851E+03
   8.760  0.1313E+01  0.1252E+01  0.5851E+03
   8.770  0.1339E+01  0.1280E+01  0.5851E+03
   8.780  0.1383E+01  0.1309E+01  0.5851E+03
   8.790  0.1445E+01  0.1336E+01  0.5852E+03
   8.800  0.1526E+01  0.1363E+01  0.5852E+03
   8.810  0.1628E+01  0.1403E+01  0.5852E+03
   8.820  0.1746E+01  0.1464E+01  0.5853E+03
   8.830  0.1882E+01  0.1545E+01  0.5853E+03
   8.840  0.2037E+01  0.1648E+01  0.5853E+03
   8.850  0.2208E+01  0.1770E+01  0.5854E+03
   8.860  0.2390E+01  0.1907E+01  0.5854E+03
   8.870  0.2761E+01  0.2062E+01  0.5855E+03
   8.880  0.3438E+01  0.2231E+01  0.5855E+03
   8.890  0.5797E+01  0.2425E+01  0.5856E+03
   8.900  0.5698E+01  0.2773E+01  0.5857E+03
   8.910  0.5662E+01  0.3492E+01  0.5858E+03
   8.920  0.5723E+01  0.6292E+01  0.5859E+03
   8.930  0.6037E+01  0.5956E+01  0.5860E+03
   8.940  0.6408E+01  0.5861E+01  0.5861E+03
   8.950  0.6647E+01  0.5994E+01  0.5862E+03
   8.960  0.6814E+01  0.6463E+01  0.5864E+03
   8.970  0.6989E+01  0.6784E+01  0.5865E+03
   8.980  0.7084E+01  0.7009E+01  0.5866E+03
   8.990  0.7124E+01  0.7203E+01  0.5868E+03
   9.000  0.7156E+01  0.7294E+01  0.5869E+03
   9.010  0.7155E+01  0.7335E+01  0.5871E+03
   9.020  0.7207E+01  0.7363E+01  0.5872E+03
   9.030  0.7255E+01  0.7363E+01  0.5873E+03
   9.040  0.7291E+01  0.7353E+01  0.5875E+03
   9.050  0.7200E+01  0.7400E+01  0.5876E+03
   9.060  0.7022E+01  0.7406E+01  0.5878E+03
   9.070  0.6842E+01  0.7220E+01  0.5879E+03
   9.080  0.7538E+01  0.6979E+01  0.5881E+03
   9.090  0.7192E+01  0.6731E+01  0.5882E+03
   9.100  0.5469E+01  0.6570E+01  0.5883E+03
   9.110  0.5369E+01  0.7418E+01  0.5885E+03
   9.120  0.5622E+01  0.6187E+01  0.5886E+03
   9.130  0.5922E+01  0.5131E+01  0.5887E+03
   9.140  0.6237E+01  0.5343E+01  0.5888E+03
   9.150  0.6528E+01  0.5620E+01  0.5889E+03
   9.160  0.6771E+01  0.5914E+01  0.5891E+03
   9.170  0.7029E+01  0.6167E+01  0.5892E+03
   9.180  0.7316E+01  0.6378E+01  0.5893E+03
   9.190  0.7600E+01  0.6569E+01  0.5895E+03
   9.200  0.7883E+01  0.6833E+01  0.5896E+03
   9.210  0.8181E+01  0.7089E+01  0.5898E+03
   9.220  0.8463E+01  0.7344E+01  0.5899E+03
   9.230  0.8742E+01  0.7623E+01  0.5901E+03
   9.240  0.9027E+01  0.7924E+01  0.5902E+03
   9.250  0.9319E+01  0.8239E+01  0.5904E+03
   9.260  0.9620E+01  0.8553E+01  0.5906E+03
   9.270  0.9987E+01  0.8852E+01  0.5908E+03
   9.280  0.1034E+02  0.9148E+01  0.5910E+03
   9.290  0.1070E+02  0.9449E+01  0.5912E+03
   9.300  0.1107E+02  0.9758E+01  0.5914E+03
   9.310  0.1145E+02  0.1016E+02  0.5916E+03
   9.320  0.1185E+02  0.1056E+02  0.5918E+03
   9.330  0.1227E+02  0.1095E+02  0.5920E+03
   9.340  0.1271E+02  0.1134E+02  0.5923E+03
   9.350  0.1312E+02  0.1176E+02  0.5925E+03
   9.360  0.1354E+02  0.1220E+02  0.5928E+03
   9.370  0.1413E+02  0.1266E+02  0.5930E+03
   9.380  0.1472E+02  0.1314E+02  0.5933E+03
   9.390  0.1530E+02  0.1361E+02  0.5936E+03
   9.400  0.1591E+02  0.1408E+02  0.5939E+03
   9.410  0.1636E+02  0.1474E+02  0.5942E+03
   9.420  0.1665E+02  0.1545E+02  0.5945E+03
   9.430  0.1671E+02  0.1614E+02  0.5948E+03
   9.440  0.1655E+02  0.1696E+02  0.5952E+03
   9.450  0.1653E+02  0.1755E+02  0.5955E+03
   9.460  0.1674E+02  0.1793E+02  0.5958E+03
   9.470  0.1710E+02  0.1802E+02  0.5962E+03
   9.480  0.1746E+02  0.1778E+02  0.5965E+03
   9.490  0.1747E+02  0.1774E+02  0.5969E+03
   9.500  0.1640E+02  0.1806E+02  0.5972E+03
   9.510  0.1644E+02  0.1826E+02  0.5976E+03
   9.520  0.1809E+02  0.1679E+02  0.5979E+03
   9.530  0.1862E+02  0.1721E+02  0.5983E+03
   9.540  0.1923E+02  0.1657E+02  0.5987E+03
   9.550  0.1841E+02  0.1631E+02  0.5990E+03
   9.560  0.1655E+02  0.1798E+02  0.5994E+03
   9.570  0.1565E+02  0.1846E+02  0.5997E+03
   9.580  0.1469E+02  0.1725E+02  0.6000E+03
   9.590  0.1426E+02  0.1591E+02  0.6003E+03
   9.600  0.1420E+02  0.1540E+02  0.6006E+03
   9.610  0.1420E+02  0.1502E+02  0.6009E+03
   9.620  0.1427E+02  0.1490E+02  0.6012E+03
   9.630  0.1448E+02  0.1456E+02  0.6015E+03
   9.640  0.1519E+02  0.1449E+02  0.6018E+03
   9.650  0.1586E+02  0.1484E+02  0.6021E+03
   9.660  0.1626E+02  0.1512E+02  0.6024E+03
   9.670  0.1619E+02  0.1531E+02  0.6027E+03
   9.680  0.1555E+02  0.1586E+02  0.6030E+03
   9.690  0.1435E+02  0.1640E+02  0.6034E+03
   9.700  0.1284E+02  0.1668E+02  0.6037E+03
   9.710  0.1341E+02  0.1614E+02  0.6040E+03
   9.720  0.1568E+02  0.1383E+02  0.6043E+03
   9.730  0.1673E+02  0.1206E+02  0.6045E+03
   9.740  0.1755E+02  0.1268E+02  0.6048E+03
   9.750  0.1827E+02  0.1397E+02  0.6051E+03
   9.760  0.1894E+02  0.1536E+02  0.6055E+03
   9.770  0.1954E+02  0.1626E+02  0.6058E+03
   9.780  0.1999E+02  0.1690E+02  0.6062E+03
   9.790  0.2002E+02  0.1740E+02  0.6066E+03
   9.800  0.1971E+02  0.1793E+02  0.6069E+03
   9.810  0.1934E+02  0.1809E+02  0.6073E+03
   9.820  0.1893E+02  0.1826E+02  0.6077E+03
   9.830  0.1879E+02  0.1841E+02  0.6081E+03
   9.840  0.1877E+02  0.1856E+02  0.6084E+03
   9.850  0.1896E+02  0.1896E+02  0.6088E+03
   9.860  0.1959E+02  0.1925E+02  0.6092E+03
   9.870  0.2068E+02  0.1916E+02  0.6096E+03
   9.880  0.2846E+02  0.1922E+02  0.6100E+03
   9.890  0.3912E+02  0.1953E+02  0.6105E+03
   9.900  0.4806E+02  0.2302E+02  0.6112E+03
   9.910  0.4771E+02  0.3219E+02  0.6119E+03
   9.920  0.4771E+02  0.4195E+02  0.6128E+03
   9.930  0.4135E+02  0.4404E+02  0.6137E+03
   9.940  0.3221E+02  0.5004E+02  0.6145E+03
   9.950  0.2862E+02  0.5036E+02  0.6153E+03
   9.960  0.3489E+02  0.4459E+02  0.6161E+03
   9.970  0.2818E+02  0.4006E+02  0.6169E+03
   9.980  0.2992E+02  0.3677E+02  0.6175E+03
   9.990  0.3444E+02  0.3173E+02  0.6182E+03
  10.000  0.3360E+02  0.3018E+02  0.6188E+03
  10.010  0.3191E+02  0.3310E+02  0.6195E+03
  10.020  0.3219E+02  0.3263E+02  0.6201E+03
  10.030  0.3236E+02  0.3044E+02  0.6208E+03
  10.040  0.3237E+02  0.2996E+02  0.6214E+03
  10.050  0.3220E+02  0.3026E+02  0.6220E+03
  10.060  0.3186E+02  0.3059E+02  0.6226E+03
  10.070  0.3160E+02  0.3096E+02  0.6233E+03
  10.080  0.3140E+02  0.3137E+02  0.6239E+03
  10.090  0.3180E+02  0.3164E+02  0.6245E+03
  10.100  0.3282E+02  0.3165E+02  0.6252E+03
  10.110  0.3480E+02  0.3175E+02  0.6258E+03
  10.120  0.3589E+02  0.3194E+02  0.6265E+03
  10.130  0.3762E+02  0.3247E+02  0.6272E+03
  10.140  0.3404E+02  0.3207E+02  0.6279E+03
  10.150  0.3086E+02  0.3327E+02  0.6285E+03
  10.160  0.2894E+02  0.3208E+02  0.6292E+03
  10.170  0.2883E+02  0.3178E+02  0.6298E+03
  10.180  0.2868E+02  0.2957E+02  0.6304E+03
  10.190  0.2821E+02  0.2830E+02  0.6309E+03
  10.200  0.2719E+02  0.2781E+02  0.6315E+03
  10.210  0.2553E+02  0.2778E+02  0.6320E+03
  10.220  0.2356E+02  0.2732E+02  0.6326E+03
  10.230  0.2102E+02  0.2640E+02  0.6331E+03
  10.240  0.2037E+02  0.2504E+02  0.6335E+03
  10.250  0.1984E+02  0.2342E+02  0.6340E+03
  10.260  0.1940E+02  0.2159E+02  0.6344E+03
  10.270  0.1905E+02  0.2163E+02  0.6348E+03
  10.280  0.1891E+02  0.2149E+02  0.6352E+03
  10.290  0.1907E+02  0.2135E+02  0.6356E+03
  10.300  0.1915E+02  0.2129E+02  0.6360E+03
  10.310  0.1920E+02  0.2137E+02  0.6364E+03
  10.320  0.1926E+02  0.2134E+02  0.6368E+03
  10.330  0.1751E+02  0.2116E+02  0.6372E+03
  10.340  0.1905E+02  0.2084E+02  0.6376E+03
  10.350  0.2468E+02  0.1953E+02  0.6380E+03
  10.360  0.2644E+02  0.2253E+02  0.6385E+03
  10.370  0.2679E+02  0.2129E+02  0.6390E+03
  10.380  0.2799E+02  0.2413E+02  0.6395E+03
  10.390  0.2864E+02  0.2680E+02  0.6400E+03
  10.400  0.3017E+02  0.2728E+02  0.6406E+03
  10.410  0.2599E+02  0.3177E+02  0.6412E+03
  10.420  0.2463E+02  0.2780E+02  0.6417E+03
  10.430  0.2230E+02  0.2666E+02  0.6422E+03
  10.440  0.2020E+02  0.2534E+02  0.6427E+03
  10.450  0.1844E+02  0.2457E+02  0.6432E+03
  10.460  0.1732E+02  0.2057E+02  0.6436E+03
  10.470  0.1713E+02  0.1726E+02  0.6439E+03
  10.480  0.1745E+02  0.1604E+02  0.6443E+03
  10.490  0.1792E+02  0.1576E+02  0.6446E+03
  10.500  0.1817E+02  0.1608E+02  0.6449E+03
  10.510  0.1810E+02  0.1702E+02  0.6453E+03
  10.520  0.1791E+02  0.1868E+02  0.6456E+03
  10.530  0.1734E+02  0.1957E+02  0.6460E+03
  10.540  0.1687E+02  0.1884E+02  0.6464E+03
  10.550  0.1613E+02  0.1832E+02  0.6467E+03
  10.560  0.1553E+02  0.1809E+02  0.6471E+03
  10.570  0.1527E+02  0.1787E+02  0.6474E+03
  10.580  0.1509E+02  0.1664E+02  0.6477E+03
  10.590  0.1487E+02  0.1556E+02  0.6480E+03
  10.600  0.1497E+02  0.1475E+02  0.6483E+03
  10.610  0.1526E+02  0.1421E+02  0.6486E+03
  10.620  0.1543E+02  0.1409E+02  0.6489E+03
  10.630  0.1552E+02  0.1407E+02  0.6492E+03
  10.640  0.1576E+02  0.1421E+02  0.6495E+03
  10.650  0.1594E+02  0.1439E+02  0.6498E+03
  10.660  0.1636E+02  0.1451E+02  0.6501E+03
  10.670  0.1684E+02  0.1453E+02  0.6504E+03
  10.680  0.1716E+02  0.1469E+02  0.6507E+03
  10.690  0.1727E+02  0.1482E+02  0.6511E+03
  10.700  0.1770E+02  0.1535E+02  0.6514E+03
  10.710  0.1767E+02  0.1602E+02  0.6517E+03
  10.720  0.1757E+02  0.1767E+02  0.6521E+03
  10.730  0.1763E+02  0.1917E+02  0.6524E+03
  10.740  0.1804E+02  0.1849E+02  0.6528E+03
  10.750  0.1929E+02  0.1729E+02  0.6532E+03
  10.760  0.1939E+02  0.1600E+02  0.6535E+03
  10.770  0.1892E+02  0.1487E+02  0.6539E+03
  10.780  0.1849E+02  0.1513E+02  0.6542E+03
  10.790  0.1763E+02  0.1614E+02  0.6545E+03
  10.800  0.1655E+02  0.1767E+02  0.6549E+03
  10.810  0.1538E+02  0.1848E+02  0.6552E+03
  10.820  0.1438E+02  0.1805E+02  0.6556E+03
  10.830  0.1303E+02  0.1716E+02  0.6559E+03
  10.840  0.1031E+02  0.1628E+02  0.6562E+03
  10.850  0.9889E+01  0.1512E+02  0.6564E+03
  10.860  0.8293E+01  0.1451E+02  0.6567E+03
  10.870  0.7140E+01  0.1355E+02  0.6569E+03
  10.880  0.7345E+01  0.1250E+02  0.6571E+03
  10.890  0.1066E+02  0.1125E+02  0.6573E+03
  10.900  0.1397E+02  0.9536E+01  0.6575E+03
  10.910  0.1363E+02  0.7315E+01  0.6577E+03
  10.920  0.1337E+02  0.7295E+01  0.6579E+03
  10.930  0.1236E+02  0.1128E+02  0.6582E+03
  10.940  0.1170E+02  0.1156E+02  0.6584E+03
  10.950  0.1139E+02  0.1199E+02  0.6586E+03
  10.960  0.1116E+02  0.1222E+02  0.6589E+03
  10.970  0.1066E+02  0.1252E+02  0.6591E+03
  10.980  0.1250E+02  0.1284E+02  0.6593E+03
  10.990  0.9394E+01  0.1304E+02  0.6596E+03
  11.000  0.8831E+01  0.1302E+02  0.6598E+03
  11.010  0.1008E+02  0.1306E+02  0.6600E+03
  11.020  0.1139E+02  0.1320E+02  0.6603E+03
  11.030  0.1272E+02  0.1233E+02  0.6605E+03
  11.040  0.1412E+02  0.1105E+02  0.6608E+03
  11.050  0.1651E+02  0.1162E+02  0.6610E+03
  11.060  0.1921E+02  0.1271E+02  0.6613E+03
  11.070  0.2331E+02  0.1447E+02  0.6617E+03
  11.080  0.2721E+02  0.1639E+02  0.6621E+03
  11.090  0.2408E+02  0.2032E+02  0.6625E+03
  11.100  0.2209E+02  0.2137E+02  0.6630E+03
  11.110  0.2068E+02  0.2184E+02  0.6634E+03
  11.120  0.1894E+02  0.2148E+02  0.6638E+03
  11.130  0.1600E+02  0.1917E+02  0.6642E+03
  11.140  0.1235E+02  0.1853E+02  0.6645E+03
  11.150  0.1048E+02  0.1682E+02  0.6648E+03
  11.160  0.9110E+01  0.1497E+02  0.6651E+03
  11.170  0.8343E+01  0.1311E+02  0.6653E+03
  11.180  0.8084E+01  0.1137E+02  0.6655E+03
  11.190  0.7386E+01  0.9893E+01  0.6657E+03
  11.200  0.7178E+01  0.8658E+01  0.6658E+03
  11.210  0.7228E+01  0.7793E+01  0.6660E+03
  11.220  0.7216E+01  0.7388E+01  0.6661E+03
  11.230  0.7125E+01  0.7231E+01  0.6663E+03
  11.240  0.7033E+01  0.7113E+01  0.6664E+03
  11.250  0.6959E+01  0.7044E+01  0.6666E+03
  11.260  0.6918E+01  0.7018E+01  0.6667E+03
  11.270  0.7402E+01  0.7026E+01  0.6668E+03
  11.280  0.8006E+01  0.6602E+01  0.6670E+03
  11.290  0.8605E+01  0.6692E+01  0.6671E+03
  11.300  0.9192E+01  0.7086E+01  0.6673E+03
  11.310  0.9764E+01  0.7407E+01  0.6675E+03
  11.320  0.1032E+02  0.7441E+01  0.6676E+03
  11.330  0.1098E+02  0.7473E+01  0.6678E+03
  11.340  0.1114E+02  0.7550E+01  0.6680E+03
  11.350  0.1106E+02  0.7941E+01  0.6682E+03
  11.360  0.1108E+02  0.9207E+01  0.6684E+03
  11.370  0.1141E+02  0.1068E+02  0.6686E+03
  11.380  0.1221E+02  0.1256E+02  0.6688E+03
  11.390  0.1327E+02  0.1353E+02  0.6691E+03
  11.400  0.1458E+02  0.1441E+02  0.6694E+03
  11.410  0.1600E+02  0.1533E+02  0.6697E+03
  11.420  0.1764E+02  0.1651E+02  0.6700E+03
  11.430  0.1942E+02  0.1777E+02  0.6704E+03
  11.440  0.2140E+02  0.1905E+02  0.6707E+03
  11.450  0.2355E+02  0.2061E+02  0.6712E+03
  11.460  0.2560E+02  0.2252E+02  0.6716E+03
  11.470  0.2682E+02  0.2464E+02  0.6721E+03
  11.480  0.2786E+02  0.2703E+02  0.6727E+03
  11.490  0.2931E+02  0.2764E+02  0.6732E+03
  11.500  0.2975E+02  0.2810E+02  0.6738E+03
  11.510  0.2951E+02  0.2868E+02  0.6744E+03
  11.520  0.2933E+02  0.2956E+02  0.6750E+03
  11.530  0.2887E+02  0.2939E+02  0.6755E+03
  11.540  0.2771E+02  0.2886E+02  0.6761E+03
  11.550  0.2738E+02  0.2823E+02  0.6767E+03
  11.560  0.2464E+02  0.2710E+02  0.6772E+03
  11.570  0.2082E+02  0.2545E+02  0.6777E+03
  11.580  0.2159E+02  0.2386E+02  0.6782E+03
  11.590  0.2231E+02  0.2255E+02  0.6786E+03
  11.600  0.2253E+02  0.2475E+02  0.6791E+03
  11.610  0.2279E+02  0.1977E+02  0.6795E+03
  11.620  0.2307E+02  0.1986E+02  0.6800E+03
  11.630  0.2294E+02  0.2039E+02  0.6804E+03
  11.640  0.2384E+02  0.2071E+02  0.6808E+03
  11.650  0.2474E+02  0.2313E+02  0.6813E+03
  11.660  0.2925E+02  0.2145E+02  0.6818E+03
  11.670  0.2567E+02  0.2314E+02  0.6823E+03
  11.680  0.2634E+02  0.2458E+02  0.6828E+03
  11.690  0.2740E+02  0.2641E+02  0.6833E+03
  11.700  0.2865E+02  0.2661E+02  0.6839E+03
  11.710  0.3102E+02  0.2707E+02  0.6844E+03
  11.720  0.2826E+02  0.2825E+02  0.6850E+03
  11.730  0.2595E+02  0.2898E+02  0.6856E+03
  11.740  0.2607E+02  0.2684E+02  0.6861E+03
  11.750  0.2521E+02  0.2303E+02  0.6866E+03
  11.760  0.2288E+02  0.2183E+02  0.6871E+03
  11.770  0.2173E+02  0.2243E+02  0.6875E+03
  11.780  0.2188E+02  0.2762E+02  0.6880E+03
  11.790  0.2196E+02  0.2366E+02  0.6884E+03
  11.800  0.2111E+02  0.2231E+02  0.6889E+03
  11.810  0.2125E+02  0.2340E+02  0.6893E+03
  11.820  0.2078E+02  0.2237E+02  0.6898E+03
  11.830  0.2007E+02  0.2219E+02  0.6902E+03
  11.840  0.1914E+02  0.2196E+02  0.6906E+03
  11.850  0.1803E+02  0.2141E+02  0.6910E+03
  11.860  0.1695E+02  0.2071E+02  0.6914E+03
  11.870  0.1576E+02  0.1987E+02  0.6918E+03
  11.880  0.1486E+02  0.1896E+02  0.6921E+03
  11.890  0.1393E+02  0.1794E+02  0.6924E+03
  11.900  0.1292E+02  0.1687E+02  0.6928E+03
  11.910  0.1216E+02  0.1582E+02  0.6930E+03
  11.920  0.1080E+02  0.1476E+02  0.6933E+03
  11.930  0.9922E+01  0.1377E+02  0.6936E+03
  11.940  0.9001E+01  0.1282E+02  0.6938E+03
  11.950  0.8125E+01  0.1191E+02  0.6940E+03
  11.960  0.7374E+01  0.1094E+02  0.6942E+03
  11.970  0.6688E+01  0.1001E+02  0.6944E+03
  11.980  0.6673E+01  0.9141E+01  0.6945E+03
  11.990  0.6259E+01  0.8186E+01  0.6947E+03
  12.000  0.6076E+01  0.7864E+01  0.6948E+03
  12.010  0.5792E+01  0.7304E+01  0.6949E+03
  12.020  0.5409E+01  0.6799E+01  0.6951E+03
  12.030  0.4992E+01  0.6482E+01  0.6952E+03
  12.040  0.4535E+01  0.6026E+01  0.6953E+03
  12.050  0.4037E+01  0.5566E+01  0.6954E+03
  12.060  0.3490E+01  0.5099E+01  0.6955E+03
  12.070  0.2891E+01  0.4613E+01  0.6956E+03
  12.080  0.2344E+01  0.4095E+01  0.6956E+03
  12.090  0.2011E+01  0.3582E+01  0.6957E+03
  12.100  0.1722E+01  0.3054E+01  0.6958E+03
  12.110  0.1500E+01  0.2539E+01  0.6958E+03
  12.120  0.1294E+01  0.2109E+01  0.6958E+03
  12.130  0.1106E+01  0.1835E+01  0.6959E+03
  12.140  0.9324E+00  0.1548E+01  0.6959E+03
  12.150  0.7741E+00  0.1314E+01  0.6959E+03
  12.160  0.6307E+00  0.1099E+01  0.6959E+03
  12.170  0.5022E+00  0.9037E+00  0.6960E+03
  12.180  0.3885E+00  0.7279E+00  0.6960E+03
  12.190  0.2898E+00  0.5715E+00  0.6960E+03
  12.200  0.2059E+00  0.4346E+00  0.6960E+03
  12.210  0.1369E+00  0.3172E+00  0.6960E+03
  12.220  0.8283E-01  0.2192E+00  0.6960E+03
  12.230  0.4362E-01  0.1406E+00  0.6960E+03
  12.240  0.1859E-01  0.8155E-01  0.6960E+03
  12.250  0.5800E-02  0.4187E-01  0.6960E+03
  12.260  0.1316E-02  0.1977E-01  0.6960E+03
  12.270  0.4624E-04  0.9462E-02  0.6960E+03
  12.280  0.0000E+00  0.5002E-02  0.6960E+03
  12.290  0.0000E+00  0.2875E-02  0.6960E+03
  12.300  0.0000E+00  0.1442E-02  0.6960E+03
  12.310  0.0000E+00  0.5209E-03  0.6960E+03
  12.320  0.0000E+00  0.1034E-03  0.6960E+03
  12.330  0.0000E+00  0.0000E+00  0.6960E+03
  12.340  0.0000E+00  0.0000E+00  0.6960E+03
  12.350  0.0000E+00  0.0000E+00  0.6960E+03
  12.360  0.0000E+00  0.0000E+00  0.6960E+03
  12.370  0.0000E+00  0.0000E+00  0.6960E+03
  12.380  0.0000E+00  0.0000E+00  0.6960E+03
  12.390  0.0000E+00  0.0000E+00  0.6960E+03
  12.400  0.0000E+00  0.0000E+00  0.6960E+03
  12.410  0.0000E+00  0.0000E+00  0.6960E+03
  12.420  0.0000E+00  0.0000E+00  0.6960E+03
  12.430  0.0000E+00  0.0000E+00  0.6960E+03
  12.440  0.0000E+00  0.0000E+00  0.6960E+03
  12.450  0.0000E+00  0.0000E+00  0.6960E+03
  12.460  0.0000E+00  0.0000E+00  0.6960E+03
  12.470  0.0000E+00  0.0000E+00  0.6960E+03
  12.480  0.0000E+00  0.0000E+00  0.6960E+03
  12.490  0.0000E+00  0.0000E+00  0.6960E+03
  12.500  0.0000E+00  0.0000E+00  0.6960E+03
  12.510  0.0000E+00  0.0000E+00  0.6960E+03
  12.520  0.0000E+00  0.0000E+00  0.6960E+03
  12.530  0.0000E+00  0.0000E+00  0.6960E+03
  12.540  0.0000E+00  0.0000E+00  0.6960E+03
  12.550  0.0000E+00  0.0000E+00  0.6960E+03
  12.560  0.0000E+00  0.0000E+00  0.6960E+03
  12.570  0.0000E+00  0.0000E+00  0.6960E+03
  12.580  0.0000E+00  0.0000E+00  0.6960E+03
  12.590  0.0000E+00  0.0000E+00  0.6960E+03
  12.600  0.0000E+00  0.0000E+00  0.6960E+03
  12.610  0.0000E+00  0.0000E+00  0.6960E+03
  12.620  0.0000E+00  0.0000E+00  0.6960E+03
  12.630  0.0000E+00  0.0000E+00  0.6960E+03
  12.640  0.0000E+00  0.0000E+00  0.6960E+03
  12.650  0.0000E+00  0.0000E+00  0.6960E+03
  12.660  0.0000E+00  0.0000E+00  0.6960E+03
  12.670  0.0000E+00  0.0000E+00  0.6960E+03
  12.680  0.0000E+00  0.0000E+00  0.6960E+03
  12.690  0.0000E+00  0.0000E+00  0.6960E+03
  12.700  0.0000E+00  0.0000E+00  0.6960E+03
  12.710  0.0000E+00  0.0000E+00  0.6960E+03
  12.720  0.0000E+00  0.0000E+00  0.6960E+03
  12.730  0.0000E+00  0.0000E+00  0.6960E+03
  12.740  0.0000E+00  0.0000E+00  0.6960E+03
  12.750  0.0000E+00  0.0000E+00  0.6960E+03
  12.760  0.0000E+00  0.0000E+00  0.6960E+03
  12.770  0.0000E+00  0.0000E+00  0.6960E+03
  12.780  0.0000E+00  0.0000E+00  0.6960E+03
  12.790  0.0000E+00  0.0000E+00  0.6960E+03
  12.800  0.0000E+00  0.0000E+00  0.6960E+03
  12.810  0.0000E+00  0.0000E+00  0.6960E+03
  12.820  0.0000E+00  0.0000E+00  0.6960E+03
  12.830  0.0000E+00  0.0000E+00  0.6960E+03
  12.840  0.0000E+00  0.0000E+00  0.6960E+03
  12.850  0.0000E+00  0.0000E+00  0.6960E+03
  12.860  0.0000E+00  0.0000E+00  0.6960E+03
  12.870  0.0000E+00  0.0000E+00  0.6960E+03
  12.880  0.0000E+00  0.0000E+00  0.6960E+03
  12.890  0.0000E+00  0.0000E+00  0.6960E+03
  12.900  0.0000E+00  0.0000E+00  0.6960E+03
  12.910  0.0000E+00  0.0000E+00  0.6960E+03
  12.920  0.0000E+00  0.0000E+00  0.6960E+03
  12.930  0.0000E+00  0.0000E+00  0.6960E+03
  12.940  0.0000E+00  0.0000E+00  0.6960E+03
  12.950  0.0000E+00  0.0000E+00  0.6960E+03
  12.960  0.0000E+00  0.0000E+00  0.6960E+03
  12.970  0.0000E+00  0.0000E+00  0.6960E+03
  12.980  0.0000E+00  0.0000E+00  0.6960E+03
  12.990  0.0000E+00  0.0000E+00  0.6960E+03
  13.000  0.0000E+00  0.0000E+00  0.6960E+03
  13.010  0.0000E+00  0.0000E+00  0.6960E+03
  13.020  0.0000E+00  0.0000E+00  0.6960E+03
  13.030  0.0000E+00  0.0000E+00  0.6960E+03
  13.040  0.0000E+00  0.0000E+00  0.6960E+03
  13.050  0.0000E+00  0.0000E+00  0.6960E+03
  13.060  0.0000E+00  0.0000E+00  0.6960E+03
  13.070  0.0000E+00  0.0000E+00  0.6960E+03
  13.080  0.0000E+00  0.0000E+00  0.6960E+03
  13.090  0.0000E+00  0.0000E+00  0.6960E+03
  13.100  0.0000E+00  0.0000E+00  0.6960E+03
  13.110  0.0000E+00  0.0000E+00  0.6960E+03
  13.120  0.0000E+00  0.0000E+00  0.6960E+03
  13.130  0.0000E+00  0.0000E+00  0.6960E+03
  13.140  0.0000E+00  0.0000E+00  0.6960E+03
  13.150  0.0000E+00  0.0000E+00  0.6960E+03
  13.160  0.0000E+00  0.0000E+00  0.6960E+03
  13.170  0.0000E+00  0.0000E+00  0.6960E+03
  13.180  0.0000E+00  0.0000E+00  0.6960E+03
  13.190  0.0000E+00  0.0000E+00  0.6960E+03
  13.200  0.0000E+00  0.0000E+00  0.6960E+03
  13.210  0.0000E+00  0.0000E+00  0.6960E+03
  13.220  0.0000E+00  0.0000E+00  0.6960E+03
  13.230  0.0000E+00  0.0000E+00  0.6960E+03
  13.240  0.0000E+00  0.0000E+00  0.6960E+03
  13.250  0.0000E+00  0.0000E+00  0.6960E+03
  13.260  0.0000E+00  0.0000E+00  0.6960E+03
  13.270  0.0000E+00  0.0000E+00  0.6960E+03
  13.280  0.0000E+00  0.0000E+00  0.6960E+03
  13.290  0.0000E+00  0.0000E+00  0.6960E+03
  13.300  0.0000E+00  0.0000E+00  0.6960E+03
  13.310  0.0000E+00  0.0000E+00  0.6960E+03
  13.320  0.0000E+00  0.0000E+00  0.6960E+03
  13.330  0.0000E+00  0.0000E+00  0.6960E+03
  13.340  0.0000E+00  0.0000E+00  0.6960E+03
  13.350  0.0000E+00  0.0000E+00  0.6960E+03
  13.360  0.0000E+00  0.0000E+00  0.6960E+03
  13.370  0.0000E+00  0.0000E+00  0.6960E+03
  13.380  0.0000E+00  0.0000E+00  0.6960E+03
  13.390  0.0000E+00  0.0000E+00  0.6960E+03
  13.400  0.0000E+00  0.0000E+00  0.6960E+03
  13.410  0.0000E+00  0.0000E+00  0.6960E+03
  13.420  0.0000E+00  0.0000E+00  0.6960E+03
  13.430  0.0000E+00  0.0000E+00  0.6960E+03
  13.440  0.0000E+00  0.0000E+00  0.6960E+03
  13.450  0.0000E+00  0.0000E+00  0.6960E+03
  13.460  0.0000E+00  0.0000E+00  0.6960E+03
  13.470  0.0000E+00  0.0000E+00  0.6960E+03
  13.480  0.0000E+00  0.0000E+00  0.6960E+03
  13.490  0.0000E+00  0.0000E+00  0.6960E+03
  13.500  0.0000E+00  0.0000E+00  0.6960E+03
  13.510  0.0000E+00  0.0000E+00  0.6960E+03
  13.520  0.0000E+00  0.0000E+00  0.6960E+03
  13.530  0.0000E+00  0.0000E+00  0.6960E+03
  13.540  0.0000E+00  0.0000E+00  0.6960E+03
  13.550  0.0000E+00  0.0000E+00  0.6960E+03
  13.560  0.0000E+00  0.0000E+00  0.6960E+03
  13.570  0.0000E+00  0.0000E+00  0.6960E+03
  13.580  0.0000E+00  0.0000E+00  0.6960E+03
  13.590  0.0000E+00  0.0000E+00  0.6960E+03
  13.600  0.0000E+00  0.0000E+00  0.6960E+03
  13.610  0.0000E+00  0.0000E+00  0.6960E+03
  13.620  0.0000E+00  0.0000E+00  0.6960E+03
  13.630  0.0000E+00  0.0000E+00  0.6960E+03
  13.640  0.0000E+00  0.0000E+00  0.6960E+03
  13.650  0.0000E+00  0.0000E+00  0.6960E+03
  13.660  0.0000E+00  0.0000E+00  0.6960E+03
  13.670  0.0000E+00  0.0000E+00  0.6960E+03
  13.680  0.0000E+00  0.0000E+00  0.6960E+03
  13.690  0.0000E+00  0.0000E+00  0.6960E+03
  13.700  0.0000E+00  0.0000E+00  0.6960E+03
  13.710  0.0000E+00  0.0000E+00  0.6960E+03
  13.720  0.0000E+00  0.0000E+00  0.6960E+03
  13.730  0.0000E+00  0.0000E+00  0.6960E+03
  13.740  0.0000E+00  0.0000E+00  0.6960E+03
  13.750  0.0000E+00  0.0000E+00  0.6960E+03
  13.760  0.0000E+00  0.0000E+00  0.6960E+03
  13.770  0.0000E+00  0.0000E+00  0.6960E+03
  13.780  0.0000E+00  0.0000E+00  0.6960E+03
  13.790  0.0000E+00  0.0000E+00  0.6960E+03
  13.800  0.0000E+00  0.0000E+00  0.6960E+03
  13.810  0.0000E+00  0.0000E+00  0.6960E+03
  13.820  0.0000E+00  0.0000E+00  0.6960E+03
  13.830  0.0000E+00  0.0000E+00  0.6960E+03
  13.840  0.0000E+00  0.0000E+00  0.6960E+03
  13.850  0.0000E+00  0.0000E+00  0.6960E+03
  13.860  0.0000E+00  0.0000E+00  0.6960E+03
  13.870  0.0000E+00  0.0000E+00  0.6960E+03
  13.880  0.0000E+00  0.0000E+00  0.6960E+03
  13.890  0.0000E+00  0.0000E+00  0.6960E+03
  13.900  0.0000E+00  0.0000E+00  0.6960E+03
  13.910  0.0000E+00  0.0000E+00  0.6960E+03
  13.920  0.0000E+00  0.0000E+00  0.6960E+03
  13.930  0.0000E+00  0.0000E+00  0.6960E+03
  13.940  0.0000E+00  0.0000E+00  0.6960E+03
  13.950  0.0000E+00  0.0000E+00  0.6960E+03
  13.960  0.0000E+00  0.0000E+00  0.6960E+03
  13.970  0.0000E+00  0.0000E+00  0.6960E+03
  13.980  0.0000E+00  0.0000E+00  0.6960E+03
  13.990  0.0000E+00  0.0000E+00  0.6960E+03
  14.000  0.0000E+00  0.0000E+00  0.6960E+03
  14.010  0.0000E+00  0.0000E+00  0.6960E+03
  14.020  0.0000E+00  0.0000E+00  0.6960E+03
  14.030  0.0000E+00  0.0000E+00  0.6960E+03
  14.040  0.0000E+00  0.0000E+00  0.6960E+03
  14.050  0.0000E+00  0.0000E+00  0.6960E+03
  14.060  0.0000E+00  0.0000E+00  0.6960E+03
  14.070  0.0000E+00  0.0000E+00  0.6960E+03
  14.080  0.0000E+00  0.0000E+00  0.6960E+03
  14.090  0.0000E+00  0.0000E+00  0.6960E+03
  14.100  0.0000E+00  0.0000E+00  0.6960E+03
  14.110  0.0000E+00  0.0000E+00  0.6960E+03
  14.120  0.0000E+00  0.0000E+00  0.6960E+03
  14.130  0.0000E+00  0.0000E+00  0.6960E+03
  14.140  0.0000E+00  0.0000E+00  0.6960E+03
  14.150  0.0000E+00  0.0000E+00  0.6960E+03
  14.160  0.0000E+00  0.0000E+00  0.6960E+03
  14.170  0.0000E+00  0.0000E+00  0.6960E+03
  14.180  0.0000E+00  0.0000E+00  0.6960E+03
  14.190  0.0000E+00  0.0000E+00  0.6960E+03
  14.200  0.0000E+00  0.0000E+00  0.6960E+03
  14.210  0.0000E+00  0.0000E+00  0.6960E+03
  14.220  0.0000E+00  0.0000E+00  0.6960E+03
  14.230  0.0000E+00  0.0000E+00  0.6960E+03
  14.240  0.0000E+00  0.0000E+00  0.6960E+03
  14.250  0.0000E+00  0.0000E+00  0.6960E+03
  14.260  0.0000E+00  0.0000E+00  0.6960E+03
  14.270  0.0000E+00  0.0000E+00  0.6960E+03
  14.280  0.0000E+00  0.0000E+00  0.6960E+03
  14.290  0.0000E+00  0.0000E+00  0.6960E+03
  14.300  0.0000E+00  0.0000E+00  0.6960E+03
  14.310  0.0000E+00  0.0000E+00  0.6960E+03
  14.320  0.0000E+00  0.0000E+00  0.6960E+03
  14.330  0.0000E+00  0.0000E+00  0.6960E+03
  14.340  0.0000E+00  0.0000E+00  0.6960E+03
  14.350  0.0000E+00  0.0000E+00  0.6960E+03
  14.360  0.0000E+00  0.0000E+00  0.6960E+03
  14.370  0.0000E+00  0.0000E+00  0.6960E+03
  14.380  0.0000E+00  0.0000E+00  0.6960E+03
  14.390  0.0000E+00  0.0000E+00  0.6960E+03
  14.400  0.0000E+00  0.0000E+00  0.6960E+03
  14.410  0.0000E+00  0.0000E+00  0.6960E+03
  14.420  0.0000E+00  0.0000E+00  0.6960E+03
  14.430  0.0000E+00  0.0000E+00  0.6960E+03
  14.440  0.0000E+00  0.0000E+00  0.6960E+03
  14.450  0.0000E+00  0.0000E+00  0.6960E+03
  14.460  0.0000E+00  0.0000E+00  0.6960E+03
  14.470  0.0000E+00  0.0000E+00  0.6960E+03
  14.480  0.0000E+00  0.0000E+00  0.6960E+03
  14.490  0.0000E+00  0.0000E+00  0.6960E+03
  14.500  0.0000E+00  0.0000E+00  0.6960E+03
  14.510  0.0000E+00  0.0000E+00  0.6960E+03
  14.520  0.0000E+00  0.0000E+00  0.6960E+03
  14.530  0.0000E+00  0.0000E+00  0.6960E+03
  14.540  0.0000E+00  0.0000E+00  0.6960E+03
  14.550  0.0000E+00  0.0000E+00  0.6960E+03
  14.560  0.0000E+00  0.0000E+00  0.6960E+03
  14.570  0.0000E+00  0.0000E+00  0.6960E+03
  14.580  0.0000E+00  0.0000E+00  0.6960E+03
  14.590  0.0000E+00  0.0000E+00  0.6960E+03
  14.600  0.0000E+00  0.0000E+00  0.6960E+03
  14.610  0.0000E+00  0.0000E+00  0.6960E+03
  14.620  0.0000E+00  0.0000E+00  0.6960E+03
  14.630  0.0000E+00  0.0000E+00  0.6960E+03
  14.640  0.0000E+00  0.0000E+00  0.6960E+03
  14.650  0.0000E+00  0.0000E+00  0.6960E+03
  14.660  0.0000E+00  0.0000E+00  0.6960E+03
  14.670  0.0000E+00  0.0000E+00  0.6960E+03
  14.680  0.0000E+00  0.0000E+00  0.6960E+03
  14.690  0.0000E+00  0.0000E+00  0.6960E+03
  14.700  0.0000E+00  0.0000E+00  0.6960E+03
  14.710  0.0000E+00  0.0000E+00  0.6960E+03
  14.720  0.0000E+00  0.0000E+00  0.6960E+03
  14.730  0.0000E+00  0.0000E+00  0.6960E+03
  14.740  0.0000E+00  0.0000E+00  0.6960E+03
  14.750  0.0000E+00  0.0000E+00  0.6960E+03
  14.760  0.0000E+00  0.0000E+00  0.6960E+03
  14.770  0.0000E+00  0.0000E+00  0.6960E+03
  14.780  0.0000E+00  0.0000E+00  0.6960E+03
  14.790  0.0000E+00  0.0000E+00  0.6960E+03
  14.800  0.0000E+00  0.0000E+00  0.6960E+03
  14.810  0.0000E+00  0.0000E+00  0.6960E+03
  14.820  0.0000E+00  0.0000E+00  0.6960E+03
  14.830  0.0000E+00  0.0000E+00  0.6960E+03
  14.840  0.0000E+00  0.0000E+00  0.6960E+03
  14.850  0.0000E+00  0.0000E+00  0.6960E+03
  14.860  0.0000E+00  0.0000E+00  0.6960E+03
  14.870  0.0000E+00  0.0000E+00  0.6960E+03
  14.880  0.0000E+00  0.0000E+00  0.6960E+03
  14.890  0.0000E+00  0.0000E+00  0.6960E+03
  14.900  0.0000E+00  0.0000E+00  0.6960E+03
  14.910  0.0000E+00  0.0000E+00  0.6960E+03
  14.920  0.0000E+00  0.0000E+00  0.6960E+03
  14.930  0.0000E+00  0.0000E+00  0.6960E+03
  14.940  0.0000E+00  0.0000E+00  0.6960E+03
  14.950  0.0000E+00  0.0000E+00  0.6960E+03
  14.960  0.0000E+00  0.0000E+00  0.6960E+03
  14.970  0.0000E+00  0.0000E+00  0.6960E+03
  14.980  0.0000E+00  0.0000E+00  0.6960E+03
  14.990  0.0000E+00  0.0000E+00  0.6960E+03
  15.000  0.0000E+00  0.0000E+00  0.6960E+03
