#  E (eV)   dosup(E)     dosdw(E)   Int dos(E) EFermi =    5.616 eV
 -15.000  0.0000E+00  0.0000E+00  0.8000E+01
 -14.990  0.0000E+00  0.0000E+00  0.8000E+01
 -14.980  0.0000E+00  0.0000E+00  0.8000E+01
 -14.970  0.0000E+00  0.0000E+00  0.8000E+01
 -14.960  0.0000E+00  0.0000E+00  0.8000E+01
 -14.950  0.0000E+00  0.0000E+00  0.8000E+01
 -14.940  0.0000E+00  0.0000E+00  0.8000E+01
 -14.930  0.0000E+00  0.0000E+00  0.8000E+01
 -14.920  0.0000E+00  0.0000E+00  0.8000E+01
 -14.910  0.0000E+00  0.0000E+00  0.8000E+01
 -14.900  0.0000E+00  0.0000E+00  0.8000E+01
 -14.890  0.0000E+00  0.0000E+00  0.8000E+01
 -14.880  0.0000E+00  0.0000E+00  0.8000E+01
 -14.870  0.0000E+00  0.0000E+00  0.8000E+01
 -14.860  0.0000E+00  0.0000E+00  0.8000E+01
 -14.850  0.0000E+00  0.0000E+00  0.8000E+01
 -14.840  0.0000E+00  0.0000E+00  0.8000E+01
 -14.830  0.0000E+00  0.0000E+00  0.8000E+01
 -14.820  0.0000E+00  0.0000E+00  0.8000E+01
 -14.810  0.0000E+00  0.0000E+00  0.8000E+01
 -14.800  0.0000E+00  0.0000E+00  0.8000E+01
 -14.790  0.0000E+00  0.0000E+00  0.8000E+01
 -14.780  0.0000E+00  0.0000E+00  0.8000E+01
 -14.770  0.0000E+00  0.0000E+00  0.8000E+01
 -14.760  0.0000E+00  0.0000E+00  0.8000E+01
 -14.750  0.0000E+00  0.0000E+00  0.8000E+01
 -14.740  0.0000E+00  0.0000E+00  0.8000E+01
 -14.730  0.0000E+00  0.0000E+00  0.8000E+01
 -14.720  0.0000E+00  0.0000E+00  0.8000E+01
 -14.710  0.0000E+00  0.0000E+00  0.8000E+01
 -14.700  0.0000E+00  0.0000E+00  0.8000E+01
 -14.690  0.0000E+00  0.0000E+00  0.8000E+01
 -14.680  0.0000E+00  0.0000E+00  0.8000E+01
 -14.670  0.0000E+00  0.0000E+00  0.8000E+01
 -14.660  0.0000E+00  0.0000E+00  0.8000E+01
 -14.650  0.0000E+00  0.0000E+00  0.8000E+01
 -14.640  0.0000E+00  0.0000E+00  0.8000E+01
 -14.630  0.0000E+00  0.0000E+00  0.8000E+01
 -14.620  0.0000E+00  0.0000E+00  0.8000E+01
 -14.610  0.0000E+00  0.0000E+00  0.8000E+01
 -14.600  0.0000E+00  0.0000E+00  0.8000E+01
 -14.590  0.0000E+00  0.0000E+00  0.8000E+01
 -14.580  0.0000E+00  0.0000E+00  0.8000E+01
 -14.570  0.0000E+00  0.0000E+00  0.8000E+01
 -14.560  0.0000E+00  0.0000E+00  0.8000E+01
 -14.550  0.0000E+00  0.0000E+00  0.8000E+01
 -14.540  0.0000E+00  0.0000E+00  0.8000E+01
 -14.530  0.0000E+00  0.0000E+00  0.8000E+01
 -14.520  0.0000E+00  0.0000E+00  0.8000E+01
 -14.510  0.0000E+00  0.0000E+00  0.8000E+01
 -14.500  0.0000E+00  0.0000E+00  0.8000E+01
 -14.490  0.0000E+00  0.0000E+00  0.8000E+01
 -14.480  0.0000E+00  0.0000E+00  0.8000E+01
 -14.470  0.0000E+00  0.0000E+00  0.8000E+01
 -14.460  0.0000E+00  0.0000E+00  0.8000E+01
 -14.450  0.0000E+00  0.0000E+00  0.8000E+01
 -14.440  0.0000E+00  0.0000E+00  0.8000E+01
 -14.430  0.0000E+00  0.0000E+00  0.8000E+01
 -14.420  0.0000E+00  0.0000E+00  0.8000E+01
 -14.410  0.0000E+00  0.0000E+00  0.8000E+01
 -14.400  0.0000E+00  0.0000E+00  0.8000E+01
 -14.390  0.0000E+00  0.0000E+00  0.8000E+01
 -14.380  0.0000E+00  0.0000E+00  0.8000E+01
 -14.370  0.0000E+00  0.0000E+00  0.8000E+01
 -14.360  0.0000E+00  0.0000E+00  0.8000E+01
 -14.350  0.0000E+00  0.0000E+00  0.8000E+01
 -14.340  0.0000E+00  0.0000E+00  0.8000E+01
 -14.330  0.0000E+00  0.0000E+00  0.8000E+01
 -14.320  0.0000E+00  0.0000E+00  0.8000E+01
 -14.310  0.0000E+00  0.0000E+00  0.8000E+01
 -14.300  0.0000E+00  0.0000E+00  0.8000E+01
 -14.290  0.0000E+00  0.0000E+00  0.8000E+01
 -14.280  0.0000E+00  0.0000E+00  0.8000E+01
 -14.270  0.0000E+00  0.0000E+00  0.8000E+01
 -14.260  0.0000E+00  0.0000E+00  0.8000E+01
 -14.250  0.0000E+00  0.0000E+00  0.8000E+01
 -14.240  0.0000E+00  0.0000E+00  0.8000E+01
 -14.230  0.0000E+00  0.0000E+00  0.8000E+01
 -14.220  0.0000E+00  0.0000E+00  0.8000E+01
 -14.210  0.0000E+00  0.0000E+00  0.8000E+01
 -14.200  0.0000E+00  0.0000E+00  0.8000E+01
 -14.190  0.0000E+00  0.0000E+00  0.8000E+01
 -14.180  0.0000E+00  0.0000E+00  0.8000E+01
 -14.170  0.0000E+00  0.0000E+00  0.8000E+01
 -14.160  0.0000E+00  0.0000E+00  0.8000E+01
 -14.150  0.0000E+00  0.0000E+00  0.8000E+01
 -14.140  0.0000E+00  0.0000E+00  0.8000E+01
 -14.130  0.0000E+00  0.0000E+00  0.8000E+01
 -14.120  0.0000E+00  0.0000E+00  0.8000E+01
 -14.110  0.0000E+00  0.0000E+00  0.8000E+01
 -14.100  0.0000E+00  0.0000E+00  0.8000E+01
 -14.090  0.0000E+00  0.0000E+00  0.8000E+01
 -14.080  0.0000E+00  0.0000E+00  0.8000E+01
 -14.070  0.0000E+00  0.0000E+00  0.8000E+01
 -14.060  0.0000E+00  0.0000E+00  0.8000E+01
 -14.050  0.0000E+00  0.0000E+00  0.8000E+01
 -14.040  0.0000E+00  0.0000E+00  0.8000E+01
 -14.030  0.0000E+00  0.0000E+00  0.8000E+01
 -14.020  0.0000E+00  0.0000E+00  0.8000E+01
 -14.010  0.0000E+00  0.0000E+00  0.8000E+01
 -14.000  0.0000E+00  0.0000E+00  0.8000E+01
 -13.990  0.0000E+00  0.0000E+00  0.8000E+01
 -13.980  0.0000E+00  0.0000E+00  0.8000E+01
 -13.970  0.0000E+00  0.0000E+00  0.8000E+01
 -13.960  0.0000E+00  0.0000E+00  0.8000E+01
 -13.950  0.0000E+00  0.0000E+00  0.8000E+01
 -13.940  0.0000E+00  0.0000E+00  0.8000E+01
 -13.930  0.0000E+00  0.0000E+00  0.8000E+01
 -13.920  0.0000E+00  0.0000E+00  0.8000E+01
 -13.910  0.0000E+00  0.0000E+00  0.8000E+01
 -13.900  0.0000E+00  0.0000E+00  0.8000E+01
 -13.890  0.0000E+00  0.0000E+00  0.8000E+01
 -13.880  0.0000E+00  0.0000E+00  0.8000E+01
 -13.870  0.0000E+00  0.0000E+00  0.8000E+01
 -13.860  0.0000E+00  0.0000E+00  0.8000E+01
 -13.850  0.0000E+00  0.0000E+00  0.8000E+01
 -13.840  0.0000E+00  0.0000E+00  0.8000E+01
 -13.830  0.0000E+00  0.0000E+00  0.8000E+01
 -13.820  0.0000E+00  0.0000E+00  0.8000E+01
 -13.810  0.0000E+00  0.0000E+00  0.8000E+01
 -13.800  0.0000E+00  0.0000E+00  0.8000E+01
 -13.790  0.0000E+00  0.0000E+00  0.8000E+01
 -13.780  0.0000E+00  0.0000E+00  0.8000E+01
 -13.770  0.0000E+00  0.0000E+00  0.8000E+01
 -13.760  0.0000E+00  0.0000E+00  0.8000E+01
 -13.750  0.0000E+00  0.0000E+00  0.8000E+01
 -13.740  0.0000E+00  0.0000E+00  0.8000E+01
 -13.730  0.0000E+00  0.0000E+00  0.8000E+01
 -13.720  0.0000E+00  0.0000E+00  0.8000E+01
 -13.710  0.0000E+00  0.0000E+00  0.8000E+01
 -13.700  0.0000E+00  0.0000E+00  0.8000E+01
 -13.690  0.0000E+00  0.0000E+00  0.8000E+01
 -13.680  0.0000E+00  0.0000E+00  0.8000E+01
 -13.670  0.0000E+00  0.0000E+00  0.8000E+01
 -13.660  0.0000E+00  0.0000E+00  0.8000E+01
 -13.650  0.0000E+00  0.0000E+00  0.8000E+01
 -13.640  0.0000E+00  0.0000E+00  0.8000E+01
 -13.630  0.0000E+00  0.0000E+00  0.8000E+01
 -13.620  0.0000E+00  0.0000E+00  0.8000E+01
 -13.610  0.0000E+00  0.0000E+00  0.8000E+01
 -13.600  0.0000E+00  0.0000E+00  0.8000E+01
 -13.590  0.0000E+00  0.0000E+00  0.8000E+01
 -13.580  0.0000E+00  0.0000E+00  0.8000E+01
 -13.570  0.0000E+00  0.0000E+00  0.8000E+01
 -13.560  0.0000E+00  0.0000E+00  0.8000E+01
 -13.550  0.0000E+00  0.0000E+00  0.8000E+01
 -13.540  0.0000E+00  0.0000E+00  0.8000E+01
 -13.530  0.0000E+00  0.0000E+00  0.8000E+01
 -13.520  0.0000E+00  0.0000E+00  0.8000E+01
 -13.510  0.0000E+00  0.0000E+00  0.8000E+01
 -13.500  0.0000E+00  0.0000E+00  0.8000E+01
 -13.490  0.0000E+00  0.0000E+00  0.8000E+01
 -13.480  0.0000E+00  0.0000E+00  0.8000E+01
 -13.470  0.0000E+00  0.0000E+00  0.8000E+01
 -13.460  0.0000E+00  0.0000E+00  0.8000E+01
 -13.450  0.0000E+00  0.0000E+00  0.8000E+01
 -13.440  0.0000E+00  0.0000E+00  0.8000E+01
 -13.430  0.0000E+00  0.0000E+00  0.8000E+01
 -13.420  0.0000E+00  0.0000E+00  0.8000E+01
 -13.410  0.0000E+00  0.0000E+00  0.8000E+01
 -13.400  0.0000E+00  0.0000E+00  0.8000E+01
 -13.390  0.0000E+00  0.0000E+00  0.8000E+01
 -13.380  0.0000E+00  0.0000E+00  0.8000E+01
 -13.370  0.0000E+00  0.0000E+00  0.8000E+01
 -13.360  0.0000E+00  0.0000E+00  0.8000E+01
 -13.350  0.0000E+00  0.0000E+00  0.8000E+01
 -13.340  0.0000E+00  0.0000E+00  0.8000E+01
 -13.330  0.0000E+00  0.0000E+00  0.8000E+01
 -13.320  0.0000E+00  0.0000E+00  0.8000E+01
 -13.310  0.0000E+00  0.0000E+00  0.8000E+01
 -13.300  0.0000E+00  0.0000E+00  0.8000E+01
 -13.290  0.0000E+00  0.0000E+00  0.8000E+01
 -13.280  0.0000E+00  0.0000E+00  0.8000E+01
 -13.270  0.0000E+00  0.0000E+00  0.8000E+01
 -13.260  0.0000E+00  0.0000E+00  0.8000E+01
 -13.250  0.0000E+00  0.0000E+00  0.8000E+01
 -13.240  0.0000E+00  0.0000E+00  0.8000E+01
 -13.230  0.0000E+00  0.0000E+00  0.8000E+01
 -13.220  0.0000E+00  0.0000E+00  0.8000E+01
 -13.210  0.0000E+00  0.0000E+00  0.8000E+01
 -13.200  0.0000E+00  0.0000E+00  0.8000E+01
 -13.190  0.0000E+00  0.0000E+00  0.8000E+01
 -13.180  0.0000E+00  0.0000E+00  0.8000E+01
 -13.170  0.0000E+00  0.0000E+00  0.8000E+01
 -13.160  0.0000E+00  0.0000E+00  0.8000E+01
 -13.150  0.0000E+00  0.0000E+00  0.8000E+01
 -13.140  0.0000E+00  0.0000E+00  0.8000E+01
 -13.130  0.0000E+00  0.0000E+00  0.8000E+01
 -13.120  0.0000E+00  0.0000E+00  0.8000E+01
 -13.110  0.0000E+00  0.0000E+00  0.8000E+01
 -13.100  0.0000E+00  0.0000E+00  0.8000E+01
 -13.090  0.0000E+00  0.0000E+00  0.8000E+01
 -13.080  0.0000E+00  0.0000E+00  0.8000E+01
 -13.070  0.0000E+00  0.0000E+00  0.8000E+01
 -13.060  0.0000E+00  0.0000E+00  0.8000E+01
 -13.050  0.0000E+00  0.0000E+00  0.8000E+01
 -13.040  0.0000E+00  0.0000E+00  0.8000E+01
 -13.030  0.0000E+00  0.0000E+00  0.8000E+01
 -13.020  0.0000E+00  0.0000E+00  0.8000E+01
 -13.010  0.0000E+00  0.0000E+00  0.8000E+01
 -13.000  0.0000E+00  0.0000E+00  0.8000E+01
 -12.990  0.0000E+00  0.0000E+00  0.8000E+01
 -12.980  0.0000E+00  0.0000E+00  0.8000E+01
 -12.970  0.0000E+00  0.0000E+00  0.8000E+01
 -12.960  0.0000E+00  0.0000E+00  0.8000E+01
 -12.950  0.0000E+00  0.0000E+00  0.8000E+01
 -12.940  0.0000E+00  0.0000E+00  0.8000E+01
 -12.930  0.0000E+00  0.0000E+00  0.8000E+01
 -12.920  0.0000E+00  0.0000E+00  0.8000E+01
 -12.910  0.0000E+00  0.0000E+00  0.8000E+01
 -12.900  0.0000E+00  0.0000E+00  0.8000E+01
 -12.890  0.0000E+00  0.0000E+00  0.8000E+01
 -12.880  0.0000E+00  0.0000E+00  0.8000E+01
 -12.870  0.0000E+00  0.0000E+00  0.8000E+01
 -12.860  0.0000E+00  0.0000E+00  0.8000E+01
 -12.850  0.0000E+00  0.0000E+00  0.8000E+01
 -12.840  0.0000E+00  0.0000E+00  0.8000E+01
 -12.830  0.0000E+00  0.0000E+00  0.8000E+01
 -12.820  0.0000E+00  0.0000E+00  0.8000E+01
 -12.810  0.0000E+00  0.0000E+00  0.8000E+01
 -12.800  0.0000E+00  0.0000E+00  0.8000E+01
 -12.790  0.0000E+00  0.0000E+00  0.8000E+01
 -12.780  0.0000E+00  0.0000E+00  0.8000E+01
 -12.770  0.0000E+00  0.0000E+00  0.8000E+01
 -12.760  0.0000E+00  0.0000E+00  0.8000E+01
 -12.750  0.0000E+00  0.0000E+00  0.8000E+01
 -12.740  0.0000E+00  0.0000E+00  0.8000E+01
 -12.730  0.0000E+00  0.0000E+00  0.8000E+01
 -12.720  0.0000E+00  0.0000E+00  0.8000E+01
 -12.710  0.0000E+00  0.0000E+00  0.8000E+01
 -12.700  0.0000E+00  0.0000E+00  0.8000E+01
 -12.690  0.0000E+00  0.0000E+00  0.8000E+01
 -12.680  0.0000E+00  0.0000E+00  0.8000E+01
 -12.670  0.0000E+00  0.0000E+00  0.8000E+01
 -12.660  0.0000E+00  0.0000E+00  0.8000E+01
 -12.650  0.0000E+00  0.0000E+00  0.8000E+01
 -12.640  0.0000E+00  0.0000E+00  0.8000E+01
 -12.630  0.0000E+00  0.0000E+00  0.8000E+01
 -12.620  0.0000E+00  0.0000E+00  0.8000E+01
 -12.610  0.0000E+00  0.0000E+00  0.8000E+01
 -12.600  0.0000E+00  0.0000E+00  0.8000E+01
 -12.590  0.0000E+00  0.0000E+00  0.8000E+01
 -12.580  0.0000E+00  0.0000E+00  0.8000E+01
 -12.570  0.0000E+00  0.0000E+00  0.8000E+01
 -12.560  0.0000E+00  0.0000E+00  0.8000E+01
 -12.550  0.0000E+00  0.0000E+00  0.8000E+01
 -12.540  0.0000E+00  0.0000E+00  0.8000E+01
 -12.530  0.0000E+00  0.0000E+00  0.8000E+01
 -12.520  0.0000E+00  0.0000E+00  0.8000E+01
 -12.510  0.0000E+00  0.0000E+00  0.8000E+01
 -12.500  0.0000E+00  0.0000E+00  0.8000E+01
 -12.490  0.0000E+00  0.0000E+00  0.8000E+01
 -12.480  0.0000E+00  0.0000E+00  0.8000E+01
 -12.470  0.0000E+00  0.0000E+00  0.8000E+01
 -12.460  0.0000E+00  0.0000E+00  0.8000E+01
 -12.450  0.0000E+00  0.0000E+00  0.8000E+01
 -12.440  0.0000E+00  0.0000E+00  0.8000E+01
 -12.430  0.0000E+00  0.0000E+00  0.8000E+01
 -12.420  0.0000E+00  0.0000E+00  0.8000E+01
 -12.410  0.0000E+00  0.0000E+00  0.8000E+01
 -12.400  0.0000E+00  0.0000E+00  0.8000E+01
 -12.390  0.0000E+00  0.0000E+00  0.8000E+01
 -12.380  0.0000E+00  0.0000E+00  0.8000E+01
 -12.370  0.0000E+00  0.0000E+00  0.8000E+01
 -12.360  0.0000E+00  0.0000E+00  0.8000E+01
 -12.350  0.0000E+00  0.0000E+00  0.8000E+01
 -12.340  0.0000E+00  0.0000E+00  0.8000E+01
 -12.330  0.0000E+00  0.0000E+00  0.8000E+01
 -12.320  0.0000E+00  0.0000E+00  0.8000E+01
 -12.310  0.0000E+00  0.0000E+00  0.8000E+01
 -12.300  0.0000E+00  0.0000E+00  0.8000E+01
 -12.290  0.0000E+00  0.0000E+00  0.8000E+01
 -12.280  0.0000E+00  0.0000E+00  0.8000E+01
 -12.270  0.0000E+00  0.0000E+00  0.8000E+01
 -12.260  0.0000E+00  0.0000E+00  0.8000E+01
 -12.250  0.0000E+00  0.0000E+00  0.8000E+01
 -12.240  0.0000E+00  0.0000E+00  0.8000E+01
 -12.230  0.0000E+00  0.0000E+00  0.8000E+01
 -12.220  0.0000E+00  0.0000E+00  0.8000E+01
 -12.210  0.0000E+00  0.0000E+00  0.8000E+01
 -12.200  0.0000E+00  0.0000E+00  0.8000E+01
 -12.190  0.0000E+00  0.0000E+00  0.8000E+01
 -12.180  0.0000E+00  0.0000E+00  0.8000E+01
 -12.170  0.0000E+00  0.0000E+00  0.8000E+01
 -12.160  0.0000E+00  0.0000E+00  0.8000E+01
 -12.150  0.0000E+00  0.0000E+00  0.8000E+01
 -12.140  0.0000E+00  0.0000E+00  0.8000E+01
 -12.130  0.0000E+00  0.0000E+00  0.8000E+01
 -12.120  0.0000E+00  0.0000E+00  0.8000E+01
 -12.110  0.0000E+00  0.0000E+00  0.8000E+01
 -12.100  0.0000E+00  0.0000E+00  0.8000E+01
 -12.090  0.0000E+00  0.0000E+00  0.8000E+01
 -12.080  0.0000E+00  0.0000E+00  0.8000E+01
 -12.070  0.0000E+00  0.0000E+00  0.8000E+01
 -12.060  0.0000E+00  0.0000E+00  0.8000E+01
 -12.050  0.0000E+00  0.0000E+00  0.8000E+01
 -12.040  0.0000E+00  0.0000E+00  0.8000E+01
 -12.030  0.0000E+00  0.0000E+00  0.8000E+01
 -12.020  0.0000E+00  0.0000E+00  0.8000E+01
 -12.010  0.0000E+00  0.0000E+00  0.8000E+01
 -12.000  0.0000E+00  0.0000E+00  0.8000E+01
 -11.990  0.0000E+00  0.0000E+00  0.8000E+01
 -11.980  0.0000E+00  0.0000E+00  0.8000E+01
 -11.970  0.0000E+00  0.0000E+00  0.8000E+01
 -11.960  0.0000E+00  0.0000E+00  0.8000E+01
 -11.950  0.0000E+00  0.0000E+00  0.8000E+01
 -11.940  0.0000E+00  0.0000E+00  0.8000E+01
 -11.930  0.0000E+00  0.0000E+00  0.8000E+01
 -11.920  0.0000E+00  0.0000E+00  0.8000E+01
 -11.910  0.0000E+00  0.0000E+00  0.8000E+01
 -11.900  0.0000E+00  0.0000E+00  0.8000E+01
 -11.890  0.0000E+00  0.0000E+00  0.8000E+01
 -11.880  0.0000E+00  0.0000E+00  0.8000E+01
 -11.870  0.0000E+00  0.0000E+00  0.8000E+01
 -11.860  0.0000E+00  0.0000E+00  0.8000E+01
 -11.850  0.0000E+00  0.0000E+00  0.8000E+01
 -11.840  0.0000E+00  0.0000E+00  0.8000E+01
 -11.830  0.0000E+00  0.0000E+00  0.8000E+01
 -11.820  0.0000E+00  0.0000E+00  0.8000E+01
 -11.810  0.0000E+00  0.0000E+00  0.8000E+01
 -11.800  0.0000E+00  0.0000E+00  0.8000E+01
 -11.790  0.0000E+00  0.0000E+00  0.8000E+01
 -11.780  0.0000E+00  0.0000E+00  0.8000E+01
 -11.770  0.0000E+00  0.0000E+00  0.8000E+01
 -11.760  0.0000E+00  0.0000E+00  0.8000E+01
 -11.750  0.0000E+00  0.0000E+00  0.8000E+01
 -11.740  0.0000E+00  0.0000E+00  0.8000E+01
 -11.730  0.0000E+00  0.0000E+00  0.8000E+01
 -11.720  0.0000E+00  0.0000E+00  0.8000E+01
 -11.710  0.0000E+00  0.0000E+00  0.8000E+01
 -11.700  0.0000E+00  0.0000E+00  0.8000E+01
 -11.690  0.0000E+00  0.0000E+00  0.8000E+01
 -11.680  0.0000E+00  0.0000E+00  0.8000E+01
 -11.670  0.0000E+00  0.0000E+00  0.8000E+01
 -11.660  0.0000E+00  0.0000E+00  0.8000E+01
 -11.650  0.0000E+00  0.0000E+00  0.8000E+01
 -11.640  0.0000E+00  0.0000E+00  0.8000E+01
 -11.630  0.0000E+00  0.0000E+00  0.8000E+01
 -11.620  0.0000E+00  0.0000E+00  0.8000E+01
 -11.610  0.0000E+00  0.0000E+00  0.8000E+01
 -11.600  0.0000E+00  0.0000E+00  0.8000E+01
 -11.590  0.0000E+00  0.0000E+00  0.8000E+01
 -11.580  0.0000E+00  0.0000E+00  0.8000E+01
 -11.570  0.0000E+00  0.0000E+00  0.8000E+01
 -11.560  0.0000E+00  0.0000E+00  0.8000E+01
 -11.550  0.0000E+00  0.0000E+00  0.8000E+01
 -11.540  0.0000E+00  0.0000E+00  0.8000E+01
 -11.530  0.0000E+00  0.0000E+00  0.8000E+01
 -11.520  0.0000E+00  0.0000E+00  0.8000E+01
 -11.510  0.0000E+00  0.0000E+00  0.8000E+01
 -11.500  0.0000E+00  0.0000E+00  0.8000E+01
 -11.490  0.0000E+00  0.0000E+00  0.8000E+01
 -11.480  0.0000E+00  0.0000E+00  0.8000E+01
 -11.470  0.0000E+00  0.0000E+00  0.8000E+01
 -11.460  0.0000E+00  0.0000E+00  0.8000E+01
 -11.450  0.0000E+00  0.0000E+00  0.8000E+01
 -11.440  0.0000E+00  0.0000E+00  0.8000E+01
 -11.430  0.0000E+00  0.0000E+00  0.8000E+01
 -11.420  0.0000E+00  0.0000E+00  0.8000E+01
 -11.410  0.0000E+00  0.0000E+00  0.8000E+01
 -11.400  0.0000E+00  0.0000E+00  0.8000E+01
 -11.390  0.0000E+00  0.0000E+00  0.8000E+01
 -11.380  0.0000E+00  0.0000E+00  0.8000E+01
 -11.370  0.0000E+00  0.0000E+00  0.8000E+01
 -11.360  0.0000E+00  0.0000E+00  0.8000E+01
 -11.350  0.0000E+00  0.0000E+00  0.8000E+01
 -11.340  0.0000E+00  0.0000E+00  0.8000E+01
 -11.330  0.0000E+00  0.0000E+00  0.8000E+01
 -11.320  0.0000E+00  0.0000E+00  0.8000E+01
 -11.310  0.0000E+00  0.0000E+00  0.8000E+01
 -11.300  0.0000E+00  0.0000E+00  0.8000E+01
 -11.290  0.0000E+00  0.0000E+00  0.8000E+01
 -11.280  0.0000E+00  0.0000E+00  0.8000E+01
 -11.270  0.0000E+00  0.0000E+00  0.8000E+01
 -11.260  0.0000E+00  0.0000E+00  0.8000E+01
 -11.250  0.0000E+00  0.0000E+00  0.8000E+01
 -11.240  0.0000E+00  0.0000E+00  0.8000E+01
 -11.230  0.0000E+00  0.0000E+00  0.8000E+01
 -11.220  0.0000E+00  0.0000E+00  0.8000E+01
 -11.210  0.0000E+00  0.0000E+00  0.8000E+01
 -11.200  0.0000E+00  0.0000E+00  0.8000E+01
 -11.190  0.0000E+00  0.0000E+00  0.8000E+01
 -11.180  0.0000E+00  0.0000E+00  0.8000E+01
 -11.170  0.0000E+00  0.0000E+00  0.8000E+01
 -11.160  0.0000E+00  0.0000E+00  0.8000E+01
 -11.150  0.0000E+00  0.0000E+00  0.8000E+01
 -11.140  0.0000E+00  0.0000E+00  0.8000E+01
 -11.130  0.0000E+00  0.0000E+00  0.8000E+01
 -11.120  0.0000E+00  0.0000E+00  0.8000E+01
 -11.110  0.0000E+00  0.0000E+00  0.8000E+01
 -11.100  0.0000E+00  0.0000E+00  0.8000E+01
 -11.090  0.0000E+00  0.0000E+00  0.8000E+01
 -11.080  0.0000E+00  0.0000E+00  0.8000E+01
 -11.070  0.0000E+00  0.0000E+00  0.8000E+01
 -11.060  0.0000E+00  0.0000E+00  0.8000E+01
 -11.050  0.0000E+00  0.0000E+00  0.8000E+01
 -11.040  0.0000E+00  0.0000E+00  0.8000E+01
 -11.030  0.0000E+00  0.0000E+00  0.8000E+01
 -11.020  0.0000E+00  0.0000E+00  0.8000E+01
 -11.010  0.0000E+00  0.0000E+00  0.8000E+01
 -11.000  0.0000E+00  0.0000E+00  0.8000E+01
 -10.990  0.0000E+00  0.0000E+00  0.8000E+01
 -10.980  0.0000E+00  0.0000E+00  0.8000E+01
 -10.970  0.0000E+00  0.0000E+00  0.8000E+01
 -10.960  0.0000E+00  0.0000E+00  0.8000E+01
 -10.950  0.0000E+00  0.0000E+00  0.8000E+01
 -10.940  0.0000E+00  0.0000E+00  0.8000E+01
 -10.930  0.0000E+00  0.0000E+00  0.8000E+01
 -10.920  0.0000E+00  0.0000E+00  0.8000E+01
 -10.910  0.0000E+00  0.0000E+00  0.8000E+01
 -10.900  0.0000E+00  0.0000E+00  0.8000E+01
 -10.890  0.0000E+00  0.0000E+00  0.8000E+01
 -10.880  0.0000E+00  0.0000E+00  0.8000E+01
 -10.870  0.0000E+00  0.0000E+00  0.8000E+01
 -10.860  0.0000E+00  0.0000E+00  0.8000E+01
 -10.850  0.0000E+00  0.0000E+00  0.8000E+01
 -10.840  0.0000E+00  0.0000E+00  0.8000E+01
 -10.830  0.0000E+00  0.0000E+00  0.8000E+01
 -10.820  0.0000E+00  0.0000E+00  0.8000E+01
 -10.810  0.0000E+00  0.0000E+00  0.8000E+01
 -10.800  0.0000E+00  0.0000E+00  0.8000E+01
 -10.790  0.0000E+00  0.0000E+00  0.8000E+01
 -10.780  0.0000E+00  0.0000E+00  0.8000E+01
 -10.770  0.0000E+00  0.0000E+00  0.8000E+01
 -10.760  0.0000E+00  0.0000E+00  0.8000E+01
 -10.750  0.0000E+00  0.0000E+00  0.8000E+01
 -10.740  0.0000E+00  0.0000E+00  0.8000E+01
 -10.730  0.0000E+00  0.0000E+00  0.8000E+01
 -10.720  0.0000E+00  0.0000E+00  0.8000E+01
 -10.710  0.0000E+00  0.0000E+00  0.8000E+01
 -10.700  0.0000E+00  0.0000E+00  0.8000E+01
 -10.690  0.0000E+00  0.0000E+00  0.8000E+01
 -10.680  0.0000E+00  0.0000E+00  0.8000E+01
 -10.670  0.0000E+00  0.0000E+00  0.8000E+01
 -10.660  0.0000E+00  0.0000E+00  0.8000E+01
 -10.650  0.0000E+00  0.0000E+00  0.8000E+01
 -10.640  0.0000E+00  0.0000E+00  0.8000E+01
 -10.630  0.0000E+00  0.0000E+00  0.8000E+01
 -10.620  0.0000E+00  0.0000E+00  0.8000E+01
 -10.610  0.0000E+00  0.0000E+00  0.8000E+01
 -10.600  0.0000E+00  0.0000E+00  0.8000E+01
 -10.590  0.0000E+00  0.0000E+00  0.8000E+01
 -10.580  0.0000E+00  0.0000E+00  0.8000E+01
 -10.570  0.0000E+00  0.0000E+00  0.8000E+01
 -10.560  0.0000E+00  0.0000E+00  0.8000E+01
 -10.550  0.0000E+00  0.0000E+00  0.8000E+01
 -10.540  0.0000E+00  0.0000E+00  0.8000E+01
 -10.530  0.0000E+00  0.0000E+00  0.8000E+01
 -10.520  0.0000E+00  0.0000E+00  0.8000E+01
 -10.510  0.0000E+00  0.0000E+00  0.8000E+01
 -10.500  0.0000E+00  0.0000E+00  0.8000E+01
 -10.490  0.0000E+00  0.0000E+00  0.8000E+01
 -10.480  0.0000E+00  0.0000E+00  0.8000E+01
 -10.470  0.0000E+00  0.0000E+00  0.8000E+01
 -10.460  0.0000E+00  0.0000E+00  0.8000E+01
 -10.450  0.0000E+00  0.0000E+00  0.8000E+01
 -10.440  0.0000E+00  0.0000E+00  0.8000E+01
 -10.430  0.0000E+00  0.0000E+00  0.8000E+01
 -10.420  0.0000E+00  0.0000E+00  0.8000E+01
 -10.410  0.0000E+00  0.0000E+00  0.8000E+01
 -10.400  0.0000E+00  0.0000E+00  0.8000E+01
 -10.390  0.0000E+00  0.0000E+00  0.8000E+01
 -10.380  0.0000E+00  0.0000E+00  0.8000E+01
 -10.370  0.0000E+00  0.0000E+00  0.8000E+01
 -10.360  0.0000E+00  0.0000E+00  0.8000E+01
 -10.350  0.0000E+00  0.0000E+00  0.8000E+01
 -10.340  0.0000E+00  0.0000E+00  0.8000E+01
 -10.330  0.0000E+00  0.0000E+00  0.8000E+01
 -10.320  0.0000E+00  0.0000E+00  0.8000E+01
 -10.310  0.0000E+00  0.0000E+00  0.8000E+01
 -10.300  0.0000E+00  0.0000E+00  0.8000E+01
 -10.290  0.0000E+00  0.0000E+00  0.8000E+01
 -10.280  0.0000E+00  0.0000E+00  0.8000E+01
 -10.270  0.0000E+00  0.0000E+00  0.8000E+01
 -10.260  0.0000E+00  0.0000E+00  0.8000E+01
 -10.250  0.0000E+00  0.0000E+00  0.8000E+01
 -10.240  0.0000E+00  0.0000E+00  0.8000E+01
 -10.230  0.0000E+00  0.0000E+00  0.8000E+01
 -10.220  0.0000E+00  0.0000E+00  0.8000E+01
 -10.210  0.0000E+00  0.0000E+00  0.8000E+01
 -10.200  0.0000E+00  0.0000E+00  0.8000E+01
 -10.190  0.0000E+00  0.0000E+00  0.8000E+01
 -10.180  0.0000E+00  0.0000E+00  0.8000E+01
 -10.170  0.0000E+00  0.0000E+00  0.8000E+01
 -10.160  0.0000E+00  0.0000E+00  0.8000E+01
 -10.150  0.0000E+00  0.0000E+00  0.8000E+01
 -10.140  0.0000E+00  0.0000E+00  0.8000E+01
 -10.130  0.0000E+00  0.0000E+00  0.8000E+01
 -10.120  0.0000E+00  0.0000E+00  0.8000E+01
 -10.110  0.0000E+00  0.0000E+00  0.8000E+01
 -10.100  0.0000E+00  0.0000E+00  0.8000E+01
 -10.090  0.0000E+00  0.0000E+00  0.8000E+01
 -10.080  0.0000E+00  0.0000E+00  0.8000E+01
 -10.070  0.0000E+00  0.0000E+00  0.8000E+01
 -10.060  0.0000E+00  0.0000E+00  0.8000E+01
 -10.050  0.0000E+00  0.0000E+00  0.8000E+01
 -10.040  0.0000E+00  0.0000E+00  0.8000E+01
 -10.030  0.0000E+00  0.0000E+00  0.8000E+01
 -10.020  0.0000E+00  0.0000E+00  0.8000E+01
 -10.010  0.0000E+00  0.0000E+00  0.8000E+01
 -10.000  0.0000E+00  0.0000E+00  0.8000E+01
  -9.990  0.0000E+00  0.0000E+00  0.8000E+01
  -9.980  0.0000E+00  0.0000E+00  0.8000E+01
  -9.970  0.0000E+00  0.0000E+00  0.8000E+01
  -9.960  0.0000E+00  0.0000E+00  0.8000E+01
  -9.950  0.0000E+00  0.0000E+00  0.8000E+01
  -9.940  0.0000E+00  0.0000E+00  0.8000E+01
  -9.930  0.0000E+00  0.0000E+00  0.8000E+01
  -9.920  0.0000E+00  0.0000E+00  0.8000E+01
  -9.910  0.0000E+00  0.0000E+00  0.8000E+01
  -9.900  0.0000E+00  0.0000E+00  0.8000E+01
  -9.890  0.0000E+00  0.0000E+00  0.8000E+01
  -9.880  0.0000E+00  0.0000E+00  0.8000E+01
  -9.870  0.0000E+00  0.0000E+00  0.8000E+01
  -9.860  0.0000E+00  0.0000E+00  0.8000E+01
  -9.850  0.0000E+00  0.0000E+00  0.8000E+01
  -9.840  0.0000E+00  0.0000E+00  0.8000E+01
  -9.830  0.0000E+00  0.0000E+00  0.8000E+01
  -9.820  0.0000E+00  0.0000E+00  0.8000E+01
  -9.810  0.0000E+00  0.0000E+00  0.8000E+01
  -9.800  0.0000E+00  0.0000E+00  0.8000E+01
  -9.790  0.0000E+00  0.0000E+00  0.8000E+01
  -9.780  0.0000E+00  0.0000E+00  0.8000E+01
  -9.770  0.0000E+00  0.0000E+00  0.8000E+01
  -9.760  0.0000E+00  0.0000E+00  0.8000E+01
  -9.750  0.0000E+00  0.0000E+00  0.8000E+01
  -9.740  0.0000E+00  0.0000E+00  0.8000E+01
  -9.730  0.0000E+00  0.0000E+00  0.8000E+01
  -9.720  0.0000E+00  0.0000E+00  0.8000E+01
  -9.710  0.0000E+00  0.0000E+00  0.8000E+01
  -9.700  0.0000E+00  0.0000E+00  0.8000E+01
  -9.690  0.0000E+00  0.0000E+00  0.8000E+01
  -9.680  0.0000E+00  0.0000E+00  0.8000E+01
  -9.670  0.0000E+00  0.0000E+00  0.8000E+01
  -9.660  0.0000E+00  0.0000E+00  0.8000E+01
  -9.650  0.0000E+00  0.0000E+00  0.8000E+01
  -9.640  0.0000E+00  0.0000E+00  0.8000E+01
  -9.630  0.0000E+00  0.0000E+00  0.8000E+01
  -9.620  0.0000E+00  0.0000E+00  0.8000E+01
  -9.610  0.0000E+00  0.0000E+00  0.8000E+01
  -9.600  0.0000E+00  0.0000E+00  0.8000E+01
  -9.590  0.0000E+00  0.0000E+00  0.8000E+01
  -9.580  0.0000E+00  0.0000E+00  0.8000E+01
  -9.570  0.0000E+00  0.0000E+00  0.8000E+01
  -9.560  0.0000E+00  0.0000E+00  0.8000E+01
  -9.550  0.0000E+00  0.0000E+00  0.8000E+01
  -9.540  0.0000E+00  0.0000E+00  0.8000E+01
  -9.530  0.0000E+00  0.0000E+00  0.8000E+01
  -9.520  0.0000E+00  0.0000E+00  0.8000E+01
  -9.510  0.0000E+00  0.0000E+00  0.8000E+01
  -9.500  0.0000E+00  0.0000E+00  0.8000E+01
  -9.490  0.0000E+00  0.0000E+00  0.8000E+01
  -9.480  0.0000E+00  0.0000E+00  0.8000E+01
  -9.470  0.0000E+00  0.0000E+00  0.8000E+01
  -9.460  0.0000E+00  0.0000E+00  0.8000E+01
  -9.450  0.0000E+00  0.0000E+00  0.8000E+01
  -9.440  0.0000E+00  0.0000E+00  0.8000E+01
  -9.430  0.0000E+00  0.0000E+00  0.8000E+01
  -9.420  0.0000E+00  0.0000E+00  0.8000E+01
  -9.410  0.0000E+00  0.0000E+00  0.8000E+01
  -9.400  0.0000E+00  0.0000E+00  0.8000E+01
  -9.390  0.0000E+00  0.0000E+00  0.8000E+01
  -9.380  0.0000E+00  0.0000E+00  0.8000E+01
  -9.370  0.0000E+00  0.0000E+00  0.8000E+01
  -9.360  0.0000E+00  0.0000E+00  0.8000E+01
  -9.350  0.0000E+00  0.0000E+00  0.8000E+01
  -9.340  0.0000E+00  0.0000E+00  0.8000E+01
  -9.330  0.0000E+00  0.0000E+00  0.8000E+01
  -9.320  0.0000E+00  0.0000E+00  0.8000E+01
  -9.310  0.0000E+00  0.0000E+00  0.8000E+01
  -9.300  0.0000E+00  0.0000E+00  0.8000E+01
  -9.290  0.0000E+00  0.0000E+00  0.8000E+01
  -9.280  0.0000E+00  0.0000E+00  0.8000E+01
  -9.270  0.0000E+00  0.0000E+00  0.8000E+01
  -9.260  0.0000E+00  0.0000E+00  0.8000E+01
  -9.250  0.0000E+00  0.0000E+00  0.8000E+01
  -9.240  0.0000E+00  0.0000E+00  0.8000E+01
  -9.230  0.0000E+00  0.0000E+00  0.8000E+01
  -9.220  0.0000E+00  0.0000E+00  0.8000E+01
  -9.210  0.0000E+00  0.0000E+00  0.8000E+01
  -9.200  0.0000E+00  0.0000E+00  0.8000E+01
  -9.190  0.0000E+00  0.0000E+00  0.8000E+01
  -9.180  0.0000E+00  0.0000E+00  0.8000E+01
  -9.170  0.0000E+00  0.0000E+00  0.8000E+01
  -9.160  0.0000E+00  0.0000E+00  0.8000E+01
  -9.150  0.0000E+00  0.0000E+00  0.8000E+01
  -9.140  0.0000E+00  0.0000E+00  0.8000E+01
  -9.130  0.0000E+00  0.0000E+00  0.8000E+01
  -9.120  0.0000E+00  0.0000E+00  0.8000E+01
  -9.110  0.0000E+00  0.0000E+00  0.8000E+01
  -9.100  0.0000E+00  0.0000E+00  0.8000E+01
  -9.090  0.0000E+00  0.0000E+00  0.8000E+01
  -9.080  0.0000E+00  0.0000E+00  0.8000E+01
  -9.070  0.0000E+00  0.0000E+00  0.8000E+01
  -9.060  0.0000E+00  0.0000E+00  0.8000E+01
  -9.050  0.0000E+00  0.0000E+00  0.8000E+01
  -9.040  0.0000E+00  0.0000E+00  0.8000E+01
  -9.030  0.0000E+00  0.0000E+00  0.8000E+01
  -9.020  0.0000E+00  0.0000E+00  0.8000E+01
  -9.010  0.0000E+00  0.0000E+00  0.8000E+01
  -9.000  0.0000E+00  0.0000E+00  0.8000E+01
  -8.990  0.0000E+00  0.0000E+00  0.8000E+01
  -8.980  0.0000E+00  0.0000E+00  0.8000E+01
  -8.970  0.0000E+00  0.0000E+00  0.8000E+01
  -8.960  0.0000E+00  0.0000E+00  0.8000E+01
  -8.950  0.0000E+00  0.0000E+00  0.8000E+01
  -8.940  0.0000E+00  0.0000E+00  0.8000E+01
  -8.930  0.0000E+00  0.0000E+00  0.8000E+01
  -8.920  0.0000E+00  0.0000E+00  0.8000E+01
  -8.910  0.0000E+00  0.0000E+00  0.8000E+01
  -8.900  0.0000E+00  0.0000E+00  0.8000E+01
  -8.890  0.0000E+00  0.0000E+00  0.8000E+01
  -8.880  0.0000E+00  0.0000E+00  0.8000E+01
  -8.870  0.0000E+00  0.0000E+00  0.8000E+01
  -8.860  0.0000E+00  0.0000E+00  0.8000E+01
  -8.850  0.0000E+00  0.0000E+00  0.8000E+01
  -8.840  0.0000E+00  0.0000E+00  0.8000E+01
  -8.830  0.0000E+00  0.0000E+00  0.8000E+01
  -8.820  0.0000E+00  0.0000E+00  0.8000E+01
  -8.810  0.0000E+00  0.0000E+00  0.8000E+01
  -8.800  0.0000E+00  0.0000E+00  0.8000E+01
  -8.790  0.0000E+00  0.0000E+00  0.8000E+01
  -8.780  0.0000E+00  0.0000E+00  0.8000E+01
  -8.770  0.0000E+00  0.0000E+00  0.8000E+01
  -8.760  0.0000E+00  0.0000E+00  0.8000E+01
  -8.750  0.0000E+00  0.0000E+00  0.8000E+01
  -8.740  0.0000E+00  0.0000E+00  0.8000E+01
  -8.730  0.0000E+00  0.0000E+00  0.8000E+01
  -8.720  0.0000E+00  0.0000E+00  0.8000E+01
  -8.710  0.0000E+00  0.0000E+00  0.8000E+01
  -8.700  0.0000E+00  0.0000E+00  0.8000E+01
  -8.690  0.0000E+00  0.0000E+00  0.8000E+01
  -8.680  0.0000E+00  0.0000E+00  0.8000E+01
  -8.670  0.0000E+00  0.0000E+00  0.8000E+01
  -8.660  0.0000E+00  0.0000E+00  0.8000E+01
  -8.650  0.0000E+00  0.0000E+00  0.8000E+01
  -8.640  0.0000E+00  0.0000E+00  0.8000E+01
  -8.630  0.0000E+00  0.0000E+00  0.8000E+01
  -8.620  0.0000E+00  0.0000E+00  0.8000E+01
  -8.610  0.0000E+00  0.0000E+00  0.8000E+01
  -8.600  0.0000E+00  0.0000E+00  0.8000E+01
  -8.590  0.0000E+00  0.0000E+00  0.8000E+01
  -8.580  0.0000E+00  0.0000E+00  0.8000E+01
  -8.570  0.0000E+00  0.0000E+00  0.8000E+01
  -8.560  0.0000E+00  0.0000E+00  0.8000E+01
  -8.550  0.0000E+00  0.0000E+00  0.8000E+01
  -8.540  0.0000E+00  0.0000E+00  0.8000E+01
  -8.530  0.0000E+00  0.0000E+00  0.8000E+01
  -8.520  0.0000E+00  0.0000E+00  0.8000E+01
  -8.510  0.0000E+00  0.0000E+00  0.8000E+01
  -8.500  0.0000E+00  0.0000E+00  0.8000E+01
  -8.490  0.0000E+00  0.0000E+00  0.8000E+01
  -8.480  0.0000E+00  0.0000E+00  0.8000E+01
  -8.470  0.0000E+00  0.0000E+00  0.8000E+01
  -8.460  0.0000E+00  0.0000E+00  0.8000E+01
  -8.450  0.0000E+00  0.0000E+00  0.8000E+01
  -8.440  0.0000E+00  0.0000E+00  0.8000E+01
  -8.430  0.0000E+00  0.0000E+00  0.8000E+01
  -8.420  0.0000E+00  0.0000E+00  0.8000E+01
  -8.410  0.0000E+00  0.0000E+00  0.8000E+01
  -8.400  0.0000E+00  0.0000E+00  0.8000E+01
  -8.390  0.0000E+00  0.0000E+00  0.8000E+01
  -8.380  0.0000E+00  0.0000E+00  0.8000E+01
  -8.370  0.0000E+00  0.0000E+00  0.8000E+01
  -8.360  0.0000E+00  0.0000E+00  0.8000E+01
  -8.350  0.0000E+00  0.0000E+00  0.8000E+01
  -8.340  0.0000E+00  0.0000E+00  0.8000E+01
  -8.330  0.0000E+00  0.0000E+00  0.8000E+01
  -8.320  0.0000E+00  0.0000E+00  0.8000E+01
  -8.310  0.0000E+00  0.0000E+00  0.8000E+01
  -8.300  0.0000E+00  0.0000E+00  0.8000E+01
  -8.290  0.0000E+00  0.0000E+00  0.8000E+01
  -8.280  0.0000E+00  0.0000E+00  0.8000E+01
  -8.270  0.0000E+00  0.0000E+00  0.8000E+01
  -8.260  0.0000E+00  0.0000E+00  0.8000E+01
  -8.250  0.0000E+00  0.0000E+00  0.8000E+01
  -8.240  0.0000E+00  0.0000E+00  0.8000E+01
  -8.230  0.0000E+00  0.0000E+00  0.8000E+01
  -8.220  0.0000E+00  0.0000E+00  0.8000E+01
  -8.210  0.0000E+00  0.0000E+00  0.8000E+01
  -8.200  0.0000E+00  0.0000E+00  0.8000E+01
  -8.190  0.0000E+00  0.0000E+00  0.8000E+01
  -8.180  0.0000E+00  0.0000E+00  0.8000E+01
  -8.170  0.0000E+00  0.0000E+00  0.8000E+01
  -8.160  0.0000E+00  0.0000E+00  0.8000E+01
  -8.150  0.0000E+00  0.0000E+00  0.8000E+01
  -8.140  0.0000E+00  0.0000E+00  0.8000E+01
  -8.130  0.0000E+00  0.0000E+00  0.8000E+01
  -8.120  0.0000E+00  0.0000E+00  0.8000E+01
  -8.110  0.0000E+00  0.0000E+00  0.8000E+01
  -8.100  0.0000E+00  0.0000E+00  0.8000E+01
  -8.090  0.0000E+00  0.0000E+00  0.8000E+01
  -8.080  0.0000E+00  0.0000E+00  0.8000E+01
  -8.070  0.0000E+00  0.0000E+00  0.8000E+01
  -8.060  0.0000E+00  0.0000E+00  0.8000E+01
  -8.050  0.0000E+00  0.0000E+00  0.8000E+01
  -8.040  0.0000E+00  0.0000E+00  0.8000E+01
  -8.030  0.0000E+00  0.0000E+00  0.8000E+01
  -8.020  0.0000E+00  0.0000E+00  0.8000E+01
  -8.010  0.0000E+00  0.0000E+00  0.8000E+01
  -8.000  0.0000E+00  0.0000E+00  0.8000E+01
  -7.990  0.0000E+00  0.0000E+00  0.8000E+01
  -7.980  0.0000E+00  0.0000E+00  0.8000E+01
  -7.970  0.0000E+00  0.0000E+00  0.8000E+01
  -7.960  0.0000E+00  0.0000E+00  0.8000E+01
  -7.950  0.0000E+00  0.0000E+00  0.8000E+01
  -7.940  0.0000E+00  0.0000E+00  0.8000E+01
  -7.930  0.0000E+00  0.0000E+00  0.8000E+01
  -7.920  0.0000E+00  0.0000E+00  0.8000E+01
  -7.910  0.0000E+00  0.0000E+00  0.8000E+01
  -7.900  0.0000E+00  0.0000E+00  0.8000E+01
  -7.890  0.0000E+00  0.0000E+00  0.8000E+01
  -7.880  0.0000E+00  0.0000E+00  0.8000E+01
  -7.870  0.0000E+00  0.0000E+00  0.8000E+01
  -7.860  0.0000E+00  0.0000E+00  0.8000E+01
  -7.850  0.0000E+00  0.0000E+00  0.8000E+01
  -7.840  0.0000E+00  0.0000E+00  0.8000E+01
  -7.830  0.0000E+00  0.0000E+00  0.8000E+01
  -7.820  0.0000E+00  0.0000E+00  0.8000E+01
  -7.810  0.0000E+00  0.0000E+00  0.8000E+01
  -7.800  0.0000E+00  0.0000E+00  0.8000E+01
  -7.790  0.0000E+00  0.0000E+00  0.8000E+01
  -7.780  0.0000E+00  0.0000E+00  0.8000E+01
  -7.770  0.0000E+00  0.0000E+00  0.8000E+01
  -7.760  0.0000E+00  0.0000E+00  0.8000E+01
  -7.750  0.0000E+00  0.0000E+00  0.8000E+01
  -7.740  0.0000E+00  0.0000E+00  0.8000E+01
  -7.730  0.0000E+00  0.0000E+00  0.8000E+01
  -7.720  0.0000E+00  0.0000E+00  0.8000E+01
  -7.710  0.0000E+00  0.0000E+00  0.8000E+01
  -7.700  0.0000E+00  0.0000E+00  0.8000E+01
  -7.690  0.0000E+00  0.0000E+00  0.8000E+01
  -7.680  0.0000E+00  0.0000E+00  0.8000E+01
  -7.670  0.0000E+00  0.0000E+00  0.8000E+01
  -7.660  0.0000E+00  0.0000E+00  0.8000E+01
  -7.650  0.0000E+00  0.0000E+00  0.8000E+01
  -7.640  0.0000E+00  0.0000E+00  0.8000E+01
  -7.630  0.0000E+00  0.0000E+00  0.8000E+01
  -7.620  0.0000E+00  0.0000E+00  0.8000E+01
  -7.610  0.0000E+00  0.0000E+00  0.8000E+01
  -7.600  0.0000E+00  0.0000E+00  0.8000E+01
  -7.590  0.0000E+00  0.0000E+00  0.8000E+01
  -7.580  0.0000E+00  0.0000E+00  0.8000E+01
  -7.570  0.0000E+00  0.0000E+00  0.8000E+01
  -7.560  0.0000E+00  0.0000E+00  0.8000E+01
  -7.550  0.0000E+00  0.0000E+00  0.8000E+01
  -7.540  0.0000E+00  0.0000E+00  0.8000E+01
  -7.530  0.0000E+00  0.0000E+00  0.8000E+01
  -7.520  0.0000E+00  0.0000E+00  0.8000E+01
  -7.510  0.0000E+00  0.0000E+00  0.8000E+01
  -7.500  0.7808E-02  0.0000E+00  0.8000E+01
  -7.490  0.1817E+00  0.0000E+00  0.8001E+01
  -7.480  0.7070E+00  0.0000E+00  0.8005E+01
  -7.470  0.1576E+01  0.0000E+00  0.8016E+01
  -7.460  0.2409E+01  0.0000E+00  0.8036E+01
  -7.450  0.2977E+01  0.3481E-02  0.8063E+01
  -7.440  0.3405E+01  0.7346E-01  0.8095E+01
  -7.430  0.3768E+01  0.4204E+00  0.8133E+01
  -7.420  0.4155E+01  0.1080E+01  0.8180E+01
  -7.410  0.4607E+01  0.1887E+01  0.8239E+01
  -7.400  0.5435E+01  0.2454E+01  0.8311E+01
  -7.390  0.6567E+01  0.2764E+01  0.8397E+01
  -7.380  0.7596E+01  0.2890E+01  0.8497E+01
  -7.370  0.7876E+01  0.2983E+01  0.8604E+01
  -7.360  0.7377E+01  0.3132E+01  0.8712E+01
  -7.350  0.6699E+01  0.3285E+01  0.8814E+01
  -7.340  0.6642E+01  0.3590E+01  0.8914E+01
  -7.330  0.6548E+01  0.4101E+01  0.9019E+01
  -7.320  0.6070E+01  0.4601E+01  0.9126E+01
  -7.310  0.5253E+01  0.5274E+01  0.9232E+01
  -7.300  0.3946E+01  0.5865E+01  0.9334E+01
  -7.290  0.3253E+01  0.6004E+01  0.9429E+01
  -7.280  0.3346E+01  0.5701E+01  0.9520E+01
  -7.270  0.4002E+01  0.5247E+01  0.9611E+01
  -7.260  0.4711E+01  0.5125E+01  0.9706E+01
  -7.250  0.5819E+01  0.5491E+01  0.9811E+01
  -7.240  0.6879E+01  0.6468E+01  0.9936E+01
  -7.230  0.7388E+01  0.7326E+01  0.1008E+02
  -7.220  0.7826E+01  0.8317E+01  0.1023E+02
  -7.210  0.8234E+01  0.8714E+01  0.1040E+02
  -7.200  0.8615E+01  0.8572E+01  0.1057E+02
  -7.190  0.9082E+01  0.8242E+01  0.1074E+02
  -7.180  0.9479E+01  0.7811E+01  0.1091E+02
  -7.170  0.8961E+01  0.7507E+01  0.1108E+02
  -7.160  0.1530E+02  0.7364E+01  0.1128E+02
  -7.150  0.6671E+01  0.7409E+01  0.1145E+02
  -7.140  0.7733E+01  0.7476E+01  0.1160E+02
  -7.130  0.9840E+01  0.7523E+01  0.1176E+02
  -7.120  0.1439E+02  0.7859E+01  0.1196E+02
  -7.110  0.1930E+02  0.8230E+01  0.1221E+02
  -7.100  0.2083E+02  0.9457E+01  0.1250E+02
  -7.090  0.1603E+02  0.1162E+02  0.1280E+02
  -7.080  0.9947E+01  0.1248E+02  0.1303E+02
  -7.070  0.1002E+02  0.1197E+02  0.1325E+02
  -7.060  0.1020E+02  0.1168E+02  0.1347E+02
  -7.050  0.9810E+01  0.1252E+02  0.1369E+02
  -7.040  0.9690E+01  0.1279E+02  0.1392E+02
  -7.030  0.1029E+02  0.1293E+02  0.1414E+02
  -7.020  0.1348E+02  0.1301E+02  0.1439E+02
  -7.010  0.1379E+02  0.1223E+02  0.1466E+02
  -7.000  0.1380E+02  0.1065E+02  0.1491E+02
  -6.990  0.1483E+02  0.9072E+01  0.1515E+02
  -6.980  0.2294E+02  0.8327E+01  0.1540E+02
  -6.970  0.1071E+02  0.9256E+01  0.1561E+02
  -6.960  0.1497E+02  0.9817E+01  0.1584E+02
  -6.950  0.1846E+02  0.1380E+02  0.1613E+02
  -6.940  0.2098E+02  0.1273E+02  0.1646E+02
  -6.930  0.2377E+02  0.1269E+02  0.1681E+02
  -6.920  0.2558E+02  0.1335E+02  0.1719E+02
  -6.910  0.1499E+02  0.1398E+02  0.1753E+02
  -6.900  0.1380E+02  0.1514E+02  0.1781E+02
  -6.890  0.2742E+02  0.1758E+02  0.1815E+02
  -6.880  0.3019E+02  0.1974E+02  0.1865E+02
  -6.870  0.1673E+02  0.2573E+02  0.1911E+02
  -6.860  0.1482E+02  0.2138E+02  0.1947E+02
  -6.850  0.1781E+02  0.2401E+02  0.1986E+02
  -6.840  0.2183E+02  0.2580E+02  0.2031E+02
  -6.830  0.2245E+02  0.2357E+02  0.2078E+02
  -6.820  0.1100E+02  0.2126E+02  0.2119E+02
  -6.810  0.1927E+02  0.1852E+02  0.2151E+02
  -6.800  0.2176E+02  0.1616E+02  0.2191E+02
  -6.790  0.1240E+02  0.1439E+02  0.2224E+02
  -6.780  0.8306E+01  0.1372E+02  0.2248E+02
  -6.770  0.7546E+01  0.1847E+02  0.2271E+02
  -6.760  0.8816E+01  0.2459E+02  0.2301E+02
  -6.750  0.1588E+02  0.2199E+02  0.2337E+02
  -6.740  0.2421E+02  0.1861E+02  0.2377E+02
  -6.730  0.5096E+02  0.1593E+02  0.2456E+02
  -6.720  0.5978E+02  0.1394E+02  0.2531E+02
  -6.710  0.1379E+02  0.1276E+02  0.2577E+02
  -6.700  0.2060E+02  0.2109E+02  0.2609E+02
  -6.690  0.5669E+02  0.1970E+02  0.2676E+02
  -6.680  0.2740E+02  0.2766E+02  0.2741E+02
  -6.670  0.5756E+01  0.4183E+02  0.2792E+02
  -6.660  0.8231E+01  0.3860E+02  0.2839E+02
  -6.650  0.1252E+02  0.3421E+02  0.2885E+02
  -6.640  0.2354E+02  0.3395E+02  0.2938E+02
  -6.630  0.3493E+02  0.3350E+02  0.3005E+02
  -6.620  0.3481E+02  0.2981E+02  0.3068E+02
  -6.610  0.4297E+02  0.2880E+02  0.3138E+02
  -6.600  0.4165E+02  0.3888E+02  0.3212E+02
  -6.590  0.3695E+02  0.5307E+02  0.3298E+02
  -6.580  0.3132E+02  0.4771E+02  0.3383E+02
  -6.570  0.3396E+02  0.4274E+02  0.3460E+02
  -6.560  0.3805E+02  0.3392E+02  0.3534E+02
  -6.550  0.4140E+02  0.3291E+02  0.3606E+02
  -6.540  0.4218E+02  0.4944E+02  0.3687E+02
  -6.530  0.4109E+02  0.4755E+02  0.3776E+02
  -6.520  0.4078E+02  0.4843E+02  0.3865E+02
  -6.510  0.5117E+02  0.4672E+02  0.3959E+02
  -6.500  0.4480E+02  0.4417E+02  0.4053E+02
  -6.490  0.4552E+02  0.4425E+02  0.4143E+02
  -6.480  0.4645E+02  0.4283E+02  0.4235E+02
  -6.470  0.5080E+02  0.4603E+02  0.4330E+02
  -6.460  0.5187E+02  0.4710E+02  0.4427E+02
  -6.450  0.5433E+02  0.5998E+02  0.4530E+02
  -6.440  0.5326E+02  0.5509E+02  0.4646E+02
  -6.430  0.5752E+02  0.5854E+02  0.4758E+02
  -6.420  0.6425E+02  0.5557E+02  0.4876E+02
  -6.410  0.4861E+02  0.5353E+02  0.4991E+02
  -6.400  0.9585E+02  0.5392E+02  0.5117E+02
  -6.390  0.2116E+02  0.6136E+02  0.5245E+02
  -6.380  0.2869E+02  0.7175E+02  0.5357E+02
  -6.370  0.3708E+02  0.6935E+02  0.5456E+02
  -6.360  0.4461E+02  0.4610E+02  0.5564E+02
  -6.350  0.5246E+02  0.3513E+02  0.5648E+02
  -6.340  0.6577E+02  0.4150E+02  0.5746E+02
  -6.330  0.5996E+02  0.4876E+02  0.5862E+02
  -6.320  0.5869E+02  0.5831E+02  0.5975E+02
  -6.310  0.8341E+02  0.5687E+02  0.6102E+02
  -6.300  0.6786E+02  0.5884E+02  0.6242E+02
  -6.290  0.7903E+02  0.7813E+02  0.6387E+02
  -6.280  0.8080E+02  0.8511E+02  0.6551E+02
  -6.270  0.7360E+02  0.9230E+02  0.6722E+02
  -6.260  0.5282E+02  0.7782E+02  0.6864E+02
  -6.250  0.4026E+02  0.7273E+02  0.6988E+02
  -6.240  0.3706E+02  0.5208E+02  0.7083E+02
  -6.230  0.1075E+00  0.3714E+02  0.7151E+02
  -6.220  0.0000E+00  0.3933E+02  0.7185E+02
  -6.210  0.0000E+00  0.2601E-02  0.7200E+02
  -6.200  0.0000E+00  0.0000E+00  0.7200E+02
  -6.190  0.0000E+00  0.0000E+00  0.7200E+02
  -6.180  0.0000E+00  0.0000E+00  0.7200E+02
  -6.170  0.0000E+00  0.0000E+00  0.7200E+02
  -6.160  0.0000E+00  0.0000E+00  0.7200E+02
  -6.150  0.0000E+00  0.0000E+00  0.7200E+02
  -6.140  0.0000E+00  0.0000E+00  0.7200E+02
  -6.130  0.0000E+00  0.0000E+00  0.7200E+02
  -6.120  0.0000E+00  0.0000E+00  0.7200E+02
  -6.110  0.0000E+00  0.0000E+00  0.7200E+02
  -6.100  0.0000E+00  0.0000E+00  0.7200E+02
  -6.090  0.0000E+00  0.0000E+00  0.7200E+02
  -6.080  0.0000E+00  0.0000E+00  0.7200E+02
  -6.070  0.0000E+00  0.0000E+00  0.7200E+02
  -6.060  0.0000E+00  0.0000E+00  0.7200E+02
  -6.050  0.0000E+00  0.0000E+00  0.7200E+02
  -6.040  0.0000E+00  0.0000E+00  0.7200E+02
  -6.030  0.0000E+00  0.0000E+00  0.7200E+02
  -6.020  0.0000E+00  0.0000E+00  0.7200E+02
  -6.010  0.0000E+00  0.0000E+00  0.7200E+02
  -6.000  0.0000E+00  0.0000E+00  0.7200E+02
  -5.990  0.0000E+00  0.0000E+00  0.7200E+02
  -5.980  0.0000E+00  0.0000E+00  0.7200E+02
  -5.970  0.0000E+00  0.0000E+00  0.7200E+02
  -5.960  0.0000E+00  0.0000E+00  0.7200E+02
  -5.950  0.0000E+00  0.0000E+00  0.7200E+02
  -5.940  0.0000E+00  0.0000E+00  0.7200E+02
  -5.930  0.0000E+00  0.0000E+00  0.7200E+02
  -5.920  0.0000E+00  0.0000E+00  0.7200E+02
  -5.910  0.0000E+00  0.0000E+00  0.7200E+02
  -5.900  0.0000E+00  0.0000E+00  0.7200E+02
  -5.890  0.0000E+00  0.0000E+00  0.7200E+02
  -5.880  0.0000E+00  0.0000E+00  0.7200E+02
  -5.870  0.0000E+00  0.0000E+00  0.7200E+02
  -5.860  0.0000E+00  0.0000E+00  0.7200E+02
  -5.850  0.0000E+00  0.0000E+00  0.7200E+02
  -5.840  0.0000E+00  0.0000E+00  0.7200E+02
  -5.830  0.0000E+00  0.0000E+00  0.7200E+02
  -5.820  0.0000E+00  0.0000E+00  0.7200E+02
  -5.810  0.0000E+00  0.0000E+00  0.7200E+02
  -5.800  0.0000E+00  0.0000E+00  0.7200E+02
  -5.790  0.0000E+00  0.0000E+00  0.7200E+02
  -5.780  0.0000E+00  0.0000E+00  0.7200E+02
  -5.770  0.0000E+00  0.0000E+00  0.7200E+02
  -5.760  0.0000E+00  0.0000E+00  0.7200E+02
  -5.750  0.0000E+00  0.0000E+00  0.7200E+02
  -5.740  0.0000E+00  0.0000E+00  0.7200E+02
  -5.730  0.0000E+00  0.0000E+00  0.7200E+02
  -5.720  0.0000E+00  0.0000E+00  0.7200E+02
  -5.710  0.0000E+00  0.0000E+00  0.7200E+02
  -5.700  0.0000E+00  0.0000E+00  0.7200E+02
  -5.690  0.0000E+00  0.0000E+00  0.7200E+02
  -5.680  0.0000E+00  0.0000E+00  0.7200E+02
  -5.670  0.0000E+00  0.0000E+00  0.7200E+02
  -5.660  0.0000E+00  0.0000E+00  0.7200E+02
  -5.650  0.0000E+00  0.0000E+00  0.7200E+02
  -5.640  0.0000E+00  0.0000E+00  0.7200E+02
  -5.630  0.0000E+00  0.0000E+00  0.7200E+02
  -5.620  0.0000E+00  0.0000E+00  0.7200E+02
  -5.610  0.0000E+00  0.0000E+00  0.7200E+02
  -5.600  0.0000E+00  0.0000E+00  0.7200E+02
  -5.590  0.0000E+00  0.0000E+00  0.7200E+02
  -5.580  0.0000E+00  0.0000E+00  0.7200E+02
  -5.570  0.0000E+00  0.0000E+00  0.7200E+02
  -5.560  0.0000E+00  0.0000E+00  0.7200E+02
  -5.550  0.0000E+00  0.0000E+00  0.7200E+02
  -5.540  0.0000E+00  0.0000E+00  0.7200E+02
  -5.530  0.0000E+00  0.0000E+00  0.7200E+02
  -5.520  0.0000E+00  0.0000E+00  0.7200E+02
  -5.510  0.0000E+00  0.0000E+00  0.7200E+02
  -5.500  0.0000E+00  0.0000E+00  0.7200E+02
  -5.490  0.0000E+00  0.0000E+00  0.7200E+02
  -5.480  0.0000E+00  0.0000E+00  0.7200E+02
  -5.470  0.0000E+00  0.0000E+00  0.7200E+02
  -5.460  0.0000E+00  0.0000E+00  0.7200E+02
  -5.450  0.0000E+00  0.0000E+00  0.7200E+02
  -5.440  0.0000E+00  0.0000E+00  0.7200E+02
  -5.430  0.0000E+00  0.0000E+00  0.7200E+02
  -5.420  0.0000E+00  0.0000E+00  0.7200E+02
  -5.410  0.0000E+00  0.0000E+00  0.7200E+02
  -5.400  0.0000E+00  0.0000E+00  0.7200E+02
  -5.390  0.0000E+00  0.0000E+00  0.7200E+02
  -5.380  0.0000E+00  0.0000E+00  0.7200E+02
  -5.370  0.0000E+00  0.0000E+00  0.7200E+02
  -5.360  0.0000E+00  0.0000E+00  0.7200E+02
  -5.350  0.0000E+00  0.0000E+00  0.7200E+02
  -5.340  0.0000E+00  0.0000E+00  0.7200E+02
  -5.330  0.0000E+00  0.0000E+00  0.7200E+02
  -5.320  0.0000E+00  0.0000E+00  0.7200E+02
  -5.310  0.0000E+00  0.0000E+00  0.7200E+02
  -5.300  0.0000E+00  0.0000E+00  0.7200E+02
  -5.290  0.0000E+00  0.0000E+00  0.7200E+02
  -5.280  0.0000E+00  0.0000E+00  0.7200E+02
  -5.270  0.0000E+00  0.0000E+00  0.7200E+02
  -5.260  0.0000E+00  0.0000E+00  0.7200E+02
  -5.250  0.0000E+00  0.0000E+00  0.7200E+02
  -5.240  0.0000E+00  0.0000E+00  0.7200E+02
  -5.230  0.0000E+00  0.0000E+00  0.7200E+02
  -5.220  0.0000E+00  0.0000E+00  0.7200E+02
  -5.210  0.0000E+00  0.0000E+00  0.7200E+02
  -5.200  0.0000E+00  0.0000E+00  0.7200E+02
  -5.190  0.0000E+00  0.0000E+00  0.7200E+02
  -5.180  0.0000E+00  0.0000E+00  0.7200E+02
  -5.170  0.0000E+00  0.0000E+00  0.7200E+02
  -5.160  0.0000E+00  0.0000E+00  0.7200E+02
  -5.150  0.0000E+00  0.0000E+00  0.7200E+02
  -5.140  0.0000E+00  0.0000E+00  0.7200E+02
  -5.130  0.0000E+00  0.0000E+00  0.7200E+02
  -5.120  0.0000E+00  0.0000E+00  0.7200E+02
  -5.110  0.0000E+00  0.0000E+00  0.7200E+02
  -5.100  0.0000E+00  0.0000E+00  0.7200E+02
  -5.090  0.0000E+00  0.0000E+00  0.7200E+02
  -5.080  0.0000E+00  0.0000E+00  0.7200E+02
  -5.070  0.0000E+00  0.0000E+00  0.7200E+02
  -5.060  0.0000E+00  0.0000E+00  0.7200E+02
  -5.050  0.0000E+00  0.0000E+00  0.7200E+02
  -5.040  0.0000E+00  0.0000E+00  0.7200E+02
  -5.030  0.0000E+00  0.0000E+00  0.7200E+02
  -5.020  0.0000E+00  0.0000E+00  0.7200E+02
  -5.010  0.0000E+00  0.0000E+00  0.7200E+02
  -5.000  0.0000E+00  0.0000E+00  0.7200E+02
  -4.990  0.0000E+00  0.0000E+00  0.7200E+02
  -4.980  0.0000E+00  0.0000E+00  0.7200E+02
  -4.970  0.0000E+00  0.0000E+00  0.7200E+02
  -4.960  0.0000E+00  0.0000E+00  0.7200E+02
  -4.950  0.0000E+00  0.0000E+00  0.7200E+02
  -4.940  0.0000E+00  0.0000E+00  0.7200E+02
  -4.930  0.0000E+00  0.0000E+00  0.7200E+02
  -4.920  0.0000E+00  0.0000E+00  0.7200E+02
  -4.910  0.0000E+00  0.0000E+00  0.7200E+02
  -4.900  0.0000E+00  0.0000E+00  0.7200E+02
  -4.890  0.0000E+00  0.0000E+00  0.7200E+02
  -4.880  0.0000E+00  0.0000E+00  0.7200E+02
  -4.870  0.0000E+00  0.0000E+00  0.7200E+02
  -4.860  0.0000E+00  0.0000E+00  0.7200E+02
  -4.850  0.0000E+00  0.0000E+00  0.7200E+02
  -4.840  0.0000E+00  0.0000E+00  0.7200E+02
  -4.830  0.0000E+00  0.0000E+00  0.7200E+02
  -4.820  0.0000E+00  0.0000E+00  0.7200E+02
  -4.810  0.0000E+00  0.0000E+00  0.7200E+02
  -4.800  0.0000E+00  0.0000E+00  0.7200E+02
  -4.790  0.0000E+00  0.0000E+00  0.7200E+02
  -4.780  0.0000E+00  0.0000E+00  0.7200E+02
  -4.770  0.0000E+00  0.0000E+00  0.7200E+02
  -4.760  0.0000E+00  0.0000E+00  0.7200E+02
  -4.750  0.0000E+00  0.0000E+00  0.7200E+02
  -4.740  0.0000E+00  0.0000E+00  0.7200E+02
  -4.730  0.0000E+00  0.0000E+00  0.7200E+02
  -4.720  0.0000E+00  0.0000E+00  0.7200E+02
  -4.710  0.0000E+00  0.0000E+00  0.7200E+02
  -4.700  0.0000E+00  0.0000E+00  0.7200E+02
  -4.690  0.0000E+00  0.0000E+00  0.7200E+02
  -4.680  0.0000E+00  0.0000E+00  0.7200E+02
  -4.670  0.0000E+00  0.0000E+00  0.7200E+02
  -4.660  0.0000E+00  0.0000E+00  0.7200E+02
  -4.650  0.0000E+00  0.0000E+00  0.7200E+02
  -4.640  0.0000E+00  0.0000E+00  0.7200E+02
  -4.630  0.0000E+00  0.0000E+00  0.7200E+02
  -4.620  0.0000E+00  0.0000E+00  0.7200E+02
  -4.610  0.0000E+00  0.0000E+00  0.7200E+02
  -4.600  0.0000E+00  0.0000E+00  0.7200E+02
  -4.590  0.0000E+00  0.0000E+00  0.7200E+02
  -4.580  0.0000E+00  0.0000E+00  0.7200E+02
  -4.570  0.0000E+00  0.0000E+00  0.7200E+02
  -4.560  0.0000E+00  0.0000E+00  0.7200E+02
  -4.550  0.0000E+00  0.0000E+00  0.7200E+02
  -4.540  0.0000E+00  0.0000E+00  0.7200E+02
  -4.530  0.0000E+00  0.0000E+00  0.7200E+02
  -4.520  0.0000E+00  0.0000E+00  0.7200E+02
  -4.510  0.0000E+00  0.0000E+00  0.7200E+02
  -4.500  0.0000E+00  0.0000E+00  0.7200E+02
  -4.490  0.0000E+00  0.0000E+00  0.7200E+02
  -4.480  0.0000E+00  0.0000E+00  0.7200E+02
  -4.470  0.0000E+00  0.0000E+00  0.7200E+02
  -4.460  0.0000E+00  0.0000E+00  0.7200E+02
  -4.450  0.0000E+00  0.0000E+00  0.7200E+02
  -4.440  0.0000E+00  0.0000E+00  0.7200E+02
  -4.430  0.0000E+00  0.0000E+00  0.7200E+02
  -4.420  0.0000E+00  0.0000E+00  0.7200E+02
  -4.410  0.0000E+00  0.0000E+00  0.7200E+02
  -4.400  0.0000E+00  0.0000E+00  0.7200E+02
  -4.390  0.0000E+00  0.0000E+00  0.7200E+02
  -4.380  0.0000E+00  0.0000E+00  0.7200E+02
  -4.370  0.0000E+00  0.0000E+00  0.7200E+02
  -4.360  0.0000E+00  0.0000E+00  0.7200E+02
  -4.350  0.0000E+00  0.0000E+00  0.7200E+02
  -4.340  0.0000E+00  0.0000E+00  0.7200E+02
  -4.330  0.0000E+00  0.0000E+00  0.7200E+02
  -4.320  0.0000E+00  0.0000E+00  0.7200E+02
  -4.310  0.0000E+00  0.0000E+00  0.7200E+02
  -4.300  0.0000E+00  0.0000E+00  0.7200E+02
  -4.290  0.0000E+00  0.0000E+00  0.7200E+02
  -4.280  0.0000E+00  0.0000E+00  0.7200E+02
  -4.270  0.0000E+00  0.0000E+00  0.7200E+02
  -4.260  0.0000E+00  0.0000E+00  0.7200E+02
  -4.250  0.0000E+00  0.0000E+00  0.7200E+02
  -4.240  0.0000E+00  0.0000E+00  0.7200E+02
  -4.230  0.0000E+00  0.0000E+00  0.7200E+02
  -4.220  0.0000E+00  0.0000E+00  0.7200E+02
  -4.210  0.0000E+00  0.0000E+00  0.7200E+02
  -4.200  0.0000E+00  0.0000E+00  0.7200E+02
  -4.190  0.0000E+00  0.0000E+00  0.7200E+02
  -4.180  0.0000E+00  0.0000E+00  0.7200E+02
  -4.170  0.0000E+00  0.0000E+00  0.7200E+02
  -4.160  0.0000E+00  0.0000E+00  0.7200E+02
  -4.150  0.0000E+00  0.0000E+00  0.7200E+02
  -4.140  0.0000E+00  0.0000E+00  0.7200E+02
  -4.130  0.0000E+00  0.0000E+00  0.7200E+02
  -4.120  0.0000E+00  0.0000E+00  0.7200E+02
  -4.110  0.0000E+00  0.0000E+00  0.7200E+02
  -4.100  0.0000E+00  0.0000E+00  0.7200E+02
  -4.090  0.0000E+00  0.0000E+00  0.7200E+02
  -4.080  0.0000E+00  0.0000E+00  0.7200E+02
  -4.070  0.0000E+00  0.0000E+00  0.7200E+02
  -4.060  0.0000E+00  0.0000E+00  0.7200E+02
  -4.050  0.0000E+00  0.0000E+00  0.7200E+02
  -4.040  0.0000E+00  0.0000E+00  0.7200E+02
  -4.030  0.0000E+00  0.0000E+00  0.7200E+02
  -4.020  0.0000E+00  0.0000E+00  0.7200E+02
  -4.010  0.0000E+00  0.0000E+00  0.7200E+02
  -4.000  0.0000E+00  0.0000E+00  0.7200E+02
  -3.990  0.0000E+00  0.0000E+00  0.7200E+02
  -3.980  0.0000E+00  0.0000E+00  0.7200E+02
  -3.970  0.0000E+00  0.0000E+00  0.7200E+02
  -3.960  0.0000E+00  0.0000E+00  0.7200E+02
  -3.950  0.0000E+00  0.0000E+00  0.7200E+02
  -3.940  0.0000E+00  0.0000E+00  0.7200E+02
  -3.930  0.0000E+00  0.0000E+00  0.7200E+02
  -3.920  0.0000E+00  0.0000E+00  0.7200E+02
  -3.910  0.0000E+00  0.0000E+00  0.7200E+02
  -3.900  0.0000E+00  0.0000E+00  0.7200E+02
  -3.890  0.0000E+00  0.0000E+00  0.7200E+02
  -3.880  0.0000E+00  0.0000E+00  0.7200E+02
  -3.870  0.0000E+00  0.0000E+00  0.7200E+02
  -3.860  0.0000E+00  0.0000E+00  0.7200E+02
  -3.850  0.0000E+00  0.0000E+00  0.7200E+02
  -3.840  0.0000E+00  0.0000E+00  0.7200E+02
  -3.830  0.0000E+00  0.0000E+00  0.7200E+02
  -3.820  0.0000E+00  0.0000E+00  0.7200E+02
  -3.810  0.0000E+00  0.0000E+00  0.7200E+02
  -3.800  0.0000E+00  0.0000E+00  0.7200E+02
  -3.790  0.0000E+00  0.0000E+00  0.7200E+02
  -3.780  0.0000E+00  0.0000E+00  0.7200E+02
  -3.770  0.0000E+00  0.0000E+00  0.7200E+02
  -3.760  0.0000E+00  0.0000E+00  0.7200E+02
  -3.750  0.0000E+00  0.0000E+00  0.7200E+02
  -3.740  0.0000E+00  0.0000E+00  0.7200E+02
  -3.730  0.0000E+00  0.0000E+00  0.7200E+02
  -3.720  0.0000E+00  0.0000E+00  0.7200E+02
  -3.710  0.0000E+00  0.0000E+00  0.7200E+02
  -3.700  0.0000E+00  0.0000E+00  0.7200E+02
  -3.690  0.0000E+00  0.0000E+00  0.7200E+02
  -3.680  0.0000E+00  0.0000E+00  0.7200E+02
  -3.670  0.0000E+00  0.0000E+00  0.7200E+02
  -3.660  0.0000E+00  0.0000E+00  0.7200E+02
  -3.650  0.0000E+00  0.0000E+00  0.7200E+02
  -3.640  0.0000E+00  0.0000E+00  0.7200E+02
  -3.630  0.0000E+00  0.0000E+00  0.7200E+02
  -3.620  0.0000E+00  0.0000E+00  0.7200E+02
  -3.610  0.0000E+00  0.0000E+00  0.7200E+02
  -3.600  0.0000E+00  0.0000E+00  0.7200E+02
  -3.590  0.0000E+00  0.0000E+00  0.7200E+02
  -3.580  0.0000E+00  0.0000E+00  0.7200E+02
  -3.570  0.0000E+00  0.0000E+00  0.7200E+02
  -3.560  0.0000E+00  0.0000E+00  0.7200E+02
  -3.550  0.0000E+00  0.0000E+00  0.7200E+02
  -3.540  0.0000E+00  0.0000E+00  0.7200E+02
  -3.530  0.0000E+00  0.0000E+00  0.7200E+02
  -3.520  0.0000E+00  0.0000E+00  0.7200E+02
  -3.510  0.0000E+00  0.0000E+00  0.7200E+02
  -3.500  0.0000E+00  0.0000E+00  0.7200E+02
  -3.490  0.0000E+00  0.0000E+00  0.7200E+02
  -3.480  0.0000E+00  0.0000E+00  0.7200E+02
  -3.470  0.0000E+00  0.0000E+00  0.7200E+02
  -3.460  0.0000E+00  0.0000E+00  0.7200E+02
  -3.450  0.0000E+00  0.0000E+00  0.7200E+02
  -3.440  0.0000E+00  0.0000E+00  0.7200E+02
  -3.430  0.0000E+00  0.0000E+00  0.7200E+02
  -3.420  0.0000E+00  0.0000E+00  0.7200E+02
  -3.410  0.0000E+00  0.0000E+00  0.7200E+02
  -3.400  0.0000E+00  0.0000E+00  0.7200E+02
  -3.390  0.0000E+00  0.0000E+00  0.7200E+02
  -3.380  0.0000E+00  0.0000E+00  0.7200E+02
  -3.370  0.0000E+00  0.0000E+00  0.7200E+02
  -3.360  0.0000E+00  0.0000E+00  0.7200E+02
  -3.350  0.0000E+00  0.0000E+00  0.7200E+02
  -3.340  0.0000E+00  0.0000E+00  0.7200E+02
  -3.330  0.0000E+00  0.0000E+00  0.7200E+02
  -3.320  0.0000E+00  0.0000E+00  0.7200E+02
  -3.310  0.0000E+00  0.0000E+00  0.7200E+02
  -3.300  0.0000E+00  0.0000E+00  0.7200E+02
  -3.290  0.0000E+00  0.0000E+00  0.7200E+02
  -3.280  0.0000E+00  0.0000E+00  0.7200E+02
  -3.270  0.0000E+00  0.0000E+00  0.7200E+02
  -3.260  0.0000E+00  0.0000E+00  0.7200E+02
  -3.250  0.0000E+00  0.0000E+00  0.7200E+02
  -3.240  0.0000E+00  0.0000E+00  0.7200E+02
  -3.230  0.0000E+00  0.0000E+00  0.7200E+02
  -3.220  0.0000E+00  0.0000E+00  0.7200E+02
  -3.210  0.0000E+00  0.0000E+00  0.7200E+02
  -3.200  0.0000E+00  0.0000E+00  0.7200E+02
  -3.190  0.0000E+00  0.0000E+00  0.7200E+02
  -3.180  0.0000E+00  0.0000E+00  0.7200E+02
  -3.170  0.0000E+00  0.0000E+00  0.7200E+02
  -3.160  0.0000E+00  0.0000E+00  0.7200E+02
  -3.150  0.0000E+00  0.0000E+00  0.7200E+02
  -3.140  0.0000E+00  0.0000E+00  0.7200E+02
  -3.130  0.0000E+00  0.0000E+00  0.7200E+02
  -3.120  0.0000E+00  0.0000E+00  0.7200E+02
  -3.110  0.0000E+00  0.0000E+00  0.7200E+02
  -3.100  0.0000E+00  0.0000E+00  0.7200E+02
  -3.090  0.0000E+00  0.0000E+00  0.7200E+02
  -3.080  0.0000E+00  0.0000E+00  0.7200E+02
  -3.070  0.0000E+00  0.0000E+00  0.7200E+02
  -3.060  0.0000E+00  0.0000E+00  0.7200E+02
  -3.050  0.0000E+00  0.0000E+00  0.7200E+02
  -3.040  0.0000E+00  0.0000E+00  0.7200E+02
  -3.030  0.0000E+00  0.0000E+00  0.7200E+02
  -3.020  0.0000E+00  0.0000E+00  0.7200E+02
  -3.010  0.0000E+00  0.0000E+00  0.7200E+02
  -3.000  0.0000E+00  0.0000E+00  0.7200E+02
  -2.990  0.0000E+00  0.0000E+00  0.7200E+02
  -2.980  0.0000E+00  0.0000E+00  0.7200E+02
  -2.970  0.0000E+00  0.0000E+00  0.7200E+02
  -2.960  0.0000E+00  0.0000E+00  0.7200E+02
  -2.950  0.0000E+00  0.0000E+00  0.7200E+02
  -2.940  0.0000E+00  0.0000E+00  0.7200E+02
  -2.930  0.0000E+00  0.0000E+00  0.7200E+02
  -2.920  0.0000E+00  0.0000E+00  0.7200E+02
  -2.910  0.0000E+00  0.0000E+00  0.7200E+02
  -2.900  0.0000E+00  0.0000E+00  0.7200E+02
  -2.890  0.0000E+00  0.0000E+00  0.7200E+02
  -2.880  0.0000E+00  0.0000E+00  0.7200E+02
  -2.870  0.0000E+00  0.0000E+00  0.7200E+02
  -2.860  0.0000E+00  0.0000E+00  0.7200E+02
  -2.850  0.0000E+00  0.0000E+00  0.7200E+02
  -2.840  0.0000E+00  0.0000E+00  0.7200E+02
  -2.830  0.0000E+00  0.0000E+00  0.7200E+02
  -2.820  0.0000E+00  0.0000E+00  0.7200E+02
  -2.810  0.0000E+00  0.0000E+00  0.7200E+02
  -2.800  0.0000E+00  0.0000E+00  0.7200E+02
  -2.790  0.0000E+00  0.0000E+00  0.7200E+02
  -2.780  0.0000E+00  0.0000E+00  0.7200E+02
  -2.770  0.0000E+00  0.0000E+00  0.7200E+02
  -2.760  0.0000E+00  0.0000E+00  0.7200E+02
  -2.750  0.0000E+00  0.0000E+00  0.7200E+02
  -2.740  0.0000E+00  0.0000E+00  0.7200E+02
  -2.730  0.0000E+00  0.0000E+00  0.7200E+02
  -2.720  0.0000E+00  0.0000E+00  0.7200E+02
  -2.710  0.0000E+00  0.0000E+00  0.7200E+02
  -2.700  0.0000E+00  0.0000E+00  0.7200E+02
  -2.690  0.0000E+00  0.0000E+00  0.7200E+02
  -2.680  0.0000E+00  0.0000E+00  0.7200E+02
  -2.670  0.0000E+00  0.0000E+00  0.7200E+02
  -2.660  0.0000E+00  0.0000E+00  0.7200E+02
  -2.650  0.0000E+00  0.0000E+00  0.7200E+02
  -2.640  0.0000E+00  0.0000E+00  0.7200E+02
  -2.630  0.0000E+00  0.0000E+00  0.7200E+02
  -2.620  0.0000E+00  0.0000E+00  0.7200E+02
  -2.610  0.0000E+00  0.0000E+00  0.7200E+02
  -2.600  0.0000E+00  0.0000E+00  0.7200E+02
  -2.590  0.0000E+00  0.0000E+00  0.7200E+02
  -2.580  0.0000E+00  0.0000E+00  0.7200E+02
  -2.570  0.0000E+00  0.0000E+00  0.7200E+02
  -2.560  0.0000E+00  0.0000E+00  0.7200E+02
  -2.550  0.0000E+00  0.0000E+00  0.7200E+02
  -2.540  0.0000E+00  0.0000E+00  0.7200E+02
  -2.530  0.0000E+00  0.0000E+00  0.7200E+02
  -2.520  0.0000E+00  0.0000E+00  0.7200E+02
  -2.510  0.0000E+00  0.0000E+00  0.7200E+02
  -2.500  0.0000E+00  0.0000E+00  0.7200E+02
  -2.490  0.0000E+00  0.0000E+00  0.7200E+02
  -2.480  0.0000E+00  0.0000E+00  0.7200E+02
  -2.470  0.0000E+00  0.0000E+00  0.7200E+02
  -2.460  0.0000E+00  0.0000E+00  0.7200E+02
  -2.450  0.0000E+00  0.0000E+00  0.7200E+02
  -2.440  0.0000E+00  0.0000E+00  0.7200E+02
  -2.430  0.0000E+00  0.0000E+00  0.7200E+02
  -2.420  0.0000E+00  0.0000E+00  0.7200E+02
  -2.410  0.0000E+00  0.0000E+00  0.7200E+02
  -2.400  0.0000E+00  0.0000E+00  0.7200E+02
  -2.390  0.0000E+00  0.0000E+00  0.7200E+02
  -2.380  0.0000E+00  0.0000E+00  0.7200E+02
  -2.370  0.0000E+00  0.0000E+00  0.7200E+02
  -2.360  0.0000E+00  0.0000E+00  0.7200E+02
  -2.350  0.0000E+00  0.0000E+00  0.7200E+02
  -2.340  0.0000E+00  0.0000E+00  0.7200E+02
  -2.330  0.0000E+00  0.0000E+00  0.7200E+02
  -2.320  0.0000E+00  0.0000E+00  0.7200E+02
  -2.310  0.0000E+00  0.0000E+00  0.7200E+02
  -2.300  0.0000E+00  0.0000E+00  0.7200E+02
  -2.290  0.0000E+00  0.0000E+00  0.7200E+02
  -2.280  0.0000E+00  0.0000E+00  0.7200E+02
  -2.270  0.0000E+00  0.0000E+00  0.7200E+02
  -2.260  0.0000E+00  0.0000E+00  0.7200E+02
  -2.250  0.0000E+00  0.0000E+00  0.7200E+02
  -2.240  0.0000E+00  0.0000E+00  0.7200E+02
  -2.230  0.0000E+00  0.0000E+00  0.7200E+02
  -2.220  0.0000E+00  0.0000E+00  0.7200E+02
  -2.210  0.0000E+00  0.0000E+00  0.7200E+02
  -2.200  0.0000E+00  0.0000E+00  0.7200E+02
  -2.190  0.0000E+00  0.0000E+00  0.7200E+02
  -2.180  0.0000E+00  0.0000E+00  0.7200E+02
  -2.170  0.0000E+00  0.0000E+00  0.7200E+02
  -2.160  0.0000E+00  0.0000E+00  0.7200E+02
  -2.150  0.0000E+00  0.0000E+00  0.7200E+02
  -2.140  0.0000E+00  0.0000E+00  0.7200E+02
  -2.130  0.0000E+00  0.0000E+00  0.7200E+02
  -2.120  0.0000E+00  0.0000E+00  0.7200E+02
  -2.110  0.0000E+00  0.0000E+00  0.7200E+02
  -2.100  0.0000E+00  0.0000E+00  0.7200E+02
  -2.090  0.0000E+00  0.0000E+00  0.7200E+02
  -2.080  0.0000E+00  0.0000E+00  0.7200E+02
  -2.070  0.0000E+00  0.0000E+00  0.7200E+02
  -2.060  0.0000E+00  0.0000E+00  0.7200E+02
  -2.050  0.0000E+00  0.0000E+00  0.7200E+02
  -2.040  0.0000E+00  0.0000E+00  0.7200E+02
  -2.030  0.0000E+00  0.0000E+00  0.7200E+02
  -2.020  0.0000E+00  0.0000E+00  0.7200E+02
  -2.010  0.0000E+00  0.0000E+00  0.7200E+02
  -2.000  0.0000E+00  0.0000E+00  0.7200E+02
  -1.990  0.0000E+00  0.0000E+00  0.7200E+02
  -1.980  0.0000E+00  0.0000E+00  0.7200E+02
  -1.970  0.0000E+00  0.0000E+00  0.7200E+02
  -1.960  0.0000E+00  0.0000E+00  0.7200E+02
  -1.950  0.0000E+00  0.0000E+00  0.7200E+02
  -1.940  0.0000E+00  0.0000E+00  0.7200E+02
  -1.930  0.0000E+00  0.0000E+00  0.7200E+02
  -1.920  0.0000E+00  0.0000E+00  0.7200E+02
  -1.910  0.0000E+00  0.0000E+00  0.7200E+02
  -1.900  0.0000E+00  0.0000E+00  0.7200E+02
  -1.890  0.0000E+00  0.0000E+00  0.7200E+02
  -1.880  0.0000E+00  0.0000E+00  0.7200E+02
  -1.870  0.0000E+00  0.0000E+00  0.7200E+02
  -1.860  0.0000E+00  0.0000E+00  0.7200E+02
  -1.850  0.0000E+00  0.0000E+00  0.7200E+02
  -1.840  0.0000E+00  0.0000E+00  0.7200E+02
  -1.830  0.0000E+00  0.0000E+00  0.7200E+02
  -1.820  0.0000E+00  0.0000E+00  0.7200E+02
  -1.810  0.0000E+00  0.0000E+00  0.7200E+02
  -1.800  0.0000E+00  0.0000E+00  0.7200E+02
  -1.790  0.0000E+00  0.0000E+00  0.7200E+02
  -1.780  0.0000E+00  0.0000E+00  0.7200E+02
  -1.770  0.0000E+00  0.0000E+00  0.7200E+02
  -1.760  0.0000E+00  0.0000E+00  0.7200E+02
  -1.750  0.0000E+00  0.0000E+00  0.7200E+02
  -1.740  0.0000E+00  0.0000E+00  0.7200E+02
  -1.730  0.0000E+00  0.0000E+00  0.7200E+02
  -1.720  0.0000E+00  0.0000E+00  0.7200E+02
  -1.710  0.0000E+00  0.0000E+00  0.7200E+02
  -1.700  0.0000E+00  0.0000E+00  0.7200E+02
  -1.690  0.0000E+00  0.0000E+00  0.7200E+02
  -1.680  0.0000E+00  0.0000E+00  0.7200E+02
  -1.670  0.0000E+00  0.0000E+00  0.7200E+02
  -1.660  0.0000E+00  0.0000E+00  0.7200E+02
  -1.650  0.0000E+00  0.0000E+00  0.7200E+02
  -1.640  0.0000E+00  0.0000E+00  0.7200E+02
  -1.630  0.0000E+00  0.0000E+00  0.7200E+02
  -1.620  0.0000E+00  0.0000E+00  0.7200E+02
  -1.610  0.0000E+00  0.0000E+00  0.7200E+02
  -1.600  0.0000E+00  0.0000E+00  0.7200E+02
  -1.590  0.0000E+00  0.0000E+00  0.7200E+02
  -1.580  0.0000E+00  0.0000E+00  0.7200E+02
  -1.570  0.0000E+00  0.0000E+00  0.7200E+02
  -1.560  0.0000E+00  0.0000E+00  0.7200E+02
  -1.550  0.0000E+00  0.0000E+00  0.7200E+02
  -1.540  0.0000E+00  0.0000E+00  0.7200E+02
  -1.530  0.0000E+00  0.0000E+00  0.7200E+02
  -1.520  0.0000E+00  0.0000E+00  0.7200E+02
  -1.510  0.0000E+00  0.0000E+00  0.7200E+02
  -1.500  0.0000E+00  0.0000E+00  0.7200E+02
  -1.490  0.0000E+00  0.0000E+00  0.7200E+02
  -1.480  0.0000E+00  0.0000E+00  0.7200E+02
  -1.470  0.0000E+00  0.0000E+00  0.7200E+02
  -1.460  0.0000E+00  0.0000E+00  0.7200E+02
  -1.450  0.0000E+00  0.0000E+00  0.7200E+02
  -1.440  0.0000E+00  0.0000E+00  0.7200E+02
  -1.430  0.0000E+00  0.0000E+00  0.7200E+02
  -1.420  0.0000E+00  0.0000E+00  0.7200E+02
  -1.410  0.0000E+00  0.0000E+00  0.7200E+02
  -1.400  0.0000E+00  0.0000E+00  0.7200E+02
  -1.390  0.0000E+00  0.0000E+00  0.7200E+02
  -1.380  0.0000E+00  0.0000E+00  0.7200E+02
  -1.370  0.0000E+00  0.0000E+00  0.7200E+02
  -1.360  0.0000E+00  0.0000E+00  0.7200E+02
  -1.350  0.0000E+00  0.0000E+00  0.7200E+02
  -1.340  0.0000E+00  0.0000E+00  0.7200E+02
  -1.330  0.0000E+00  0.0000E+00  0.7200E+02
  -1.320  0.0000E+00  0.0000E+00  0.7200E+02
  -1.310  0.0000E+00  0.0000E+00  0.7200E+02
  -1.300  0.0000E+00  0.0000E+00  0.7200E+02
  -1.290  0.0000E+00  0.0000E+00  0.7200E+02
  -1.280  0.0000E+00  0.0000E+00  0.7200E+02
  -1.270  0.0000E+00  0.0000E+00  0.7200E+02
  -1.260  0.0000E+00  0.0000E+00  0.7200E+02
  -1.250  0.0000E+00  0.0000E+00  0.7200E+02
  -1.240  0.0000E+00  0.0000E+00  0.7200E+02
  -1.230  0.0000E+00  0.0000E+00  0.7200E+02
  -1.220  0.0000E+00  0.0000E+00  0.7200E+02
  -1.210  0.0000E+00  0.0000E+00  0.7200E+02
  -1.200  0.0000E+00  0.0000E+00  0.7200E+02
  -1.190  0.0000E+00  0.0000E+00  0.7200E+02
  -1.180  0.0000E+00  0.0000E+00  0.7200E+02
  -1.170  0.0000E+00  0.0000E+00  0.7200E+02
  -1.160  0.0000E+00  0.0000E+00  0.7200E+02
  -1.150  0.0000E+00  0.0000E+00  0.7200E+02
  -1.140  0.0000E+00  0.0000E+00  0.7200E+02
  -1.130  0.0000E+00  0.0000E+00  0.7200E+02
  -1.120  0.0000E+00  0.0000E+00  0.7200E+02
  -1.110  0.0000E+00  0.0000E+00  0.7200E+02
  -1.100  0.0000E+00  0.0000E+00  0.7200E+02
  -1.090  0.0000E+00  0.0000E+00  0.7200E+02
  -1.080  0.0000E+00  0.0000E+00  0.7200E+02
  -1.070  0.0000E+00  0.0000E+00  0.7200E+02
  -1.060  0.0000E+00  0.0000E+00  0.7200E+02
  -1.050  0.0000E+00  0.0000E+00  0.7200E+02
  -1.040  0.0000E+00  0.0000E+00  0.7200E+02
  -1.030  0.0000E+00  0.0000E+00  0.7200E+02
  -1.020  0.0000E+00  0.0000E+00  0.7200E+02
  -1.010  0.0000E+00  0.0000E+00  0.7200E+02
  -1.000  0.0000E+00  0.0000E+00  0.7200E+02
  -0.990  0.0000E+00  0.0000E+00  0.7200E+02
  -0.980  0.0000E+00  0.0000E+00  0.7200E+02
  -0.970  0.0000E+00  0.0000E+00  0.7200E+02
  -0.960  0.0000E+00  0.0000E+00  0.7200E+02
  -0.950  0.0000E+00  0.0000E+00  0.7200E+02
  -0.940  0.0000E+00  0.0000E+00  0.7200E+02
  -0.930  0.0000E+00  0.0000E+00  0.7200E+02
  -0.920  0.0000E+00  0.0000E+00  0.7200E+02
  -0.910  0.0000E+00  0.0000E+00  0.7200E+02
  -0.900  0.0000E+00  0.0000E+00  0.7200E+02
  -0.890  0.0000E+00  0.0000E+00  0.7200E+02
  -0.880  0.0000E+00  0.0000E+00  0.7200E+02
  -0.870  0.0000E+00  0.0000E+00  0.7200E+02
  -0.860  0.0000E+00  0.0000E+00  0.7200E+02
  -0.850  0.0000E+00  0.0000E+00  0.7200E+02
  -0.840  0.0000E+00  0.0000E+00  0.7200E+02
  -0.830  0.0000E+00  0.0000E+00  0.7200E+02
  -0.820  0.0000E+00  0.0000E+00  0.7200E+02
  -0.810  0.0000E+00  0.0000E+00  0.7200E+02
  -0.800  0.0000E+00  0.0000E+00  0.7200E+02
  -0.790  0.0000E+00  0.0000E+00  0.7200E+02
  -0.780  0.0000E+00  0.0000E+00  0.7200E+02
  -0.770  0.0000E+00  0.0000E+00  0.7200E+02
  -0.760  0.0000E+00  0.0000E+00  0.7200E+02
  -0.750  0.0000E+00  0.0000E+00  0.7200E+02
  -0.740  0.0000E+00  0.0000E+00  0.7200E+02
  -0.730  0.0000E+00  0.0000E+00  0.7200E+02
  -0.720  0.0000E+00  0.0000E+00  0.7200E+02
  -0.710  0.4758E+01  0.0000E+00  0.7201E+02
  -0.700  0.1955E+02  0.3778E+00  0.7212E+02
  -0.690  0.6982E+02  0.1182E+02  0.7260E+02
  -0.680  0.1138E+03  0.5110E+02  0.7384E+02
  -0.670  0.1305E+03  0.1143E+03  0.7588E+02
  -0.660  0.1704E+03  0.1245E+03  0.7855E+02
  -0.650  0.1718E+03  0.1596E+03  0.8171E+02
  -0.640  0.2170E+03  0.1995E+03  0.8543E+02
  -0.630  0.1916E+03  0.2037E+03  0.8980E+02
  -0.620  0.9344E+02  0.1978E+03  0.9339E+02
  -0.610  0.2703E+03  0.1227E+03  0.9689E+02
  -0.600  0.2783E+03  0.2646E+03  0.1007E+03
  -0.590  0.2192E+03  0.3366E+03  0.1069E+03
  -0.580  0.3786E+03  0.3162E+03  0.1130E+03
  -0.570  0.2636E+03  0.3082E+03  0.1194E+03
  -0.560  0.2694E+03  0.3157E+03  0.1250E+03
  -0.550  0.3230E+03  0.2810E+03  0.1307E+03
  -0.540  0.4378E+03  0.3781E+03  0.1379E+03
  -0.530  0.3773E+03  0.4032E+03  0.1463E+03
  -0.520  0.4135E+03  0.3244E+03  0.1541E+03
  -0.510  0.1814E+03  0.4644E+03  0.1625E+03
  -0.500  0.2376E+03  0.2165E+03  0.1670E+03
  -0.490  0.3732E+03  0.2939E+03  0.1724E+03
  -0.480  0.2264E+03  0.2948E+03  0.1777E+03
  -0.470  0.1882E+03  0.1714E+03  0.1822E+03
  -0.460  0.1857E+03  0.1892E+03  0.1856E+03
  -0.450  0.2420E+03  0.1865E+03  0.1895E+03
  -0.440  0.1599E+03  0.1452E+03  0.1933E+03
  -0.430  0.2684E+03  0.1685E+03  0.1967E+03
  -0.420  0.1708E+03  0.3760E+03  0.2009E+03
  -0.410  0.1718E+03  0.1867E+03  0.2046E+03
  -0.400  0.1997E+03  0.1277E+03  0.2078E+03
  -0.390  0.9516E+02  0.1611E+03  0.2112E+03
  -0.380  0.1134E+03  0.8078E+02  0.2132E+03
  -0.370  0.1925E+03  0.1224E+03  0.2156E+03
  -0.360  0.1414E+03  0.1524E+03  0.2187E+03
  -0.350  0.1664E+03  0.1397E+03  0.2216E+03
  -0.340  0.1007E+03  0.1639E+03  0.2246E+03
  -0.330  0.1384E+03  0.1199E+03  0.2271E+03
  -0.320  0.1024E+03  0.1020E+03  0.2295E+03
  -0.310  0.9142E+02  0.9318E+02  0.2314E+03
  -0.300  0.1039E+03  0.9229E+02  0.2333E+03
  -0.290  0.1700E+03  0.1172E+03  0.2357E+03
  -0.280  0.1531E+03  0.1639E+03  0.2388E+03
  -0.270  0.1238E+03  0.1567E+03  0.2418E+03
  -0.260  0.1790E+03  0.1585E+03  0.2450E+03
  -0.250  0.1793E+03  0.1597E+03  0.2486E+03
  -0.240  0.1626E+03  0.2236E+03  0.2528E+03
  -0.230  0.1748E+03  0.1147E+03  0.2561E+03
  -0.220  0.3321E+03  0.4420E+03  0.2620E+03
  -0.210  0.3043E+03  0.3108E+03  0.2689E+03
  -0.200  0.1634E+03  0.2196E+03  0.2739E+03
  -0.190  0.2041E+03  0.2453E+03  0.2786E+03
  -0.180  0.2776E+03  0.2031E+03  0.2831E+03
  -0.170  0.2825E+03  0.2216E+03  0.2879E+03
  -0.160  0.3477E+03  0.2702E+03  0.2934E+03
  -0.150  0.2030E+03  0.3560E+03  0.3006E+03
  -0.140  0.3363E+03  0.2190E+03  0.3055E+03
  -0.130  0.4467E+03  0.3934E+03  0.3128E+03
  -0.120  0.3584E+03  0.3749E+03  0.3223E+03
  -0.110  0.2416E+03  0.3591E+03  0.3290E+03
  -0.100  0.6153E+03  0.3599E+03  0.3372E+03
  -0.090  0.2403E+03  0.2805E+03  0.3434E+03
  -0.080  0.1762E+03  0.1268E+03  0.3482E+03
  -0.070  0.9807E+02  0.9646E+02  0.3510E+03
  -0.060  0.8940E+02  0.7324E+02  0.3528E+03
  -0.050  0.7922E+02  0.1134E+03  0.3545E+03
  -0.040  0.8118E+02  0.8070E+02  0.3562E+03
  -0.030  0.5557E+02  0.7074E+02  0.3576E+03
  -0.020  0.4536E+02  0.4973E+02  0.3587E+03
  -0.010  0.4622E+02  0.4348E+02  0.3596E+03
   0.000  0.6179E+02  0.5090E+02  0.3606E+03
   0.010  0.9509E+02  0.7243E+02  0.3620E+03
   0.020  0.4274E+02  0.9408E+02  0.3638E+03
   0.030  0.5099E+02  0.3548E+02  0.3646E+03
   0.040  0.6593E+02  0.7025E+02  0.3657E+03
   0.050  0.6597E+02  0.5963E+02  0.3670E+03
   0.060  0.5915E+02  0.7431E+02  0.3684E+03
   0.070  0.6610E+02  0.6274E+02  0.3697E+03
   0.080  0.5904E+02  0.3815E+02  0.3708E+03
   0.090  0.6547E+02  0.6543E+02  0.3719E+03
   0.100  0.5808E+02  0.6133E+02  0.3732E+03
   0.110  0.5138E+02  0.5741E+02  0.3744E+03
   0.120  0.5662E+02  0.5214E+02  0.3754E+03
   0.130  0.8231E+02  0.6763E+02  0.3767E+03
   0.140  0.6641E+02  0.8072E+02  0.3783E+03
   0.150  0.5676E+02  0.6156E+02  0.3796E+03
   0.160  0.3508E+02  0.5015E+02  0.3806E+03
   0.170  0.1909E+02  0.2872E+02  0.3813E+03
   0.180  0.1854E+02  0.1624E+02  0.3817E+03
   0.190  0.4626E+01  0.6931E+01  0.3819E+03
   0.200  0.1632E+01  0.3122E+01  0.3820E+03
   0.210  0.1779E+00  0.7774E+00  0.3820E+03
   0.220  0.0000E+00  0.1510E-01  0.3820E+03
   0.230  0.0000E+00  0.0000E+00  0.3820E+03
   0.240  0.0000E+00  0.0000E+00  0.3820E+03
   0.250  0.0000E+00  0.0000E+00  0.3820E+03
   0.260  0.0000E+00  0.0000E+00  0.3820E+03
   0.270  0.0000E+00  0.0000E+00  0.3820E+03
   0.280  0.0000E+00  0.0000E+00  0.3820E+03
   0.290  0.0000E+00  0.0000E+00  0.3820E+03
   0.300  0.0000E+00  0.0000E+00  0.3820E+03
   0.310  0.0000E+00  0.0000E+00  0.3820E+03
   0.320  0.0000E+00  0.0000E+00  0.3820E+03
   0.330  0.0000E+00  0.0000E+00  0.3820E+03
   0.340  0.0000E+00  0.0000E+00  0.3820E+03
   0.350  0.1376E-03  0.0000E+00  0.3820E+03
   0.360  0.3657E-02  0.0000E+00  0.3820E+03
   0.370  0.1693E-01  0.2321E-03  0.3820E+03
   0.380  0.4187E-01  0.4018E-02  0.3820E+03
   0.390  0.7848E-01  0.1718E-01  0.3820E+03
   0.400  0.1272E+00  0.4160E-01  0.3820E+03
   0.410  0.1887E+00  0.7728E-01  0.3820E+03
   0.420  0.2633E+00  0.1242E+00  0.3820E+03
   0.430  0.3508E+00  0.1827E+00  0.3820E+03
   0.440  0.4512E+00  0.2537E+00  0.3820E+03
   0.450  0.5646E+00  0.3372E+00  0.3820E+03
   0.460  0.6909E+00  0.4333E+00  0.3820E+03
   0.470  0.8306E+00  0.5419E+00  0.3820E+03
   0.480  0.1046E+01  0.6630E+00  0.3821E+03
   0.490  0.1518E+01  0.7969E+00  0.3821E+03
   0.500  0.2046E+01  0.9959E+00  0.3821E+03
   0.510  0.2829E+01  0.1435E+01  0.3821E+03
   0.520  0.3698E+01  0.1929E+01  0.3822E+03
   0.530  0.4241E+01  0.2506E+01  0.3823E+03
   0.540  0.4463E+01  0.3414E+01  0.3823E+03
   0.550  0.4368E+01  0.4094E+01  0.3824E+03
   0.560  0.3970E+01  0.4416E+01  0.3825E+03
   0.570  0.3667E+01  0.4388E+01  0.3826E+03
   0.580  0.3839E+01  0.4012E+01  0.3827E+03
   0.590  0.4103E+01  0.3600E+01  0.3827E+03
   0.600  0.4361E+01  0.3693E+01  0.3828E+03
   0.610  0.4640E+01  0.3940E+01  0.3829E+03
   0.620  0.4934E+01  0.4198E+01  0.3830E+03
   0.630  0.5242E+01  0.4452E+01  0.3831E+03
   0.640  0.5567E+01  0.4728E+01  0.3832E+03
   0.650  0.5908E+01  0.5018E+01  0.3833E+03
   0.660  0.6264E+01  0.5324E+01  0.3834E+03
   0.670  0.6606E+01  0.5647E+01  0.3835E+03
   0.680  0.6951E+01  0.5984E+01  0.3836E+03
   0.690  0.7574E+01  0.6322E+01  0.3838E+03
   0.700  0.8675E+01  0.6637E+01  0.3839E+03
   0.710  0.1024E+02  0.7108E+01  0.3841E+03
   0.720  0.1203E+02  0.8038E+01  0.3843E+03
   0.730  0.1271E+02  0.9444E+01  0.3845E+03
   0.740  0.1261E+02  0.1114E+02  0.3847E+03
   0.750  0.1286E+02  0.1210E+02  0.3850E+03
   0.760  0.1279E+02  0.1214E+02  0.3852E+03
   0.770  0.1189E+02  0.1221E+02  0.3855E+03
   0.780  0.1203E+02  0.1249E+02  0.3857E+03
   0.790  0.1210E+02  0.1184E+02  0.3859E+03
   0.800  0.1240E+02  0.1203E+02  0.3862E+03
   0.810  0.1269E+02  0.1165E+02  0.3864E+03
   0.820  0.1295E+02  0.1198E+02  0.3867E+03
   0.830  0.1318E+02  0.1229E+02  0.3869E+03
   0.840  0.1337E+02  0.1258E+02  0.3872E+03
   0.850  0.1354E+02  0.1283E+02  0.3874E+03
   0.860  0.1367E+02  0.1304E+02  0.3877E+03
   0.870  0.1377E+02  0.1322E+02  0.3880E+03
   0.880  0.1383E+02  0.1338E+02  0.3882E+03
   0.890  0.1392E+02  0.1352E+02  0.3885E+03
   0.900  0.1444E+02  0.1363E+02  0.3888E+03
   0.910  0.1449E+02  0.1375E+02  0.3891E+03
   0.920  0.1636E+02  0.1415E+02  0.3894E+03
   0.930  0.1858E+02  0.1542E+02  0.3897E+03
   0.940  0.2054E+02  0.1658E+02  0.3901E+03
   0.950  0.2246E+02  0.1803E+02  0.3904E+03
   0.960  0.2491E+02  0.1935E+02  0.3909E+03
   0.970  0.2899E+02  0.2050E+02  0.3913E+03
   0.980  0.3463E+02  0.2158E+02  0.3919E+03
   0.990  0.4205E+02  0.2459E+02  0.3925E+03
   1.000  0.3833E+02  0.2808E+02  0.3932E+03
   1.010  0.2991E+02  0.3379E+02  0.3939E+03
   1.020  0.2697E+02  0.4406E+02  0.3945E+03
   1.030  0.4539E+02  0.4339E+02  0.3954E+03
   1.040  0.5590E+02  0.2838E+02  0.3963E+03
   1.050  0.5399E+02  0.3201E+02  0.3971E+03
   1.060  0.6756E+02  0.4096E+02  0.3981E+03
   1.070  0.4931E+02  0.6683E+02  0.3993E+03
   1.080  0.4195E+02  0.6893E+02  0.4004E+03
   1.090  0.3893E+02  0.5952E+02  0.4014E+03
   1.100  0.4548E+02  0.4499E+02  0.4024E+03
   1.110  0.4826E+02  0.3600E+02  0.4032E+03
   1.120  0.4032E+02  0.3822E+02  0.4041E+03
   1.130  0.1744E+02  0.4585E+02  0.4048E+03
   1.140  0.8787E+01  0.2711E+02  0.4053E+03
   1.150  0.1400E+02  0.2082E+02  0.4056E+03
   1.160  0.1818E+02  0.1988E+02  0.4060E+03
   1.170  0.2393E+02  0.1920E+02  0.4064E+03
   1.180  0.3003E+02  0.1764E+02  0.4069E+03
   1.190  0.3490E+02  0.1960E+02  0.4074E+03
   1.200  0.3949E+02  0.2506E+02  0.4080E+03
   1.210  0.3990E+02  0.2889E+02  0.4086E+03
   1.220  0.3773E+02  0.2998E+02  0.4093E+03
   1.230  0.3456E+02  0.2815E+02  0.4100E+03
   1.240  0.3241E+02  0.2684E+02  0.4106E+03
   1.250  0.3080E+02  0.2861E+02  0.4112E+03
   1.260  0.2931E+02  0.3003E+02  0.4118E+03
   1.270  0.2782E+02  0.3065E+02  0.4124E+03
   1.280  0.2625E+02  0.3015E+02  0.4129E+03
   1.290  0.2402E+02  0.2868E+02  0.4135E+03
   1.300  0.2257E+02  0.2674E+02  0.4140E+03
   1.310  0.2272E+02  0.2427E+02  0.4145E+03
   1.320  0.2053E+02  0.2240E+02  0.4149E+03
   1.330  0.1801E+02  0.2193E+02  0.4153E+03
   1.340  0.1573E+02  0.2200E+02  0.4157E+03
   1.350  0.1370E+02  0.2287E+02  0.4161E+03
   1.360  0.1243E+02  0.2473E+02  0.4165E+03
   1.370  0.1154E+02  0.2443E+02  0.4168E+03
   1.380  0.1112E+02  0.2151E+02  0.4172E+03
   1.390  0.1109E+02  0.1822E+02  0.4175E+03
   1.400  0.1161E+02  0.1539E+02  0.4178E+03
   1.410  0.1273E+02  0.1332E+02  0.4180E+03
   1.420  0.1392E+02  0.1208E+02  0.4183E+03
   1.430  0.1525E+02  0.1159E+02  0.4186E+03
   1.440  0.1666E+02  0.1142E+02  0.4188E+03
   1.450  0.1822E+02  0.1142E+02  0.4191E+03
   1.460  0.2265E+02  0.1162E+02  0.4194E+03
   1.470  0.2133E+02  0.1212E+02  0.4198E+03
   1.480  0.1507E+02  0.1306E+02  0.4201E+03
   1.490  0.1489E+02  0.1387E+02  0.4204E+03
   1.500  0.1492E+02  0.1455E+02  0.4207E+03
   1.510  0.1453E+02  0.1511E+02  0.4210E+03
   1.520  0.1374E+02  0.1554E+02  0.4212E+03
   1.530  0.1254E+02  0.1579E+02  0.4215E+03
   1.540  0.1167E+02  0.1585E+02  0.4218E+03
   1.550  0.1122E+02  0.1572E+02  0.4221E+03
   1.560  0.1092E+02  0.1538E+02  0.4224E+03
   1.570  0.1078E+02  0.1482E+02  0.4226E+03
   1.580  0.1080E+02  0.1408E+02  0.4229E+03
   1.590  0.1125E+02  0.1316E+02  0.4231E+03
   1.600  0.1180E+02  0.1206E+02  0.4234E+03
   1.610  0.1173E+02  0.1101E+02  0.4236E+03
   1.620  0.1179E+02  0.1076E+02  0.4238E+03
   1.630  0.1183E+02  0.1062E+02  0.4240E+03
   1.640  0.1131E+02  0.1055E+02  0.4243E+03
   1.650  0.9692E+01  0.1066E+02  0.4245E+03
   1.660  0.9071E+01  0.1093E+02  0.4247E+03
   1.670  0.8812E+01  0.1119E+02  0.4249E+03
   1.680  0.8834E+01  0.1158E+02  0.4251E+03
   1.690  0.9627E+01  0.1115E+02  0.4253E+03
   1.700  0.9280E+01  0.1157E+02  0.4255E+03
   1.710  0.7905E+01  0.1133E+02  0.4257E+03
   1.720  0.7013E+01  0.1095E+02  0.4259E+03
   1.730  0.6918E+01  0.1075E+02  0.4261E+03
   1.740  0.7345E+01  0.9965E+01  0.4262E+03
   1.750  0.8958E+01  0.8717E+01  0.4264E+03
   1.760  0.1027E+02  0.7358E+01  0.4266E+03
   1.770  0.1141E+02  0.6041E+01  0.4268E+03
   1.780  0.1294E+02  0.4976E+01  0.4269E+03
   1.790  0.1527E+02  0.4793E+01  0.4271E+03
   1.800  0.2177E+02  0.5094E+01  0.4273E+03
   1.810  0.2659E+02  0.5473E+01  0.4277E+03
   1.820  0.2640E+02  0.5864E+01  0.4280E+03
   1.830  0.2129E+02  0.6389E+01  0.4283E+03
   1.840  0.1461E+02  0.6974E+01  0.4285E+03
   1.850  0.1122E+02  0.7550E+01  0.4287E+03
   1.860  0.1061E+02  0.8122E+01  0.4289E+03
   1.870  0.1017E+02  0.8668E+01  0.4291E+03
   1.880  0.1001E+02  0.9227E+01  0.4293E+03
   1.890  0.1019E+02  0.9828E+01  0.4295E+03
   1.900  0.1029E+02  0.1031E+02  0.4297E+03
   1.910  0.1170E+02  0.1066E+02  0.4299E+03
   1.920  0.1032E+02  0.1088E+02  0.4301E+03
   1.930  0.8715E+01  0.1096E+02  0.4303E+03
   1.940  0.8403E+01  0.1090E+02  0.4305E+03
   1.950  0.1010E+02  0.1072E+02  0.4307E+03
   1.960  0.8822E+01  0.1044E+02  0.4309E+03
   1.970  0.8162E+01  0.1014E+02  0.4311E+03
   1.980  0.8035E+01  0.9776E+01  0.4313E+03
   1.990  0.7748E+01  0.9373E+01  0.4315E+03
   2.000  0.7535E+01  0.9017E+01  0.4316E+03
   2.010  0.7285E+01  0.8721E+01  0.4318E+03
   2.020  0.7062E+01  0.8435E+01  0.4320E+03
   2.030  0.6858E+01  0.8203E+01  0.4321E+03
   2.040  0.6671E+01  0.8021E+01  0.4323E+03
   2.050  0.6502E+01  0.7865E+01  0.4324E+03
   2.060  0.6349E+01  0.7730E+01  0.4325E+03
   2.070  0.6248E+01  0.7685E+01  0.4327E+03
   2.080  0.6338E+01  0.7706E+01  0.4328E+03
   2.090  0.6479E+01  0.7748E+01  0.4330E+03
   2.100  0.6498E+01  0.7761E+01  0.4331E+03
   2.110  0.6784E+01  0.7769E+01  0.4333E+03
   2.120  0.8356E+01  0.7848E+01  0.4334E+03
   2.130  0.7185E+01  0.7924E+01  0.4336E+03
   2.140  0.8090E+01  0.7927E+01  0.4337E+03
   2.150  0.8971E+01  0.7865E+01  0.4339E+03
   2.160  0.9728E+01  0.7736E+01  0.4341E+03
   2.170  0.9933E+01  0.7546E+01  0.4342E+03
   2.180  0.9850E+01  0.7297E+01  0.4344E+03
   2.190  0.9728E+01  0.7008E+01  0.4346E+03
   2.200  0.9582E+01  0.6647E+01  0.4347E+03
   2.210  0.9445E+01  0.6075E+01  0.4349E+03
   2.220  0.9311E+01  0.5075E+01  0.4350E+03
   2.230  0.8701E+01  0.6237E+01  0.4352E+03
   2.240  0.8387E+01  0.7658E+01  0.4354E+03
   2.250  0.8339E+01  0.6784E+01  0.4355E+03
   2.260  0.8583E+01  0.6875E+01  0.4357E+03
   2.270  0.8984E+01  0.7008E+01  0.4358E+03
   2.280  0.9386E+01  0.7130E+01  0.4360E+03
   2.290  0.9866E+01  0.7226E+01  0.4361E+03
   2.300  0.1048E+02  0.7276E+01  0.4363E+03
   2.310  0.1178E+02  0.7250E+01  0.4365E+03
   2.320  0.1270E+02  0.7155E+01  0.4367E+03
   2.330  0.1322E+02  0.7054E+01  0.4369E+03
   2.340  0.1290E+02  0.7041E+01  0.4371E+03
   2.350  0.1172E+02  0.7046E+01  0.4373E+03
   2.360  0.1033E+02  0.7024E+01  0.4375E+03
   2.370  0.9269E+01  0.6978E+01  0.4376E+03
   2.380  0.8995E+01  0.6909E+01  0.4378E+03
   2.390  0.9574E+01  0.6816E+01  0.4380E+03
   2.400  0.1050E+02  0.6699E+01  0.4381E+03
   2.410  0.1152E+02  0.6563E+01  0.4383E+03
   2.420  0.1252E+02  0.6431E+01  0.4385E+03
   2.430  0.1348E+02  0.6266E+01  0.4387E+03
   2.440  0.1467E+02  0.6106E+01  0.4389E+03
   2.450  0.1591E+02  0.6313E+01  0.4391E+03
   2.460  0.1858E+02  0.6886E+01  0.4393E+03
   2.470  0.1528E+02  0.7261E+01  0.4396E+03
   2.480  0.1258E+02  0.7640E+01  0.4398E+03
   2.490  0.1143E+02  0.7946E+01  0.4400E+03
   2.500  0.1073E+02  0.8172E+01  0.4402E+03
   2.510  0.1042E+02  0.8293E+01  0.4404E+03
   2.520  0.1042E+02  0.8606E+01  0.4406E+03
   2.530  0.1059E+02  0.9057E+01  0.4408E+03
   2.540  0.1105E+02  0.9611E+01  0.4410E+03
   2.550  0.1191E+02  0.1028E+02  0.4412E+03
   2.560  0.1414E+02  0.1108E+02  0.4414E+03
   2.570  0.1526E+02  0.1179E+02  0.4417E+03
   2.580  0.1846E+02  0.1239E+02  0.4419E+03
   2.590  0.1404E+02  0.1287E+02  0.4423E+03
   2.600  0.1357E+02  0.1327E+02  0.4425E+03
   2.610  0.1416E+02  0.1360E+02  0.4428E+03
   2.620  0.1478E+02  0.1387E+02  0.4431E+03
   2.630  0.1521E+02  0.1426E+02  0.4434E+03
   2.640  0.1559E+02  0.1798E+02  0.4437E+03
   2.650  0.1595E+02  0.1879E+02  0.4440E+03
   2.660  0.1634E+02  0.1790E+02  0.4444E+03
   2.670  0.1667E+02  0.1970E+02  0.4447E+03
   2.680  0.1719E+02  0.2145E+02  0.4451E+03
   2.690  0.1772E+02  0.2239E+02  0.4455E+03
   2.700  0.1836E+02  0.2417E+02  0.4459E+03
   2.710  0.1999E+02  0.2641E+02  0.4463E+03
   2.720  0.2186E+02  0.2851E+02  0.4468E+03
   2.730  0.2292E+02  0.3042E+02  0.4473E+03
   2.740  0.2314E+02  0.3228E+02  0.4479E+03
   2.750  0.2325E+02  0.3303E+02  0.4485E+03
   2.760  0.2292E+02  0.3364E+02  0.4490E+03
   2.770  0.2494E+02  0.3369E+02  0.4496E+03
   2.780  0.2869E+02  0.2252E+02  0.4502E+03
   2.790  0.2550E+02  0.2119E+02  0.4507E+03
   2.800  0.2543E+02  0.1879E+02  0.4511E+03
   2.810  0.2187E+02  0.1659E+02  0.4515E+03
   2.820  0.2223E+02  0.1508E+02  0.4519E+03
   2.830  0.2196E+02  0.2550E+02  0.4523E+03
   2.840  0.2026E+02  0.2730E+02  0.4528E+03
   2.850  0.2381E+02  0.3183E+02  0.4533E+03
   2.860  0.3915E+02  0.3403E+02  0.4540E+03
   2.870  0.3178E+02  0.2950E+02  0.4547E+03
   2.880  0.2227E+02  0.2291E+02  0.4552E+03
   2.890  0.1913E+02  0.2063E+02  0.4556E+03
   2.900  0.1832E+02  0.2099E+02  0.4560E+03
   2.910  0.2119E+02  0.2507E+02  0.4564E+03
   2.920  0.2742E+02  0.2794E+02  0.4569E+03
   2.930  0.1501E+02  0.1993E+02  0.4575E+03
   2.940  0.1086E+02  0.1421E+02  0.4577E+03
   2.950  0.1132E+02  0.1277E+02  0.4580E+03
   2.960  0.1282E+02  0.1304E+02  0.4582E+03
   2.970  0.1372E+02  0.2090E+02  0.4585E+03
   2.980  0.1456E+02  0.2576E+02  0.4589E+03
   2.990  0.1489E+02  0.2800E+02  0.4593E+03
   3.000  0.1514E+02  0.2839E+02  0.4598E+03
   3.010  0.1609E+02  0.2765E+02  0.4602E+03
   3.020  0.1745E+02  0.2605E+02  0.4606E+03
   3.030  0.1894E+02  0.2365E+02  0.4611E+03
   3.040  0.2041E+02  0.2132E+02  0.4615E+03
   3.050  0.2179E+02  0.1920E+02  0.4619E+03
   3.060  0.2209E+02  0.1817E+02  0.4623E+03
   3.070  0.2296E+02  0.1904E+02  0.4627E+03
   3.080  0.2399E+02  0.1979E+02  0.4631E+03
   3.090  0.2543E+02  0.1965E+02  0.4636E+03
   3.100  0.2754E+02  0.1958E+02  0.4640E+03
   3.110  0.2757E+02  0.1954E+02  0.4645E+03
   3.120  0.2987E+02  0.1946E+02  0.4650E+03
   3.130  0.3139E+02  0.1938E+02  0.4655E+03
   3.140  0.3400E+02  0.1927E+02  0.4660E+03
   3.150  0.3360E+02  0.1719E+02  0.4665E+03
   3.160  0.3131E+02  0.1194E+02  0.4670E+03
   3.170  0.2992E+02  0.1232E+02  0.4674E+03
   3.180  0.2778E+02  0.1657E+02  0.4679E+03
   3.190  0.2559E+02  0.1650E+02  0.4683E+03
   3.200  0.2262E+02  0.1734E+02  0.4687E+03
   3.210  0.2167E+02  0.1859E+02  0.4691E+03
   3.220  0.2109E+02  0.2058E+02  0.4695E+03
   3.230  0.2060E+02  0.2424E+02  0.4700E+03
   3.240  0.2035E+02  0.2557E+02  0.4704E+03
   3.250  0.2074E+02  0.2609E+02  0.4709E+03
   3.260  0.3440E+02  0.2875E+02  0.4714E+03
   3.270  0.3838E+02  0.3236E+02  0.4721E+03
   3.280  0.3814E+02  0.5075E+02  0.4729E+03
   3.290  0.2916E+02  0.3772E+02  0.4736E+03
   3.300  0.2260E+02  0.3595E+02  0.4743E+03
   3.310  0.1851E+02  0.3481E+02  0.4748E+03
   3.320  0.2392E+02  0.3621E+02  0.4753E+03
   3.330  0.2104E+02  0.3331E+02  0.4759E+03
   3.340  0.2299E+02  0.3482E+02  0.4765E+03
   3.350  0.2624E+02  0.3252E+02  0.4771E+03
   3.360  0.2523E+02  0.2951E+02  0.4776E+03
   3.370  0.2558E+02  0.2973E+02  0.4782E+03
   3.380  0.2579E+02  0.3027E+02  0.4787E+03
   3.390  0.2613E+02  0.2655E+02  0.4793E+03
   3.400  0.2679E+02  0.2753E+02  0.4798E+03
   3.410  0.2708E+02  0.2840E+02  0.4804E+03
   3.420  0.2726E+02  0.3013E+02  0.4809E+03
   3.430  0.2841E+02  0.3175E+02  0.4815E+03
   3.440  0.2953E+02  0.3204E+02  0.4821E+03
   3.450  0.3076E+02  0.3085E+02  0.4827E+03
   3.460  0.3057E+02  0.2996E+02  0.4834E+03
   3.470  0.3072E+02  0.2961E+02  0.4840E+03
   3.480  0.3149E+02  0.2971E+02  0.4846E+03
   3.490  0.3247E+02  0.2966E+02  0.4852E+03
   3.500  0.3298E+02  0.2938E+02  0.4858E+03
   3.510  0.3348E+02  0.2896E+02  0.4864E+03
   3.520  0.3397E+02  0.2868E+02  0.4870E+03
   3.530  0.3453E+02  0.2841E+02  0.4877E+03
   3.540  0.3458E+02  0.2768E+02  0.4883E+03
   3.550  0.3476E+02  0.2718E+02  0.4889E+03
   3.560  0.3498E+02  0.2778E+02  0.4895E+03
   3.570  0.3402E+02  0.2905E+02  0.4902E+03
   3.580  0.3383E+02  0.2994E+02  0.4908E+03
   3.590  0.3355E+02  0.3061E+02  0.4914E+03
   3.600  0.3373E+02  0.3167E+02  0.4921E+03
   3.610  0.3327E+02  0.3206E+02  0.4928E+03
   3.620  0.3369E+02  0.3253E+02  0.4934E+03
   3.630  0.3495E+02  0.3212E+02  0.4941E+03
   3.640  0.3188E+02  0.3107E+02  0.4947E+03
   3.650  0.2869E+02  0.3073E+02  0.4953E+03
   3.660  0.2887E+02  0.3146E+02  0.4959E+03
   3.670  0.2916E+02  0.3305E+02  0.4966E+03
   3.680  0.2854E+02  0.3267E+02  0.4972E+03
   3.690  0.2860E+02  0.2970E+02  0.4978E+03
   3.700  0.2890E+02  0.2716E+02  0.4983E+03
   3.710  0.2909E+02  0.2750E+02  0.4989E+03
   3.720  0.2779E+02  0.2629E+02  0.4995E+03
   3.730  0.2824E+02  0.2696E+02  0.5000E+03
   3.740  0.2774E+02  0.2810E+02  0.5006E+03
   3.750  0.2742E+02  0.2978E+02  0.5011E+03
   3.760  0.2705E+02  0.3712E+02  0.5017E+03
   3.770  0.2588E+02  0.2800E+02  0.5023E+03
   3.780  0.2565E+02  0.2798E+02  0.5028E+03
   3.790  0.2636E+02  0.2699E+02  0.5034E+03
   3.800  0.2923E+02  0.2659E+02  0.5039E+03
   3.810  0.2529E+02  0.2692E+02  0.5044E+03
   3.820  0.2483E+02  0.2583E+02  0.5050E+03
   3.830  0.2561E+02  0.2413E+02  0.5055E+03
   3.840  0.2910E+02  0.2258E+02  0.5060E+03
   3.850  0.3547E+02  0.2304E+02  0.5065E+03
   3.860  0.4194E+02  0.2246E+02  0.5071E+03
   3.870  0.5955E+02  0.3425E+02  0.5079E+03
   3.880  0.4990E+02  0.5063E+02  0.5089E+03
   3.890  0.4059E+02  0.5186E+02  0.5099E+03
   3.900  0.4079E+02  0.6039E+02  0.5109E+03
   3.910  0.3309E+02  0.5277E+02  0.5118E+03
   3.920  0.3431E+02  0.4275E+02  0.5126E+03
   3.930  0.3053E+02  0.3160E+02  0.5133E+03
   3.940  0.2947E+02  0.2321E+02  0.5139E+03
   3.950  0.2831E+02  0.1908E+02  0.5144E+03
   3.960  0.2688E+02  0.2172E+02  0.5148E+03
   3.970  0.2710E+02  0.2592E+02  0.5153E+03
   3.980  0.2982E+02  0.2898E+02  0.5159E+03
   3.990  0.2655E+02  0.2654E+02  0.5165E+03
   4.000  0.2195E+02  0.2651E+02  0.5170E+03
   4.010  0.2138E+02  0.2719E+02  0.5174E+03
   4.020  0.2136E+02  0.2829E+02  0.5179E+03
   4.030  0.2185E+02  0.2790E+02  0.5184E+03
   4.040  0.2232E+02  0.2593E+02  0.5189E+03
   4.050  0.2235E+02  0.2652E+02  0.5194E+03
   4.060  0.2298E+02  0.3057E+02  0.5199E+03
   4.070  0.2389E+02  0.3202E+02  0.5205E+03
   4.080  0.2437E+02  0.2616E+02  0.5210E+03
   4.090  0.2510E+02  0.2252E+02  0.5215E+03
   4.100  0.2665E+02  0.2343E+02  0.5220E+03
   4.110  0.2783E+02  0.2442E+02  0.5225E+03
   4.120  0.2846E+02  0.2583E+02  0.5230E+03
   4.130  0.2840E+02  0.2739E+02  0.5236E+03
   4.140  0.2922E+02  0.3113E+02  0.5241E+03
   4.150  0.3151E+02  0.3269E+02  0.5248E+03
   4.160  0.3269E+02  0.3399E+02  0.5254E+03
   4.170  0.3384E+02  0.3534E+02  0.5261E+03
   4.180  0.3406E+02  0.3629E+02  0.5268E+03
   4.190  0.3392E+02  0.3480E+02  0.5275E+03
   4.200  0.3636E+02  0.3304E+02  0.5282E+03
   4.210  0.3412E+02  0.3251E+02  0.5289E+03
   4.220  0.3669E+02  0.3151E+02  0.5296E+03
   4.230  0.3236E+02  0.3024E+02  0.5302E+03
   4.240  0.3158E+02  0.3016E+02  0.5308E+03
   4.250  0.3092E+02  0.3016E+02  0.5314E+03
   4.260  0.3059E+02  0.2928E+02  0.5320E+03
   4.270  0.3067E+02  0.2981E+02  0.5326E+03
   4.280  0.3088E+02  0.3456E+02  0.5333E+03
   4.290  0.3009E+02  0.3337E+02  0.5339E+03
   4.300  0.2928E+02  0.3018E+02  0.5345E+03
   4.310  0.2932E+02  0.2952E+02  0.5351E+03
   4.320  0.2997E+02  0.2903E+02  0.5357E+03
   4.330  0.3107E+02  0.3091E+02  0.5363E+03
   4.340  0.3376E+02  0.3056E+02  0.5370E+03
   4.350  0.3645E+02  0.2867E+02  0.5376E+03
   4.360  0.3951E+02  0.2802E+02  0.5383E+03
   4.370  0.4271E+02  0.2983E+02  0.5390E+03
   4.380  0.4194E+02  0.2999E+02  0.5397E+03
   4.390  0.3818E+02  0.3048E+02  0.5404E+03
   4.400  0.3472E+02  0.3572E+02  0.5411E+03
   4.410  0.3371E+02  0.4703E+02  0.5419E+03
   4.420  0.3106E+02  0.2996E+02  0.5426E+03
   4.430  0.2874E+02  0.2675E+02  0.5431E+03
   4.440  0.2783E+02  0.2413E+02  0.5437E+03
   4.450  0.2652E+02  0.2149E+02  0.5442E+03
   4.460  0.2543E+02  0.1937E+02  0.5446E+03
   4.470  0.2408E+02  0.2078E+02  0.5451E+03
   4.480  0.2293E+02  0.2577E+02  0.5456E+03
   4.490  0.2169E+02  0.3095E+02  0.5461E+03
   4.500  0.2068E+02  0.3845E+02  0.5466E+03
   4.510  0.2056E+02  0.3056E+02  0.5472E+03
   4.520  0.2177E+02  0.3665E+02  0.5477E+03
   4.530  0.2255E+02  0.4352E+02  0.5483E+03
   4.540  0.2181E+02  0.4554E+02  0.5490E+03
   4.550  0.2110E+02  0.3841E+02  0.5496E+03
   4.560  0.2139E+02  0.4472E+02  0.5502E+03
   4.570  0.2205E+02  0.2423E+02  0.5507E+03
   4.580  0.2247E+02  0.1973E+02  0.5511E+03
   4.590  0.2329E+02  0.1949E+02  0.5516E+03
   4.600  0.2439E+02  0.2013E+02  0.5520E+03
   4.610  0.2559E+02  0.2092E+02  0.5525E+03
   4.620  0.2656E+02  0.2250E+02  0.5529E+03
   4.630  0.2607E+02  0.2289E+02  0.5534E+03
   4.640  0.2711E+02  0.2240E+02  0.5539E+03
   4.650  0.2750E+02  0.2320E+02  0.5544E+03
   4.660  0.2920E+02  0.2468E+02  0.5549E+03
   4.670  0.3148E+02  0.2618E+02  0.5555E+03
   4.680  0.3202E+02  0.2787E+02  0.5561E+03
   4.690  0.3228E+02  0.2902E+02  0.5567E+03
   4.700  0.3181E+02  0.2944E+02  0.5573E+03
   4.710  0.3091E+02  0.2934E+02  0.5579E+03
   4.720  0.3256E+02  0.2979E+02  0.5585E+03
   4.730  0.3685E+02  0.3247E+02  0.5592E+03
   4.740  0.3287E+02  0.3653E+02  0.5599E+03
   4.750  0.3614E+02  0.2926E+02  0.5606E+03
   4.760  0.2782E+02  0.2923E+02  0.5612E+03
   4.770  0.2931E+02  0.3630E+02  0.5618E+03
   4.780  0.3341E+02  0.3102E+02  0.5624E+03
   4.790  0.4283E+02  0.2681E+02  0.5631E+03
   4.800  0.3418E+02  0.2717E+02  0.5638E+03
   4.810  0.2833E+02  0.2421E+02  0.5643E+03
   4.820  0.2807E+02  0.2094E+02  0.5649E+03
   4.830  0.2379E+02  0.1990E+02  0.5653E+03
   4.840  0.2173E+02  0.1946E+02  0.5657E+03
   4.850  0.2025E+02  0.1886E+02  0.5661E+03
   4.860  0.1922E+02  0.1829E+02  0.5665E+03
   4.870  0.1847E+02  0.1763E+02  0.5669E+03
   4.880  0.1795E+02  0.1726E+02  0.5672E+03
   4.890  0.1750E+02  0.1779E+02  0.5676E+03
   4.900  0.1711E+02  0.1887E+02  0.5679E+03
   4.910  0.1676E+02  0.1961E+02  0.5683E+03
   4.920  0.1644E+02  0.1880E+02  0.5687E+03
   4.930  0.1614E+02  0.1783E+02  0.5690E+03
   4.940  0.1582E+02  0.1758E+02  0.5694E+03
   4.950  0.1556E+02  0.1725E+02  0.5697E+03
   4.960  0.1549E+02  0.1693E+02  0.5700E+03
   4.970  0.1651E+02  0.1639E+02  0.5703E+03
   4.980  0.1789E+02  0.1620E+02  0.5707E+03
   4.990  0.1781E+02  0.1701E+02  0.5710E+03
   5.000  0.1654E+02  0.1789E+02  0.5714E+03
   5.010  0.1578E+02  0.1823E+02  0.5717E+03
   5.020  0.1538E+02  0.1810E+02  0.5720E+03
   5.030  0.1539E+02  0.1647E+02  0.5724E+03
   5.040  0.1530E+02  0.1491E+02  0.5727E+03
   5.050  0.1510E+02  0.1681E+02  0.5730E+03
   5.060  0.1481E+02  0.1902E+02  0.5733E+03
   5.070  0.1441E+02  0.1833E+02  0.5737E+03
   5.080  0.1429E+02  0.1719E+02  0.5740E+03
   5.090  0.1426E+02  0.1612E+02  0.5743E+03
   5.100  0.1183E+02  0.1457E+02  0.5746E+03
   5.110  0.1083E+02  0.1288E+02  0.5748E+03
   5.120  0.1214E+02  0.1142E+02  0.5750E+03
   5.130  0.1407E+02  0.1009E+02  0.5753E+03
   5.140  0.1321E+02  0.8771E+01  0.5755E+03
   5.150  0.1216E+02  0.7566E+01  0.5757E+03
   5.160  0.1101E+02  0.8269E+01  0.5759E+03
   5.170  0.9723E+01  0.1064E+02  0.5761E+03
   5.180  0.8645E+01  0.4016E+01  0.5763E+03
   5.190  0.7649E+01  0.2934E+01  0.5764E+03
   5.200  0.6778E+01  0.2143E+01  0.5765E+03
   5.210  0.6277E+01  0.2355E+01  0.5766E+03
   5.220  0.6053E+01  0.5116E+01  0.5767E+03
   5.230  0.5992E+01  0.1281E+02  0.5768E+03
   5.240  0.6003E+01  0.1871E+02  0.5771E+03
   5.250  0.6024E+01  0.1683E+02  0.5773E+03
   5.260  0.6060E+01  0.1689E+02  0.5775E+03
   5.270  0.6545E+01  0.1688E+02  0.5777E+03
   5.280  0.9008E+01  0.1681E+02  0.5780E+03
   5.290  0.1103E+02  0.1593E+02  0.5783E+03
   5.300  0.1243E+02  0.1440E+02  0.5785E+03
   5.310  0.1330E+02  0.1308E+02  0.5788E+03
   5.320  0.1408E+02  0.1216E+02  0.5791E+03
   5.330  0.1508E+02  0.1135E+02  0.5793E+03
   5.340  0.1499E+02  0.1003E+02  0.5796E+03
   5.350  0.1275E+02  0.7810E+01  0.5798E+03
   5.360  0.1224E+02  0.4826E+01  0.5800E+03
   5.370  0.1099E+02  0.2466E+01  0.5801E+03
   5.380  0.9692E+01  0.1015E+01  0.5803E+03
   5.390  0.8429E+01  0.5636E+00  0.5804E+03
   5.400  0.7207E+01  0.2689E+00  0.5804E+03
   5.410  0.6136E+01  0.9230E-01  0.5805E+03
   5.420  0.5285E+01  0.8248E-02  0.5806E+03
   5.430  0.4650E+01  0.0000E+00  0.5806E+03
   5.440  0.4148E+01  0.0000E+00  0.5807E+03
   5.450  0.3671E+01  0.0000E+00  0.5807E+03
   5.460  0.3266E+01  0.0000E+00  0.5807E+03
   5.470  0.2953E+01  0.0000E+00  0.5808E+03
   5.480  0.2863E+01  0.0000E+00  0.5808E+03
   5.490  0.3124E+01  0.0000E+00  0.5808E+03
   5.500  0.3248E+01  0.0000E+00  0.5809E+03
   5.510  0.3186E+01  0.0000E+00  0.5809E+03
   5.520  0.2939E+01  0.0000E+00  0.5809E+03
   5.530  0.2506E+01  0.0000E+00  0.5810E+03
   5.540  0.1880E+01  0.0000E+00  0.5810E+03
   5.550  0.1076E+01  0.0000E+00  0.5810E+03
   5.560  0.4463E+00  0.0000E+00  0.5810E+03
   5.570  0.2307E+00  0.0000E+00  0.5810E+03
   5.580  0.9856E-01  0.0000E+00  0.5810E+03
   5.590  0.2329E-01  0.0000E+00  0.5810E+03
   5.600  0.1456E-02  0.0000E+00  0.5810E+03
   5.610  0.2922E-03  0.0000E+00  0.5810E+03
   5.620  0.9239E-05  0.5740E-02  0.5810E+03
   5.630  0.0000E+00  0.2072E+00  0.5810E+03
   5.640  0.0000E+00  0.1032E+01  0.5810E+03
   5.650  0.0000E+00  0.3736E+01  0.5810E+03
   5.660  0.0000E+00  0.8130E+01  0.5811E+03
   5.670  0.0000E+00  0.1230E+02  0.5812E+03
   5.680  0.0000E+00  0.1476E+02  0.5813E+03
   5.690  0.0000E+00  0.1698E+02  0.5815E+03
   5.700  0.0000E+00  0.1381E+02  0.5816E+03
   5.710  0.0000E+00  0.9713E+01  0.5818E+03
   5.720  0.0000E+00  0.5754E+01  0.5818E+03
   5.730  0.0000E+00  0.2215E+02  0.5819E+03
   5.740  0.0000E+00  0.8441E+01  0.5820E+03
   5.750  0.0000E+00  0.1352E+02  0.5821E+03
   5.760  0.0000E+00  0.1758E+02  0.5822E+03
   5.770  0.0000E+00  0.1940E+02  0.5824E+03
   5.780  0.0000E+00  0.3332E+02  0.5827E+03
   5.790  0.0000E+00  0.3469E+02  0.5830E+03
   5.800  0.0000E+00  0.3526E+02  0.5834E+03
   5.810  0.0000E+00  0.1506E+02  0.5836E+03
   5.820  0.0000E+00  0.1139E+02  0.5838E+03
   5.830  0.0000E+00  0.9325E+01  0.5839E+03
   5.840  0.0000E+00  0.6135E+01  0.5839E+03
   5.850  0.0000E+00  0.1769E+01  0.5840E+03
   5.860  0.0000E+00  0.5968E+00  0.5840E+03
   5.870  0.0000E+00  0.9593E-01  0.5840E+03
   5.880  0.0000E+00  0.4909E-02  0.5840E+03
   5.890  0.0000E+00  0.5429E-03  0.5840E+03
   5.900  0.0000E+00  0.0000E+00  0.5840E+03
   5.910  0.0000E+00  0.0000E+00  0.5840E+03
   5.920  0.0000E+00  0.0000E+00  0.5840E+03
   5.930  0.0000E+00  0.0000E+00  0.5840E+03
   5.940  0.0000E+00  0.0000E+00  0.5840E+03
   5.950  0.0000E+00  0.0000E+00  0.5840E+03
   5.960  0.0000E+00  0.0000E+00  0.5840E+03
   5.970  0.0000E+00  0.0000E+00  0.5840E+03
   5.980  0.0000E+00  0.0000E+00  0.5840E+03
   5.990  0.0000E+00  0.0000E+00  0.5840E+03
   6.000  0.0000E+00  0.0000E+00  0.5840E+03
   6.010  0.0000E+00  0.0000E+00  0.5840E+03
   6.020  0.0000E+00  0.0000E+00  0.5840E+03
   6.030  0.0000E+00  0.0000E+00  0.5840E+03
   6.040  0.0000E+00  0.0000E+00  0.5840E+03
   6.050  0.0000E+00  0.0000E+00  0.5840E+03
   6.060  0.0000E+00  0.0000E+00  0.5840E+03
   6.070  0.0000E+00  0.0000E+00  0.5840E+03
   6.080  0.0000E+00  0.0000E+00  0.5840E+03
   6.090  0.0000E+00  0.0000E+00  0.5840E+03
   6.100  0.0000E+00  0.0000E+00  0.5840E+03
   6.110  0.0000E+00  0.0000E+00  0.5840E+03
   6.120  0.0000E+00  0.0000E+00  0.5840E+03
   6.130  0.0000E+00  0.0000E+00  0.5840E+03
   6.140  0.0000E+00  0.0000E+00  0.5840E+03
   6.150  0.0000E+00  0.0000E+00  0.5840E+03
   6.160  0.0000E+00  0.0000E+00  0.5840E+03
   6.170  0.0000E+00  0.0000E+00  0.5840E+03
   6.180  0.0000E+00  0.0000E+00  0.5840E+03
   6.190  0.0000E+00  0.0000E+00  0.5840E+03
   6.200  0.0000E+00  0.0000E+00  0.5840E+03
   6.210  0.0000E+00  0.0000E+00  0.5840E+03
   6.220  0.0000E+00  0.0000E+00  0.5840E+03
   6.230  0.0000E+00  0.0000E+00  0.5840E+03
   6.240  0.0000E+00  0.0000E+00  0.5840E+03
   6.250  0.0000E+00  0.0000E+00  0.5840E+03
   6.260  0.0000E+00  0.0000E+00  0.5840E+03
   6.270  0.0000E+00  0.0000E+00  0.5840E+03
   6.280  0.0000E+00  0.0000E+00  0.5840E+03
   6.290  0.0000E+00  0.0000E+00  0.5840E+03
   6.300  0.0000E+00  0.0000E+00  0.5840E+03
   6.310  0.0000E+00  0.0000E+00  0.5840E+03
   6.320  0.0000E+00  0.0000E+00  0.5840E+03
   6.330  0.0000E+00  0.0000E+00  0.5840E+03
   6.340  0.0000E+00  0.0000E+00  0.5840E+03
   6.350  0.0000E+00  0.0000E+00  0.5840E+03
   6.360  0.0000E+00  0.0000E+00  0.5840E+03
   6.370  0.0000E+00  0.0000E+00  0.5840E+03
   6.380  0.0000E+00  0.0000E+00  0.5840E+03
   6.390  0.0000E+00  0.0000E+00  0.5840E+03
   6.400  0.0000E+00  0.0000E+00  0.5840E+03
   6.410  0.0000E+00  0.0000E+00  0.5840E+03
   6.420  0.0000E+00  0.0000E+00  0.5840E+03
   6.430  0.0000E+00  0.0000E+00  0.5840E+03
   6.440  0.0000E+00  0.0000E+00  0.5840E+03
   6.450  0.0000E+00  0.0000E+00  0.5840E+03
   6.460  0.0000E+00  0.0000E+00  0.5840E+03
   6.470  0.0000E+00  0.0000E+00  0.5840E+03
   6.480  0.0000E+00  0.0000E+00  0.5840E+03
   6.490  0.0000E+00  0.0000E+00  0.5840E+03
   6.500  0.0000E+00  0.0000E+00  0.5840E+03
   6.510  0.0000E+00  0.0000E+00  0.5840E+03
   6.520  0.0000E+00  0.0000E+00  0.5840E+03
   6.530  0.0000E+00  0.0000E+00  0.5840E+03
   6.540  0.0000E+00  0.0000E+00  0.5840E+03
   6.550  0.0000E+00  0.0000E+00  0.5840E+03
   6.560  0.0000E+00  0.0000E+00  0.5840E+03
   6.570  0.0000E+00  0.0000E+00  0.5840E+03
   6.580  0.0000E+00  0.0000E+00  0.5840E+03
   6.590  0.0000E+00  0.0000E+00  0.5840E+03
   6.600  0.0000E+00  0.0000E+00  0.5840E+03
   6.610  0.0000E+00  0.0000E+00  0.5840E+03
   6.620  0.0000E+00  0.0000E+00  0.5840E+03
   6.630  0.0000E+00  0.0000E+00  0.5840E+03
   6.640  0.0000E+00  0.0000E+00  0.5840E+03
   6.650  0.0000E+00  0.0000E+00  0.5840E+03
   6.660  0.0000E+00  0.0000E+00  0.5840E+03
   6.670  0.0000E+00  0.0000E+00  0.5840E+03
   6.680  0.0000E+00  0.0000E+00  0.5840E+03
   6.690  0.0000E+00  0.0000E+00  0.5840E+03
   6.700  0.0000E+00  0.0000E+00  0.5840E+03
   6.710  0.0000E+00  0.0000E+00  0.5840E+03
   6.720  0.0000E+00  0.0000E+00  0.5840E+03
   6.730  0.0000E+00  0.0000E+00  0.5840E+03
   6.740  0.0000E+00  0.0000E+00  0.5840E+03
   6.750  0.0000E+00  0.0000E+00  0.5840E+03
   6.760  0.0000E+00  0.0000E+00  0.5840E+03
   6.770  0.0000E+00  0.0000E+00  0.5840E+03
   6.780  0.0000E+00  0.0000E+00  0.5840E+03
   6.790  0.0000E+00  0.0000E+00  0.5840E+03
   6.800  0.0000E+00  0.0000E+00  0.5840E+03
   6.810  0.0000E+00  0.0000E+00  0.5840E+03
   6.820  0.0000E+00  0.0000E+00  0.5840E+03
   6.830  0.0000E+00  0.0000E+00  0.5840E+03
   6.840  0.0000E+00  0.0000E+00  0.5840E+03
   6.850  0.0000E+00  0.0000E+00  0.5840E+03
   6.860  0.0000E+00  0.0000E+00  0.5840E+03
   6.870  0.0000E+00  0.0000E+00  0.5840E+03
   6.880  0.0000E+00  0.0000E+00  0.5840E+03
   6.890  0.0000E+00  0.0000E+00  0.5840E+03
   6.900  0.0000E+00  0.0000E+00  0.5840E+03
   6.910  0.0000E+00  0.0000E+00  0.5840E+03
   6.920  0.0000E+00  0.0000E+00  0.5840E+03
   6.930  0.0000E+00  0.0000E+00  0.5840E+03
   6.940  0.0000E+00  0.0000E+00  0.5840E+03
   6.950  0.0000E+00  0.0000E+00  0.5840E+03
   6.960  0.0000E+00  0.0000E+00  0.5840E+03
   6.970  0.0000E+00  0.0000E+00  0.5840E+03
   6.980  0.0000E+00  0.0000E+00  0.5840E+03
   6.990  0.0000E+00  0.0000E+00  0.5840E+03
   7.000  0.0000E+00  0.0000E+00  0.5840E+03
   7.010  0.0000E+00  0.0000E+00  0.5840E+03
   7.020  0.0000E+00  0.0000E+00  0.5840E+03
   7.030  0.0000E+00  0.0000E+00  0.5840E+03
   7.040  0.0000E+00  0.0000E+00  0.5840E+03
   7.050  0.0000E+00  0.0000E+00  0.5840E+03
   7.060  0.0000E+00  0.0000E+00  0.5840E+03
   7.070  0.0000E+00  0.0000E+00  0.5840E+03
   7.080  0.0000E+00  0.0000E+00  0.5840E+03
   7.090  0.0000E+00  0.0000E+00  0.5840E+03
   7.100  0.0000E+00  0.0000E+00  0.5840E+03
   7.110  0.0000E+00  0.0000E+00  0.5840E+03
   7.120  0.0000E+00  0.0000E+00  0.5840E+03
   7.130  0.0000E+00  0.0000E+00  0.5840E+03
   7.140  0.0000E+00  0.0000E+00  0.5840E+03
   7.150  0.0000E+00  0.0000E+00  0.5840E+03
   7.160  0.0000E+00  0.0000E+00  0.5840E+03
   7.170  0.0000E+00  0.0000E+00  0.5840E+03
   7.180  0.0000E+00  0.0000E+00  0.5840E+03
   7.190  0.0000E+00  0.0000E+00  0.5840E+03
   7.200  0.0000E+00  0.0000E+00  0.5840E+03
   7.210  0.0000E+00  0.0000E+00  0.5840E+03
   7.220  0.0000E+00  0.0000E+00  0.5840E+03
   7.230  0.0000E+00  0.0000E+00  0.5840E+03
   7.240  0.0000E+00  0.0000E+00  0.5840E+03
   7.250  0.0000E+00  0.0000E+00  0.5840E+03
   7.260  0.0000E+00  0.0000E+00  0.5840E+03
   7.270  0.0000E+00  0.0000E+00  0.5840E+03
   7.280  0.0000E+00  0.0000E+00  0.5840E+03
   7.290  0.0000E+00  0.0000E+00  0.5840E+03
   7.300  0.0000E+00  0.0000E+00  0.5840E+03
   7.310  0.0000E+00  0.0000E+00  0.5840E+03
   7.320  0.0000E+00  0.0000E+00  0.5840E+03
   7.330  0.0000E+00  0.0000E+00  0.5840E+03
   7.340  0.0000E+00  0.0000E+00  0.5840E+03
   7.350  0.0000E+00  0.0000E+00  0.5840E+03
   7.360  0.0000E+00  0.0000E+00  0.5840E+03
   7.370  0.0000E+00  0.0000E+00  0.5840E+03
   7.380  0.0000E+00  0.0000E+00  0.5840E+03
   7.390  0.0000E+00  0.0000E+00  0.5840E+03
   7.400  0.0000E+00  0.0000E+00  0.5840E+03
   7.410  0.0000E+00  0.0000E+00  0.5840E+03
   7.420  0.0000E+00  0.0000E+00  0.5840E+03
   7.430  0.0000E+00  0.0000E+00  0.5840E+03
   7.440  0.0000E+00  0.0000E+00  0.5840E+03
   7.450  0.0000E+00  0.0000E+00  0.5840E+03
   7.460  0.0000E+00  0.0000E+00  0.5840E+03
   7.470  0.6459E-05  0.0000E+00  0.5840E+03
   7.480  0.6890E-04  0.0000E+00  0.5840E+03
   7.490  0.1977E-03  0.1054E-04  0.5840E+03
   7.500  0.4045E-03  0.7999E-04  0.5840E+03
   7.510  0.8314E-03  0.2144E-03  0.5840E+03
   7.520  0.1520E-02  0.4374E-03  0.5840E+03
   7.530  0.2470E-02  0.8909E-03  0.5840E+03
   7.540  0.3682E-02  0.1598E-02  0.5840E+03
   7.550  0.5156E-02  0.2559E-02  0.5840E+03
   7.560  0.6892E-02  0.3774E-02  0.5840E+03
   7.570  0.8889E-02  0.5243E-02  0.5840E+03
   7.580  0.1115E-01  0.6966E-02  0.5840E+03
   7.590  0.1367E-01  0.8943E-02  0.5840E+03
   7.600  0.1645E-01  0.1117E-01  0.5840E+03
   7.610  0.1949E-01  0.1366E-01  0.5840E+03
   7.620  0.2280E-01  0.1640E-01  0.5840E+03
   7.630  0.2637E-01  0.1939E-01  0.5840E+03
   7.640  0.3020E-01  0.2263E-01  0.5840E+03
   7.650  0.3429E-01  0.2613E-01  0.5840E+03
   7.660  0.3864E-01  0.2989E-01  0.5840E+03
   7.670  0.4325E-01  0.3389E-01  0.5840E+03
   7.680  0.4813E-01  0.3815E-01  0.5840E+03
   7.690  0.5327E-01  0.4267E-01  0.5840E+03
   7.700  0.5867E-01  0.4744E-01  0.5840E+03
   7.710  0.6433E-01  0.5246E-01  0.5840E+03
   7.720  0.7025E-01  0.5774E-01  0.5840E+03
   7.730  0.7644E-01  0.6327E-01  0.5840E+03
   7.740  0.8288E-01  0.6905E-01  0.5840E+03
   7.750  0.8959E-01  0.7509E-01  0.5840E+03
   7.760  0.9656E-01  0.8138E-01  0.5840E+03
   7.770  0.1038E+00  0.8793E-01  0.5840E+03
   7.780  0.1113E+00  0.9473E-01  0.5840E+03
   7.790  0.1190E+00  0.1018E+00  0.5840E+03
   7.800  0.1271E+00  0.1091E+00  0.5840E+03
   7.810  0.1353E+00  0.1166E+00  0.5840E+03
   7.820  0.1439E+00  0.1245E+00  0.5840E+03
   7.830  0.1527E+00  0.1325E+00  0.5840E+03
   7.840  0.1617E+00  0.1409E+00  0.5840E+03
   7.850  0.1711E+00  0.1494E+00  0.5840E+03
   7.860  0.1807E+00  0.1583E+00  0.5840E+03
   7.870  0.1896E+00  0.1673E+00  0.5840E+03
   7.880  0.1987E+00  0.1767E+00  0.5840E+03
   7.890  0.2089E+00  0.1858E+00  0.5841E+03
   7.900  0.2203E+00  0.1945E+00  0.5841E+03
   7.910  0.2335E+00  0.2042E+00  0.5841E+03
   7.920  0.2479E+00  0.2151E+00  0.5841E+03
   7.930  0.2614E+00  0.2274E+00  0.5841E+03
   7.940  0.2742E+00  0.2419E+00  0.5841E+03
   7.950  0.2863E+00  0.2558E+00  0.5841E+03
   7.960  0.2978E+00  0.2688E+00  0.5841E+03
   7.970  0.3089E+00  0.2811E+00  0.5841E+03
   7.980  0.3196E+00  0.2929E+00  0.5841E+03
   7.990  0.3300E+00  0.3041E+00  0.5841E+03
   8.000  0.3401E+00  0.3150E+00  0.5841E+03
   8.010  0.3499E+00  0.3255E+00  0.5841E+03
   8.020  0.3596E+00  0.3357E+00  0.5841E+03
   8.030  0.3690E+00  0.3457E+00  0.5841E+03
   8.040  0.3782E+00  0.3555E+00  0.5841E+03
   8.050  0.3872E+00  0.3651E+00  0.5841E+03
   8.060  0.3960E+00  0.3745E+00  0.5842E+03
   8.070  0.4046E+00  0.3836E+00  0.5842E+03
   8.080  0.4130E+00  0.3926E+00  0.5842E+03
   8.090  0.4212E+00  0.4013E+00  0.5842E+03
   8.100  0.4291E+00  0.4099E+00  0.5842E+03
   8.110  0.4369E+00  0.4182E+00  0.5842E+03
   8.120  0.4444E+00  0.4264E+00  0.5842E+03
   8.130  0.4518E+00  0.4343E+00  0.5842E+03
   8.140  0.4589E+00  0.4420E+00  0.5842E+03
   8.150  0.4654E+00  0.4496E+00  0.5842E+03
   8.160  0.4695E+00  0.4569E+00  0.5842E+03
   8.170  0.4715E+00  0.4639E+00  0.5842E+03
   8.180  0.4714E+00  0.4692E+00  0.5843E+03
   8.190  0.4708E+00  0.4720E+00  0.5843E+03
   8.200  0.4721E+00  0.4727E+00  0.5843E+03
   8.210  0.4741E+00  0.4716E+00  0.5843E+03
   8.220  0.4773E+00  0.4726E+00  0.5843E+03
   8.230  0.4804E+00  0.4743E+00  0.5843E+03
   8.240  0.4832E+00  0.4773E+00  0.5843E+03
   8.250  0.4859E+00  0.4804E+00  0.5843E+03
   8.260  0.4889E+00  0.4834E+00  0.5843E+03
   8.270  0.4923E+00  0.4862E+00  0.5843E+03
   8.280  0.4962E+00  0.4891E+00  0.5844E+03
   8.290  0.5009E+00  0.4924E+00  0.5844E+03
   8.300  0.5064E+00  0.4962E+00  0.5844E+03
   8.310  0.5128E+00  0.5006E+00  0.5844E+03
   8.320  0.5201E+00  0.5059E+00  0.5844E+03
   8.330  0.5282E+00  0.5121E+00  0.5844E+03
   8.340  0.5379E+00  0.5191E+00  0.5844E+03
   8.350  0.5491E+00  0.5271E+00  0.5844E+03
   8.360  0.5616E+00  0.5363E+00  0.5844E+03
   8.370  0.5746E+00  0.5472E+00  0.5844E+03
   8.380  0.5879E+00  0.5595E+00  0.5845E+03
   8.390  0.6012E+00  0.5725E+00  0.5845E+03
   8.400  0.6147E+00  0.5858E+00  0.5845E+03
   8.410  0.6284E+00  0.5993E+00  0.5845E+03
   8.420  0.6421E+00  0.6128E+00  0.5845E+03
   8.430  0.6558E+00  0.6267E+00  0.5845E+03
   8.440  0.6697E+00  0.6404E+00  0.5845E+03
   8.450  0.6838E+00  0.6542E+00  0.5845E+03
   8.460  0.6982E+00  0.6682E+00  0.5846E+03
   8.470  0.7129E+00  0.6824E+00  0.5846E+03
   8.480  0.7279E+00  0.6968E+00  0.5846E+03
   8.490  0.7433E+00  0.7116E+00  0.5846E+03
   8.500  0.7591E+00  0.7267E+00  0.5846E+03
   8.510  0.7753E+00  0.7421E+00  0.5846E+03
   8.520  0.7920E+00  0.7579E+00  0.5846E+03
   8.530  0.8092E+00  0.7742E+00  0.5847E+03
   8.540  0.8269E+00  0.7909E+00  0.5847E+03
   8.550  0.8451E+00  0.8082E+00  0.5847E+03
   8.560  0.8638E+00  0.8259E+00  0.5847E+03
   8.570  0.8830E+00  0.8442E+00  0.5847E+03
   8.580  0.9027E+00  0.8630E+00  0.5847E+03
   8.590  0.9230E+00  0.8823E+00  0.5848E+03
   8.600  0.9437E+00  0.9020E+00  0.5848E+03
   8.610  0.9649E+00  0.9224E+00  0.5848E+03
   8.620  0.9866E+00  0.9432E+00  0.5848E+03
   8.630  0.1009E+01  0.9645E+00  0.5848E+03
   8.640  0.1032E+01  0.9863E+00  0.5849E+03
   8.650  0.1055E+01  0.1009E+01  0.5849E+03
   8.660  0.1079E+01  0.1032E+01  0.5849E+03
   8.670  0.1103E+01  0.1055E+01  0.5849E+03
   8.680  0.1128E+01  0.1079E+01  0.5849E+03
   8.690  0.1153E+01  0.1103E+01  0.5850E+03
   8.700  0.1178E+01  0.1128E+01  0.5850E+03
   8.710  0.1205E+01  0.1153E+01  0.5850E+03
   8.720  0.1231E+01  0.1179E+01  0.5850E+03
   8.730  0.1259E+01  0.1206E+01  0.5851E+03
   8.740  0.1286E+01  0.1233E+01  0.5851E+03
   8.750  0.1316E+01  0.1260E+01  0.5851E+03
   8.760  0.1363E+01  0.1288E+01  0.5851E+03
   8.770  0.1427E+01  0.1315E+01  0.5852E+03
   8.780  0.1510E+01  0.1350E+01  0.5852E+03
   8.790  0.1611E+01  0.1404E+01  0.5852E+03
   8.800  0.1730E+01  0.1477E+01  0.5853E+03
   8.810  0.1864E+01  0.1570E+01  0.5853E+03
   8.820  0.2016E+01  0.1683E+01  0.5853E+03
   8.830  0.2188E+01  0.1815E+01  0.5854E+03
   8.840  0.2362E+01  0.1964E+01  0.5854E+03
   8.850  0.2721E+01  0.2132E+01  0.5854E+03
   8.860  0.3325E+01  0.2315E+01  0.5855E+03
   8.870  0.5331E+01  0.2552E+01  0.5856E+03
   8.880  0.5456E+01  0.3060E+01  0.5856E+03
   8.890  0.5439E+01  0.4545E+01  0.5857E+03
   8.900  0.5475E+01  0.5871E+01  0.5858E+03
   8.910  0.5656E+01  0.5677E+01  0.5860E+03
   8.920  0.6035E+01  0.5652E+01  0.5861E+03
   8.930  0.6362E+01  0.5805E+01  0.5862E+03
   8.940  0.6573E+01  0.6229E+01  0.5863E+03
   8.950  0.6738E+01  0.6557E+01  0.5864E+03
   8.960  0.6894E+01  0.6766E+01  0.5866E+03
   8.970  0.6964E+01  0.6945E+01  0.5867E+03
   8.980  0.6997E+01  0.7089E+01  0.5869E+03
   8.990  0.7022E+01  0.7143E+01  0.5870E+03
   9.000  0.7020E+01  0.7167E+01  0.5871E+03
   9.010  0.7080E+01  0.7179E+01  0.5873E+03
   9.020  0.7119E+01  0.7172E+01  0.5874E+03
   9.030  0.7133E+01  0.7220E+01  0.5876E+03
   9.040  0.7076E+01  0.7212E+01  0.5877E+03
   9.050  0.6903E+01  0.7190E+01  0.5879E+03
   9.060  0.6733E+01  0.7071E+01  0.5880E+03
   9.070  0.7356E+01  0.6860E+01  0.5881E+03
   9.080  0.7274E+01  0.6610E+01  0.5883E+03
   9.090  0.5425E+01  0.7528E+01  0.5884E+03
   9.100  0.5342E+01  0.6781E+01  0.5885E+03
   9.110  0.5615E+01  0.5178E+01  0.5887E+03
   9.120  0.5921E+01  0.5356E+01  0.5888E+03
   9.130  0.6229E+01  0.5634E+01  0.5889E+03
   9.140  0.6506E+01  0.5936E+01  0.5890E+03
   9.150  0.6737E+01  0.6226E+01  0.5891E+03
   9.160  0.7031E+01  0.6468E+01  0.5893E+03
   9.170  0.7319E+01  0.6683E+01  0.5894E+03
   9.180  0.7626E+01  0.6966E+01  0.5895E+03
   9.190  0.7943E+01  0.7253E+01  0.5897E+03
   9.200  0.8221E+01  0.7552E+01  0.5898E+03
   9.210  0.8491E+01  0.7859E+01  0.5900E+03
   9.220  0.8770E+01  0.8164E+01  0.5902E+03
   9.230  0.9056E+01  0.8449E+01  0.5903E+03
   9.240  0.9349E+01  0.8730E+01  0.5905E+03
   9.250  0.9678E+01  0.9017E+01  0.5907E+03
   9.260  0.1004E+02  0.9310E+01  0.5909E+03
   9.270  0.1040E+02  0.9613E+01  0.5911E+03
   9.280  0.1075E+02  0.9990E+01  0.5913E+03
   9.290  0.1112E+02  0.1036E+02  0.5915E+03
   9.300  0.1151E+02  0.1072E+02  0.5917E+03
   9.310  0.1191E+02  0.1109E+02  0.5920E+03
   9.320  0.1234E+02  0.1148E+02  0.5922E+03
   9.330  0.1278E+02  0.1189E+02  0.5924E+03
   9.340  0.1319E+02  0.1232E+02  0.5927E+03
   9.350  0.1364E+02  0.1276E+02  0.5929E+03
   9.360  0.1426E+02  0.1319E+02  0.5932E+03
   9.370  0.1484E+02  0.1360E+02  0.5935E+03
   9.380  0.1541E+02  0.1418E+02  0.5938E+03
   9.390  0.1604E+02  0.1482E+02  0.5941E+03
   9.400  0.1650E+02  0.1541E+02  0.5944E+03
   9.410  0.1675E+02  0.1612E+02  0.5947E+03
   9.420  0.1679E+02  0.1667E+02  0.5950E+03
   9.430  0.1662E+02  0.1695E+02  0.5954E+03
   9.440  0.1651E+02  0.1699E+02  0.5957E+03
   9.450  0.1664E+02  0.1677E+02  0.5961E+03
   9.460  0.1698E+02  0.1660E+02  0.5964E+03
   9.470  0.1737E+02  0.1670E+02  0.5967E+03
   9.480  0.1741E+02  0.1705E+02  0.5971E+03
   9.490  0.1642E+02  0.1742E+02  0.5974E+03
   9.500  0.1742E+02  0.1716E+02  0.5978E+03
   9.510  0.1747E+02  0.1608E+02  0.5981E+03
   9.520  0.1886E+02  0.1838E+02  0.5985E+03
   9.530  0.1885E+02  0.1646E+02  0.5988E+03
   9.540  0.1743E+02  0.1814E+02  0.5992E+03
   9.550  0.1597E+02  0.1894E+02  0.5995E+03
   9.560  0.1525E+02  0.1794E+02  0.5999E+03
   9.570  0.1463E+02  0.1626E+02  0.6002E+03
   9.580  0.1436E+02  0.1568E+02  0.6005E+03
   9.590  0.1447E+02  0.1511E+02  0.6008E+03
   9.600  0.1439E+02  0.1499E+02  0.6011E+03
   9.610  0.1381E+02  0.1428E+02  0.6014E+03
   9.620  0.1436E+02  0.1424E+02  0.6017E+03
   9.630  0.1505E+02  0.1456E+02  0.6019E+03
   9.640  0.1550E+02  0.1473E+02  0.6022E+03
   9.650  0.1574E+02  0.1507E+02  0.6025E+03
   9.660  0.1578E+02  0.1561E+02  0.6029E+03
   9.670  0.1545E+02  0.1609E+02  0.6032E+03
   9.680  0.1471E+02  0.1624E+02  0.6035E+03
   9.690  0.1385E+02  0.1578E+02  0.6038E+03
   9.700  0.1424E+02  0.1462E+02  0.6041E+03
   9.710  0.1516E+02  0.1333E+02  0.6044E+03
   9.720  0.1599E+02  0.1385E+02  0.6047E+03
   9.730  0.1662E+02  0.1492E+02  0.6050E+03
   9.740  0.1724E+02  0.1571E+02  0.6053E+03
   9.750  0.1785E+02  0.1634E+02  0.6056E+03
   9.760  0.1845E+02  0.1696E+02  0.6060E+03
   9.770  0.1900E+02  0.1755E+02  0.6063E+03
   9.780  0.2021E+02  0.1816E+02  0.6067E+03
   9.790  0.2041E+02  0.1877E+02  0.6071E+03
   9.800  0.1983E+02  0.1947E+02  0.6075E+03
   9.810  0.1937E+02  0.1976E+02  0.6079E+03
   9.820  0.1901E+02  0.1969E+02  0.6083E+03
   9.830  0.1890E+02  0.1941E+02  0.6087E+03
   9.840  0.1891E+02  0.1897E+02  0.6090E+03
   9.850  0.1904E+02  0.1885E+02  0.6094E+03
   9.860  0.2080E+02  0.1893E+02  0.6098E+03
   9.870  0.2674E+02  0.1919E+02  0.6102E+03
   9.880  0.3657E+02  0.2064E+02  0.6107E+03
   9.890  0.4906E+02  0.2674E+02  0.6114E+03
   9.900  0.5031E+02  0.3661E+02  0.6122E+03
   9.910  0.5447E+02  0.4867E+02  0.6132E+03
   9.920  0.4174E+02  0.5563E+02  0.6142E+03
   9.930  0.3494E+02  0.5448E+02  0.6151E+03
   9.940  0.3681E+02  0.4338E+02  0.6159E+03
   9.950  0.3263E+02  0.3691E+02  0.6167E+03
   9.960  0.2850E+02  0.3568E+02  0.6174E+03
   9.970  0.3173E+02  0.2878E+02  0.6180E+03
   9.980  0.3444E+02  0.2961E+02  0.6186E+03
   9.990  0.3084E+02  0.3271E+02  0.6192E+03
  10.000  0.3122E+02  0.3180E+02  0.6199E+03
  10.010  0.3163E+02  0.2966E+02  0.6205E+03
  10.020  0.3192E+02  0.3012E+02  0.6211E+03
  10.030  0.3200E+02  0.3078E+02  0.6217E+03
  10.040  0.3204E+02  0.3131E+02  0.6224E+03
  10.050  0.3181E+02  0.3176E+02  0.6230E+03
  10.060  0.3150E+02  0.3207E+02  0.6236E+03
  10.070  0.3156E+02  0.3217E+02  0.6243E+03
  10.080  0.3209E+02  0.3213E+02  0.6249E+03
  10.090  0.3229E+02  0.3199E+02  0.6256E+03
  10.100  0.3325E+02  0.3211E+02  0.6262E+03
  10.110  0.3533E+02  0.3226E+02  0.6269E+03
  10.120  0.3610E+02  0.3286E+02  0.6275E+03
  10.130  0.3638E+02  0.3444E+02  0.6283E+03
  10.140  0.3082E+02  0.3702E+02  0.6289E+03
  10.150  0.2965E+02  0.3365E+02  0.6296E+03
  10.160  0.2918E+02  0.2980E+02  0.6302E+03
  10.170  0.2960E+02  0.2839E+02  0.6308E+03
  10.180  0.2908E+02  0.2798E+02  0.6314E+03
  10.190  0.2769E+02  0.2861E+02  0.6319E+03
  10.200  0.2526E+02  0.2840E+02  0.6325E+03
  10.210  0.2265E+02  0.2742E+02  0.6330E+03
  10.220  0.2132E+02  0.2560E+02  0.6335E+03
  10.230  0.2056E+02  0.2311E+02  0.6340E+03
  10.240  0.2019E+02  0.2138E+02  0.6344E+03
  10.250  0.1986E+02  0.2077E+02  0.6348E+03
  10.260  0.1972E+02  0.2036E+02  0.6352E+03
  10.270  0.1954E+02  0.1986E+02  0.6356E+03
  10.280  0.1938E+02  0.1969E+02  0.6360E+03
  10.290  0.1922E+02  0.1962E+02  0.6364E+03
  10.300  0.1909E+02  0.1956E+02  0.6368E+03
  10.310  0.1901E+02  0.1953E+02  0.6371E+03
  10.320  0.1874E+02  0.1953E+02  0.6375E+03
  10.330  0.1981E+02  0.1962E+02  0.6379E+03
  10.340  0.2482E+02  0.1891E+02  0.6383E+03
  10.350  0.3053E+02  0.2248E+02  0.6388E+03
  10.360  0.2665E+02  0.2949E+02  0.6394E+03
  10.370  0.2739E+02  0.2759E+02  0.6399E+03
  10.380  0.3241E+02  0.2706E+02  0.6405E+03
  10.390  0.3008E+02  0.2733E+02  0.6411E+03
  10.400  0.2707E+02  0.3082E+02  0.6417E+03
  10.410  0.2476E+02  0.2925E+02  0.6422E+03
  10.420  0.2220E+02  0.2746E+02  0.6427E+03
  10.430  0.1986E+02  0.2462E+02  0.6432E+03
  10.440  0.1807E+02  0.2164E+02  0.6436E+03
  10.450  0.2300E+02  0.1901E+02  0.6440E+03
  10.460  0.1788E+02  0.1718E+02  0.6444E+03
  10.470  0.1661E+02  0.1655E+02  0.6448E+03
  10.480  0.1625E+02  0.1757E+02  0.6451E+03
  10.490  0.1594E+02  0.1890E+02  0.6454E+03
  10.500  0.1572E+02  0.1836E+02  0.6458E+03
  10.510  0.1553E+02  0.1738E+02  0.6461E+03
  10.520  0.1542E+02  0.1695E+02  0.6465E+03
  10.530  0.1529E+02  0.1660E+02  0.6468E+03
  10.540  0.1497E+02  0.1621E+02  0.6471E+03
  10.550  0.1495E+02  0.1561E+02  0.6474E+03
  10.560  0.1503E+02  0.1510E+02  0.6477E+03
  10.570  0.1500E+02  0.1475E+02  0.6480E+03
  10.580  0.1509E+02  0.1451E+02  0.6483E+03
  10.590  0.1551E+02  0.1431E+02  0.6486E+03
  10.600  0.1580E+02  0.1431E+02  0.6489E+03
  10.610  0.1606E+02  0.1451E+02  0.6492E+03
  10.620  0.1633E+02  0.1463E+02  0.6495E+03
  10.630  0.1658E+02  0.1489E+02  0.6498E+03
  10.640  0.1669E+02  0.1518E+02  0.6501E+03
  10.650  0.1692E+02  0.1549E+02  0.6505E+03
  10.660  0.1698E+02  0.1594E+02  0.6508E+03
  10.670  0.1712E+02  0.1700E+02  0.6511E+03
  10.680  0.1730E+02  0.1731E+02  0.6515E+03
  10.690  0.1728E+02  0.1761E+02  0.6518E+03
  10.700  0.1717E+02  0.1768E+02  0.6522E+03
  10.710  0.1734E+02  0.1726E+02  0.6525E+03
  10.720  0.1791E+02  0.1670E+02  0.6529E+03
  10.730  0.1916E+02  0.1609E+02  0.6532E+03
  10.740  0.2055E+02  0.1573E+02  0.6536E+03
  10.750  0.2124E+02  0.1605E+02  0.6539E+03
  10.760  0.2061E+02  0.1796E+02  0.6543E+03
  10.770  0.1899E+02  0.1914E+02  0.6547E+03
  10.780  0.1706E+02  0.2026E+02  0.6551E+03
  10.790  0.1603E+02  0.2052E+02  0.6554E+03
  10.800  0.1550E+02  0.1926E+02  0.6558E+03
  10.810  0.1561E+02  0.1753E+02  0.6561E+03
  10.820  0.1216E+02  0.1600E+02  0.6564E+03
  10.830  0.1312E+02  0.1515E+02  0.6567E+03
  10.840  0.1114E+02  0.1296E+02  0.6570E+03
  10.850  0.1080E+02  0.1153E+02  0.6572E+03
  10.860  0.1174E+02  0.1112E+02  0.6574E+03
  10.870  0.1245E+02  0.1009E+02  0.6577E+03
  10.880  0.1195E+02  0.1078E+02  0.6579E+03
  10.890  0.1079E+02  0.1304E+02  0.6581E+03
  10.900  0.1008E+02  0.1290E+02  0.6584E+03
  10.910  0.9631E+01  0.1213E+02  0.6586E+03
  10.920  0.9793E+01  0.1148E+02  0.6588E+03
  10.930  0.9929E+01  0.1059E+02  0.6590E+03
  10.940  0.1013E+02  0.1020E+02  0.6592E+03
  10.950  0.1030E+02  0.1014E+02  0.6594E+03
  10.960  0.9614E+01  0.1034E+02  0.6596E+03
  10.970  0.8381E+01  0.1127E+02  0.6598E+03
  10.980  0.8358E+01  0.1271E+02  0.6600E+03
  10.990  0.9251E+01  0.8279E+01  0.6602E+03
  11.000  0.1397E+02  0.8674E+01  0.6604E+03
  11.010  0.1644E+02  0.9341E+01  0.6606E+03
  11.020  0.1636E+02  0.1096E+02  0.6609E+03
  11.030  0.1790E+02  0.1273E+02  0.6612E+03
  11.040  0.1943E+02  0.1454E+02  0.6615E+03
  11.050  0.2095E+02  0.1700E+02  0.6619E+03
  11.060  0.2302E+02  0.1944E+02  0.6623E+03
  11.070  0.2740E+02  0.2172E+02  0.6627E+03
  11.080  0.2198E+02  0.2500E+02  0.6632E+03
  11.090  0.2185E+02  0.2532E+02  0.6637E+03
  11.100  0.1862E+02  0.2101E+02  0.6641E+03
  11.110  0.1508E+02  0.1996E+02  0.6645E+03
  11.120  0.1223E+02  0.2447E+02  0.6648E+03
  11.130  0.1027E+02  0.1606E+02  0.6651E+03
  11.140  0.9512E+01  0.1353E+02  0.6654E+03
  11.150  0.9153E+01  0.1132E+02  0.6656E+03
  11.160  0.8995E+01  0.9137E+01  0.6658E+03
  11.170  0.8813E+01  0.8178E+01  0.6660E+03
  11.180  0.8550E+01  0.7585E+01  0.6661E+03
  11.190  0.8227E+01  0.7373E+01  0.6663E+03
  11.200  0.8104E+01  0.7213E+01  0.6664E+03
  11.210  0.8026E+01  0.7073E+01  0.6666E+03
  11.220  0.7943E+01  0.6976E+01  0.6667E+03
  11.230  0.7871E+01  0.7032E+01  0.6669E+03
  11.240  0.7812E+01  0.7552E+01  0.6670E+03
  11.250  0.7767E+01  0.7997E+01  0.6672E+03
  11.260  0.7742E+01  0.8317E+01  0.6674E+03
  11.270  0.7736E+01  0.8517E+01  0.6675E+03
  11.280  0.7754E+01  0.8599E+01  0.6677E+03
  11.290  0.7799E+01  0.8562E+01  0.6679E+03
  11.300  0.7873E+01  0.8530E+01  0.6680E+03
  11.310  0.7974E+01  0.8692E+01  0.6682E+03
  11.320  0.8153E+01  0.8845E+01  0.6684E+03
  11.330  0.8357E+01  0.9074E+01  0.6685E+03
  11.340  0.8667E+01  0.9356E+01  0.6687E+03
  11.350  0.9156E+01  0.9575E+01  0.6689E+03
  11.360  0.1005E+02  0.9789E+01  0.6691E+03
  11.370  0.1115E+02  0.1023E+02  0.6693E+03
  11.380  0.1241E+02  0.1092E+02  0.6695E+03
  11.390  0.1392E+02  0.1181E+02  0.6697E+03
  11.400  0.1564E+02  0.1297E+02  0.6700E+03
  11.410  0.1753E+02  0.1437E+02  0.6703E+03
  11.420  0.1966E+02  0.1590E+02  0.6707E+03
  11.430  0.2210E+02  0.1762E+02  0.6710E+03
  11.440  0.2465E+02  0.1956E+02  0.6715E+03
  11.450  0.2729E+02  0.2173E+02  0.6719E+03
  11.460  0.3032E+02  0.2386E+02  0.6724E+03
  11.470  0.3141E+02  0.2648E+02  0.6730E+03
  11.480  0.3362E+02  0.2864E+02  0.6736E+03
  11.490  0.3369E+02  0.3005E+02  0.6742E+03
  11.500  0.3295E+02  0.3137E+02  0.6749E+03
  11.510  0.3047E+02  0.3334E+02  0.6755E+03
  11.520  0.2823E+02  0.3303E+02  0.6761E+03
  11.530  0.2695E+02  0.3061E+02  0.6767E+03
  11.540  0.2528E+02  0.2913E+02  0.6773E+03
  11.550  0.2406E+02  0.2787E+02  0.6778E+03
  11.560  0.2396E+02  0.2591E+02  0.6783E+03
  11.570  0.2484E+02  0.2357E+02  0.6788E+03
  11.580  0.2532E+02  0.2277E+02  0.6793E+03
  11.590  0.2547E+02  0.2401E+02  0.6798E+03
  11.600  0.2540E+02  0.2442E+02  0.6803E+03
  11.610  0.2430E+02  0.2456E+02  0.6808E+03
  11.620  0.2481E+02  0.2401E+02  0.6813E+03
  11.630  0.2363E+02  0.2516E+02  0.6818E+03
  11.640  0.2421E+02  0.2549E+02  0.6823E+03
  11.650  0.2557E+02  0.2155E+02  0.6827E+03
  11.660  0.2689E+02  0.2269E+02  0.6832E+03
  11.670  0.2792E+02  0.2435E+02  0.6837E+03
  11.680  0.2883E+02  0.2602E+02  0.6843E+03
  11.690  0.2971E+02  0.2825E+02  0.6848E+03
  11.700  0.3036E+02  0.2946E+02  0.6854E+03
  11.710  0.2814E+02  0.3111E+02  0.6860E+03
  11.720  0.2602E+02  0.3258E+02  0.6866E+03
  11.730  0.2339E+02  0.2878E+02  0.6872E+03
  11.740  0.2310E+02  0.2662E+02  0.6877E+03
  11.750  0.2692E+02  0.2500E+02  0.6882E+03
  11.760  0.2277E+02  0.2319E+02  0.6887E+03
  11.770  0.2126E+02  0.2167E+02  0.6891E+03
  11.780  0.1973E+02  0.2079E+02  0.6895E+03
  11.790  0.2127E+02  0.2126E+02  0.6899E+03
  11.800  0.2239E+02  0.2177E+02  0.6904E+03
  11.810  0.2212E+02  0.2347E+02  0.6908E+03
  11.820  0.2166E+02  0.2442E+02  0.6913E+03
  11.830  0.2107E+02  0.2355E+02  0.6917E+03
  11.840  0.2021E+02  0.2289E+02  0.6922E+03
  11.850  0.1907E+02  0.2208E+02  0.6926E+03
  11.860  0.1811E+02  0.2113E+02  0.6930E+03
  11.870  0.1769E+02  0.2007E+02  0.6934E+03
  11.880  0.1708E+02  0.1901E+02  0.6937E+03
  11.890  0.1614E+02  0.1821E+02  0.6941E+03
  11.900  0.1478E+02  0.1756E+02  0.6944E+03
  11.910  0.1281E+02  0.1664E+02  0.6947E+03
  11.920  0.1176E+02  0.1544E+02  0.6950E+03
  11.930  0.1081E+02  0.1381E+02  0.6953E+03
  11.940  0.9926E+01  0.1226E+02  0.6955E+03
  11.950  0.9089E+01  0.1131E+02  0.6957E+03
  11.960  0.8366E+01  0.1046E+02  0.6959E+03
  11.970  0.7844E+01  0.9699E+01  0.6961E+03
  11.980  0.7916E+01  0.8925E+01  0.6963E+03
  11.990  0.7958E+01  0.9419E+01  0.6965E+03
  12.000  0.7453E+01  0.8944E+01  0.6966E+03
  12.010  0.6949E+01  0.8498E+01  0.6968E+03
  12.020  0.6435E+01  0.7757E+01  0.6969E+03
  12.030  0.5913E+01  0.7133E+01  0.6971E+03
  12.040  0.5380E+01  0.6524E+01  0.6972E+03
  12.050  0.4837E+01  0.5922E+01  0.6973E+03
  12.060  0.4281E+01  0.5327E+01  0.6974E+03
  12.070  0.3724E+01  0.4738E+01  0.6975E+03
  12.080  0.3188E+01  0.4151E+01  0.6976E+03
  12.090  0.2723E+01  0.3589E+01  0.6976E+03
  12.100  0.2336E+01  0.3064E+01  0.6977E+03
  12.110  0.2006E+01  0.2641E+01  0.6978E+03
  12.120  0.1729E+01  0.2270E+01  0.6978E+03
  12.130  0.1480E+01  0.1956E+01  0.6978E+03
  12.140  0.1254E+01  0.1688E+01  0.6979E+03
  12.150  0.1047E+01  0.1444E+01  0.6979E+03
  12.160  0.8598E+00  0.1221E+01  0.6979E+03
  12.170  0.6923E+00  0.1018E+01  0.6979E+03
  12.180  0.5444E+00  0.8347E+00  0.6979E+03
  12.190  0.4161E+00  0.6706E+00  0.6980E+03
  12.200  0.3074E+00  0.5260E+00  0.6980E+03
  12.210  0.2183E+00  0.4008E+00  0.6980E+03
  12.220  0.1487E+00  0.2952E+00  0.6980E+03
  12.230  0.9876E-01  0.2091E+00  0.6980E+03
  12.240  0.6840E-01  0.1424E+00  0.6980E+03
  12.250  0.5498E-01  0.9526E-01  0.6980E+03
  12.260  0.4809E-01  0.6756E-01  0.6980E+03
  12.270  0.4380E-01  0.5481E-01  0.6980E+03
  12.280  0.4000E-01  0.4909E-01  0.6980E+03
  12.290  0.3637E-01  0.4492E-01  0.6980E+03
  12.300  0.3292E-01  0.4106E-01  0.6980E+03
  12.310  0.2964E-01  0.3737E-01  0.6980E+03
  12.320  0.2654E-01  0.3386E-01  0.6980E+03
  12.330  0.2360E-01  0.3052E-01  0.6980E+03
  12.340  0.2084E-01  0.2735E-01  0.6980E+03
  12.350  0.1825E-01  0.2436E-01  0.6980E+03
  12.360  0.1583E-01  0.2154E-01  0.6980E+03
  12.370  0.1358E-01  0.1889E-01  0.6980E+03
  12.380  0.1151E-01  0.1642E-01  0.6980E+03
  12.390  0.9605E-02  0.1412E-01  0.6980E+03
  12.400  0.7875E-02  0.1200E-01  0.6980E+03
  12.410  0.6317E-02  0.1005E-01  0.6980E+03
  12.420  0.4931E-02  0.8268E-02  0.6980E+03
  12.430  0.3718E-02  0.6663E-02  0.6980E+03
  12.440  0.2676E-02  0.5232E-02  0.6980E+03
  12.450  0.1806E-02  0.3975E-02  0.6980E+03
  12.460  0.1109E-02  0.2890E-02  0.6980E+03
  12.470  0.5836E-03  0.1980E-02  0.6980E+03
  12.480  0.2304E-03  0.1243E-02  0.6980E+03
  12.490  0.4929E-04  0.6791E-03  0.6980E+03
  12.500  0.4148E-06  0.2890E-03  0.6980E+03
  12.510  0.0000E+00  0.7245E-04  0.6980E+03
  12.520  0.0000E+00  0.3887E-05  0.6980E+03
  12.530  0.0000E+00  0.0000E+00  0.6980E+03
  12.540  0.0000E+00  0.0000E+00  0.6980E+03
  12.550  0.0000E+00  0.0000E+00  0.6980E+03
  12.560  0.0000E+00  0.0000E+00  0.6980E+03
  12.570  0.0000E+00  0.0000E+00  0.6980E+03
  12.580  0.0000E+00  0.0000E+00  0.6980E+03
  12.590  0.0000E+00  0.0000E+00  0.6980E+03
  12.600  0.0000E+00  0.0000E+00  0.6980E+03
  12.610  0.0000E+00  0.0000E+00  0.6980E+03
  12.620  0.0000E+00  0.0000E+00  0.6980E+03
  12.630  0.0000E+00  0.0000E+00  0.6980E+03
  12.640  0.0000E+00  0.0000E+00  0.6980E+03
  12.650  0.0000E+00  0.0000E+00  0.6980E+03
  12.660  0.0000E+00  0.0000E+00  0.6980E+03
  12.670  0.0000E+00  0.0000E+00  0.6980E+03
  12.680  0.0000E+00  0.0000E+00  0.6980E+03
  12.690  0.0000E+00  0.0000E+00  0.6980E+03
  12.700  0.0000E+00  0.0000E+00  0.6980E+03
  12.710  0.0000E+00  0.0000E+00  0.6980E+03
  12.720  0.0000E+00  0.0000E+00  0.6980E+03
  12.730  0.0000E+00  0.0000E+00  0.6980E+03
  12.740  0.0000E+00  0.0000E+00  0.6980E+03
  12.750  0.0000E+00  0.0000E+00  0.6980E+03
  12.760  0.0000E+00  0.0000E+00  0.6980E+03
  12.770  0.0000E+00  0.0000E+00  0.6980E+03
  12.780  0.0000E+00  0.0000E+00  0.6980E+03
  12.790  0.0000E+00  0.0000E+00  0.6980E+03
  12.800  0.0000E+00  0.0000E+00  0.6980E+03
  12.810  0.0000E+00  0.0000E+00  0.6980E+03
  12.820  0.0000E+00  0.0000E+00  0.6980E+03
  12.830  0.0000E+00  0.0000E+00  0.6980E+03
  12.840  0.0000E+00  0.0000E+00  0.6980E+03
  12.850  0.0000E+00  0.0000E+00  0.6980E+03
  12.860  0.0000E+00  0.0000E+00  0.6980E+03
  12.870  0.0000E+00  0.0000E+00  0.6980E+03
  12.880  0.0000E+00  0.0000E+00  0.6980E+03
  12.890  0.0000E+00  0.0000E+00  0.6980E+03
  12.900  0.0000E+00  0.0000E+00  0.6980E+03
  12.910  0.0000E+00  0.0000E+00  0.6980E+03
  12.920  0.0000E+00  0.0000E+00  0.6980E+03
  12.930  0.0000E+00  0.0000E+00  0.6980E+03
  12.940  0.0000E+00  0.0000E+00  0.6980E+03
  12.950  0.0000E+00  0.0000E+00  0.6980E+03
  12.960  0.0000E+00  0.0000E+00  0.6980E+03
  12.970  0.0000E+00  0.0000E+00  0.6980E+03
  12.980  0.0000E+00  0.0000E+00  0.6980E+03
  12.990  0.0000E+00  0.0000E+00  0.6980E+03
  13.000  0.0000E+00  0.0000E+00  0.6980E+03
  13.010  0.0000E+00  0.0000E+00  0.6980E+03
  13.020  0.0000E+00  0.0000E+00  0.6980E+03
  13.030  0.0000E+00  0.0000E+00  0.6980E+03
  13.040  0.0000E+00  0.0000E+00  0.6980E+03
  13.050  0.0000E+00  0.0000E+00  0.6980E+03
  13.060  0.0000E+00  0.0000E+00  0.6980E+03
  13.070  0.0000E+00  0.0000E+00  0.6980E+03
  13.080  0.0000E+00  0.0000E+00  0.6980E+03
  13.090  0.0000E+00  0.0000E+00  0.6980E+03
  13.100  0.0000E+00  0.0000E+00  0.6980E+03
  13.110  0.0000E+00  0.0000E+00  0.6980E+03
  13.120  0.0000E+00  0.0000E+00  0.6980E+03
  13.130  0.0000E+00  0.0000E+00  0.6980E+03
  13.140  0.0000E+00  0.0000E+00  0.6980E+03
  13.150  0.0000E+00  0.0000E+00  0.6980E+03
  13.160  0.0000E+00  0.0000E+00  0.6980E+03
  13.170  0.0000E+00  0.0000E+00  0.6980E+03
  13.180  0.0000E+00  0.0000E+00  0.6980E+03
  13.190  0.0000E+00  0.0000E+00  0.6980E+03
  13.200  0.0000E+00  0.0000E+00  0.6980E+03
  13.210  0.0000E+00  0.0000E+00  0.6980E+03
  13.220  0.0000E+00  0.0000E+00  0.6980E+03
  13.230  0.0000E+00  0.0000E+00  0.6980E+03
  13.240  0.0000E+00  0.0000E+00  0.6980E+03
  13.250  0.0000E+00  0.0000E+00  0.6980E+03
  13.260  0.0000E+00  0.0000E+00  0.6980E+03
  13.270  0.0000E+00  0.0000E+00  0.6980E+03
  13.280  0.0000E+00  0.0000E+00  0.6980E+03
  13.290  0.0000E+00  0.0000E+00  0.6980E+03
  13.300  0.0000E+00  0.0000E+00  0.6980E+03
  13.310  0.0000E+00  0.0000E+00  0.6980E+03
  13.320  0.0000E+00  0.0000E+00  0.6980E+03
  13.330  0.0000E+00  0.0000E+00  0.6980E+03
  13.340  0.0000E+00  0.0000E+00  0.6980E+03
  13.350  0.0000E+00  0.0000E+00  0.6980E+03
  13.360  0.0000E+00  0.0000E+00  0.6980E+03
  13.370  0.0000E+00  0.0000E+00  0.6980E+03
  13.380  0.0000E+00  0.0000E+00  0.6980E+03
  13.390  0.0000E+00  0.0000E+00  0.6980E+03
  13.400  0.0000E+00  0.0000E+00  0.6980E+03
  13.410  0.0000E+00  0.0000E+00  0.6980E+03
  13.420  0.0000E+00  0.0000E+00  0.6980E+03
  13.430  0.0000E+00  0.0000E+00  0.6980E+03
  13.440  0.0000E+00  0.0000E+00  0.6980E+03
  13.450  0.0000E+00  0.0000E+00  0.6980E+03
  13.460  0.0000E+00  0.0000E+00  0.6980E+03
  13.470  0.0000E+00  0.0000E+00  0.6980E+03
  13.480  0.0000E+00  0.0000E+00  0.6980E+03
  13.490  0.0000E+00  0.0000E+00  0.6980E+03
  13.500  0.0000E+00  0.0000E+00  0.6980E+03
  13.510  0.0000E+00  0.0000E+00  0.6980E+03
  13.520  0.0000E+00  0.0000E+00  0.6980E+03
  13.530  0.0000E+00  0.0000E+00  0.6980E+03
  13.540  0.0000E+00  0.0000E+00  0.6980E+03
  13.550  0.0000E+00  0.0000E+00  0.6980E+03
  13.560  0.0000E+00  0.0000E+00  0.6980E+03
  13.570  0.0000E+00  0.0000E+00  0.6980E+03
  13.580  0.0000E+00  0.0000E+00  0.6980E+03
  13.590  0.0000E+00  0.0000E+00  0.6980E+03
  13.600  0.0000E+00  0.0000E+00  0.6980E+03
  13.610  0.0000E+00  0.0000E+00  0.6980E+03
  13.620  0.0000E+00  0.0000E+00  0.6980E+03
  13.630  0.0000E+00  0.0000E+00  0.6980E+03
  13.640  0.0000E+00  0.0000E+00  0.6980E+03
  13.650  0.0000E+00  0.0000E+00  0.6980E+03
  13.660  0.0000E+00  0.0000E+00  0.6980E+03
  13.670  0.0000E+00  0.0000E+00  0.6980E+03
  13.680  0.0000E+00  0.0000E+00  0.6980E+03
  13.690  0.0000E+00  0.0000E+00  0.6980E+03
  13.700  0.0000E+00  0.0000E+00  0.6980E+03
  13.710  0.0000E+00  0.0000E+00  0.6980E+03
  13.720  0.0000E+00  0.0000E+00  0.6980E+03
  13.730  0.0000E+00  0.0000E+00  0.6980E+03
  13.740  0.0000E+00  0.0000E+00  0.6980E+03
  13.750  0.0000E+00  0.0000E+00  0.6980E+03
  13.760  0.0000E+00  0.0000E+00  0.6980E+03
  13.770  0.0000E+00  0.0000E+00  0.6980E+03
  13.780  0.0000E+00  0.0000E+00  0.6980E+03
  13.790  0.0000E+00  0.0000E+00  0.6980E+03
  13.800  0.0000E+00  0.0000E+00  0.6980E+03
  13.810  0.0000E+00  0.0000E+00  0.6980E+03
  13.820  0.0000E+00  0.0000E+00  0.6980E+03
  13.830  0.0000E+00  0.0000E+00  0.6980E+03
  13.840  0.0000E+00  0.0000E+00  0.6980E+03
  13.850  0.0000E+00  0.0000E+00  0.6980E+03
  13.860  0.0000E+00  0.0000E+00  0.6980E+03
  13.870  0.0000E+00  0.0000E+00  0.6980E+03
  13.880  0.0000E+00  0.0000E+00  0.6980E+03
  13.890  0.0000E+00  0.0000E+00  0.6980E+03
  13.900  0.0000E+00  0.0000E+00  0.6980E+03
  13.910  0.0000E+00  0.0000E+00  0.6980E+03
  13.920  0.0000E+00  0.0000E+00  0.6980E+03
  13.930  0.0000E+00  0.0000E+00  0.6980E+03
  13.940  0.0000E+00  0.0000E+00  0.6980E+03
  13.950  0.0000E+00  0.0000E+00  0.6980E+03
  13.960  0.0000E+00  0.0000E+00  0.6980E+03
  13.970  0.0000E+00  0.0000E+00  0.6980E+03
  13.980  0.0000E+00  0.0000E+00  0.6980E+03
  13.990  0.0000E+00  0.0000E+00  0.6980E+03
  14.000  0.0000E+00  0.0000E+00  0.6980E+03
  14.010  0.0000E+00  0.0000E+00  0.6980E+03
  14.020  0.0000E+00  0.0000E+00  0.6980E+03
  14.030  0.0000E+00  0.0000E+00  0.6980E+03
  14.040  0.0000E+00  0.0000E+00  0.6980E+03
  14.050  0.0000E+00  0.0000E+00  0.6980E+03
  14.060  0.0000E+00  0.0000E+00  0.6980E+03
  14.070  0.0000E+00  0.0000E+00  0.6980E+03
  14.080  0.0000E+00  0.0000E+00  0.6980E+03
  14.090  0.0000E+00  0.0000E+00  0.6980E+03
  14.100  0.0000E+00  0.0000E+00  0.6980E+03
  14.110  0.0000E+00  0.0000E+00  0.6980E+03
  14.120  0.0000E+00  0.0000E+00  0.6980E+03
  14.130  0.0000E+00  0.0000E+00  0.6980E+03
  14.140  0.0000E+00  0.0000E+00  0.6980E+03
  14.150  0.0000E+00  0.0000E+00  0.6980E+03
  14.160  0.0000E+00  0.0000E+00  0.6980E+03
  14.170  0.0000E+00  0.0000E+00  0.6980E+03
  14.180  0.0000E+00  0.0000E+00  0.6980E+03
  14.190  0.0000E+00  0.0000E+00  0.6980E+03
  14.200  0.0000E+00  0.0000E+00  0.6980E+03
  14.210  0.0000E+00  0.0000E+00  0.6980E+03
  14.220  0.0000E+00  0.0000E+00  0.6980E+03
  14.230  0.0000E+00  0.0000E+00  0.6980E+03
  14.240  0.0000E+00  0.0000E+00  0.6980E+03
  14.250  0.0000E+00  0.0000E+00  0.6980E+03
  14.260  0.0000E+00  0.0000E+00  0.6980E+03
  14.270  0.0000E+00  0.0000E+00  0.6980E+03
  14.280  0.0000E+00  0.0000E+00  0.6980E+03
  14.290  0.0000E+00  0.0000E+00  0.6980E+03
  14.300  0.0000E+00  0.0000E+00  0.6980E+03
  14.310  0.0000E+00  0.0000E+00  0.6980E+03
  14.320  0.0000E+00  0.0000E+00  0.6980E+03
  14.330  0.0000E+00  0.0000E+00  0.6980E+03
  14.340  0.0000E+00  0.0000E+00  0.6980E+03
  14.350  0.0000E+00  0.0000E+00  0.6980E+03
  14.360  0.0000E+00  0.0000E+00  0.6980E+03
  14.370  0.0000E+00  0.0000E+00  0.6980E+03
  14.380  0.0000E+00  0.0000E+00  0.6980E+03
  14.390  0.0000E+00  0.0000E+00  0.6980E+03
  14.400  0.0000E+00  0.0000E+00  0.6980E+03
  14.410  0.0000E+00  0.0000E+00  0.6980E+03
  14.420  0.0000E+00  0.0000E+00  0.6980E+03
  14.430  0.0000E+00  0.0000E+00  0.6980E+03
  14.440  0.0000E+00  0.0000E+00  0.6980E+03
  14.450  0.0000E+00  0.0000E+00  0.6980E+03
  14.460  0.0000E+00  0.0000E+00  0.6980E+03
  14.470  0.0000E+00  0.0000E+00  0.6980E+03
  14.480  0.0000E+00  0.0000E+00  0.6980E+03
  14.490  0.0000E+00  0.0000E+00  0.6980E+03
  14.500  0.0000E+00  0.0000E+00  0.6980E+03
  14.510  0.0000E+00  0.0000E+00  0.6980E+03
  14.520  0.0000E+00  0.0000E+00  0.6980E+03
  14.530  0.0000E+00  0.0000E+00  0.6980E+03
  14.540  0.0000E+00  0.0000E+00  0.6980E+03
  14.550  0.0000E+00  0.0000E+00  0.6980E+03
  14.560  0.0000E+00  0.0000E+00  0.6980E+03
  14.570  0.0000E+00  0.0000E+00  0.6980E+03
  14.580  0.0000E+00  0.0000E+00  0.6980E+03
  14.590  0.0000E+00  0.0000E+00  0.6980E+03
  14.600  0.0000E+00  0.0000E+00  0.6980E+03
  14.610  0.0000E+00  0.0000E+00  0.6980E+03
  14.620  0.0000E+00  0.0000E+00  0.6980E+03
  14.630  0.0000E+00  0.0000E+00  0.6980E+03
  14.640  0.0000E+00  0.0000E+00  0.6980E+03
  14.650  0.0000E+00  0.0000E+00  0.6980E+03
  14.660  0.0000E+00  0.0000E+00  0.6980E+03
  14.670  0.0000E+00  0.0000E+00  0.6980E+03
  14.680  0.0000E+00  0.0000E+00  0.6980E+03
  14.690  0.0000E+00  0.0000E+00  0.6980E+03
  14.700  0.0000E+00  0.0000E+00  0.6980E+03
  14.710  0.0000E+00  0.0000E+00  0.6980E+03
  14.720  0.0000E+00  0.0000E+00  0.6980E+03
  14.730  0.0000E+00  0.0000E+00  0.6980E+03
  14.740  0.0000E+00  0.0000E+00  0.6980E+03
  14.750  0.0000E+00  0.0000E+00  0.6980E+03
  14.760  0.0000E+00  0.0000E+00  0.6980E+03
  14.770  0.0000E+00  0.0000E+00  0.6980E+03
  14.780  0.0000E+00  0.0000E+00  0.6980E+03
  14.790  0.0000E+00  0.0000E+00  0.6980E+03
  14.800  0.0000E+00  0.0000E+00  0.6980E+03
  14.810  0.0000E+00  0.0000E+00  0.6980E+03
  14.820  0.0000E+00  0.0000E+00  0.6980E+03
  14.830  0.0000E+00  0.0000E+00  0.6980E+03
  14.840  0.0000E+00  0.0000E+00  0.6980E+03
  14.850  0.0000E+00  0.0000E+00  0.6980E+03
  14.860  0.0000E+00  0.0000E+00  0.6980E+03
  14.870  0.0000E+00  0.0000E+00  0.6980E+03
  14.880  0.0000E+00  0.0000E+00  0.6980E+03
  14.890  0.0000E+00  0.0000E+00  0.6980E+03
  14.900  0.0000E+00  0.0000E+00  0.6980E+03
  14.910  0.0000E+00  0.0000E+00  0.6980E+03
  14.920  0.0000E+00  0.0000E+00  0.6980E+03
  14.930  0.0000E+00  0.0000E+00  0.6980E+03
  14.940  0.0000E+00  0.0000E+00  0.6980E+03
  14.950  0.0000E+00  0.0000E+00  0.6980E+03
  14.960  0.0000E+00  0.0000E+00  0.6980E+03
  14.970  0.0000E+00  0.0000E+00  0.6980E+03
  14.980  0.0000E+00  0.0000E+00  0.6980E+03
  14.990  0.0000E+00  0.0000E+00  0.6980E+03
  15.000  0.0000E+00  0.0000E+00  0.6980E+03
