#  E (eV)   dosup(E)     dosdw(E)   Int dos(E) EFermi =    6.908 eV
 -15.000  0.0000E+00  0.0000E+00  0.8000E+01
 -14.990  0.0000E+00  0.0000E+00  0.8000E+01
 -14.980  0.0000E+00  0.0000E+00  0.8000E+01
 -14.970  0.0000E+00  0.0000E+00  0.8000E+01
 -14.960  0.0000E+00  0.0000E+00  0.8000E+01
 -14.950  0.0000E+00  0.0000E+00  0.8000E+01
 -14.940  0.0000E+00  0.0000E+00  0.8000E+01
 -14.930  0.0000E+00  0.0000E+00  0.8000E+01
 -14.920  0.0000E+00  0.0000E+00  0.8000E+01
 -14.910  0.0000E+00  0.0000E+00  0.8000E+01
 -14.900  0.0000E+00  0.0000E+00  0.8000E+01
 -14.890  0.0000E+00  0.0000E+00  0.8000E+01
 -14.880  0.0000E+00  0.0000E+00  0.8000E+01
 -14.870  0.0000E+00  0.0000E+00  0.8000E+01
 -14.860  0.0000E+00  0.0000E+00  0.8000E+01
 -14.850  0.0000E+00  0.0000E+00  0.8000E+01
 -14.840  0.0000E+00  0.0000E+00  0.8000E+01
 -14.830  0.0000E+00  0.0000E+00  0.8000E+01
 -14.820  0.0000E+00  0.0000E+00  0.8000E+01
 -14.810  0.0000E+00  0.0000E+00  0.8000E+01
 -14.800  0.0000E+00  0.0000E+00  0.8000E+01
 -14.790  0.0000E+00  0.0000E+00  0.8000E+01
 -14.780  0.0000E+00  0.0000E+00  0.8000E+01
 -14.770  0.0000E+00  0.0000E+00  0.8000E+01
 -14.760  0.0000E+00  0.0000E+00  0.8000E+01
 -14.750  0.0000E+00  0.0000E+00  0.8000E+01
 -14.740  0.0000E+00  0.0000E+00  0.8000E+01
 -14.730  0.0000E+00  0.0000E+00  0.8000E+01
 -14.720  0.0000E+00  0.0000E+00  0.8000E+01
 -14.710  0.0000E+00  0.0000E+00  0.8000E+01
 -14.700  0.0000E+00  0.0000E+00  0.8000E+01
 -14.690  0.0000E+00  0.0000E+00  0.8000E+01
 -14.680  0.0000E+00  0.0000E+00  0.8000E+01
 -14.670  0.0000E+00  0.0000E+00  0.8000E+01
 -14.660  0.0000E+00  0.0000E+00  0.8000E+01
 -14.650  0.0000E+00  0.0000E+00  0.8000E+01
 -14.640  0.0000E+00  0.0000E+00  0.8000E+01
 -14.630  0.0000E+00  0.0000E+00  0.8000E+01
 -14.620  0.0000E+00  0.0000E+00  0.8000E+01
 -14.610  0.0000E+00  0.0000E+00  0.8000E+01
 -14.600  0.0000E+00  0.0000E+00  0.8000E+01
 -14.590  0.0000E+00  0.0000E+00  0.8000E+01
 -14.580  0.0000E+00  0.0000E+00  0.8000E+01
 -14.570  0.0000E+00  0.0000E+00  0.8000E+01
 -14.560  0.0000E+00  0.0000E+00  0.8000E+01
 -14.550  0.0000E+00  0.0000E+00  0.8000E+01
 -14.540  0.0000E+00  0.0000E+00  0.8000E+01
 -14.530  0.0000E+00  0.0000E+00  0.8000E+01
 -14.520  0.0000E+00  0.0000E+00  0.8000E+01
 -14.510  0.0000E+00  0.0000E+00  0.8000E+01
 -14.500  0.0000E+00  0.0000E+00  0.8000E+01
 -14.490  0.0000E+00  0.0000E+00  0.8000E+01
 -14.480  0.0000E+00  0.0000E+00  0.8000E+01
 -14.470  0.0000E+00  0.0000E+00  0.8000E+01
 -14.460  0.0000E+00  0.0000E+00  0.8000E+01
 -14.450  0.0000E+00  0.0000E+00  0.8000E+01
 -14.440  0.0000E+00  0.0000E+00  0.8000E+01
 -14.430  0.0000E+00  0.0000E+00  0.8000E+01
 -14.420  0.0000E+00  0.0000E+00  0.8000E+01
 -14.410  0.0000E+00  0.0000E+00  0.8000E+01
 -14.400  0.0000E+00  0.0000E+00  0.8000E+01
 -14.390  0.0000E+00  0.0000E+00  0.8000E+01
 -14.380  0.0000E+00  0.0000E+00  0.8000E+01
 -14.370  0.0000E+00  0.0000E+00  0.8000E+01
 -14.360  0.0000E+00  0.0000E+00  0.8000E+01
 -14.350  0.0000E+00  0.0000E+00  0.8000E+01
 -14.340  0.0000E+00  0.0000E+00  0.8000E+01
 -14.330  0.0000E+00  0.0000E+00  0.8000E+01
 -14.320  0.0000E+00  0.0000E+00  0.8000E+01
 -14.310  0.0000E+00  0.0000E+00  0.8000E+01
 -14.300  0.0000E+00  0.0000E+00  0.8000E+01
 -14.290  0.0000E+00  0.0000E+00  0.8000E+01
 -14.280  0.0000E+00  0.0000E+00  0.8000E+01
 -14.270  0.0000E+00  0.0000E+00  0.8000E+01
 -14.260  0.0000E+00  0.0000E+00  0.8000E+01
 -14.250  0.0000E+00  0.0000E+00  0.8000E+01
 -14.240  0.0000E+00  0.0000E+00  0.8000E+01
 -14.230  0.0000E+00  0.0000E+00  0.8000E+01
 -14.220  0.0000E+00  0.0000E+00  0.8000E+01
 -14.210  0.0000E+00  0.0000E+00  0.8000E+01
 -14.200  0.0000E+00  0.0000E+00  0.8000E+01
 -14.190  0.0000E+00  0.0000E+00  0.8000E+01
 -14.180  0.0000E+00  0.0000E+00  0.8000E+01
 -14.170  0.0000E+00  0.0000E+00  0.8000E+01
 -14.160  0.0000E+00  0.0000E+00  0.8000E+01
 -14.150  0.0000E+00  0.0000E+00  0.8000E+01
 -14.140  0.0000E+00  0.0000E+00  0.8000E+01
 -14.130  0.0000E+00  0.0000E+00  0.8000E+01
 -14.120  0.0000E+00  0.0000E+00  0.8000E+01
 -14.110  0.0000E+00  0.0000E+00  0.8000E+01
 -14.100  0.0000E+00  0.0000E+00  0.8000E+01
 -14.090  0.0000E+00  0.0000E+00  0.8000E+01
 -14.080  0.0000E+00  0.0000E+00  0.8000E+01
 -14.070  0.0000E+00  0.0000E+00  0.8000E+01
 -14.060  0.0000E+00  0.0000E+00  0.8000E+01
 -14.050  0.0000E+00  0.0000E+00  0.8000E+01
 -14.040  0.0000E+00  0.0000E+00  0.8000E+01
 -14.030  0.0000E+00  0.0000E+00  0.8000E+01
 -14.020  0.0000E+00  0.0000E+00  0.8000E+01
 -14.010  0.0000E+00  0.0000E+00  0.8000E+01
 -14.000  0.0000E+00  0.0000E+00  0.8000E+01
 -13.990  0.0000E+00  0.0000E+00  0.8000E+01
 -13.980  0.0000E+00  0.0000E+00  0.8000E+01
 -13.970  0.0000E+00  0.0000E+00  0.8000E+01
 -13.960  0.0000E+00  0.0000E+00  0.8000E+01
 -13.950  0.0000E+00  0.0000E+00  0.8000E+01
 -13.940  0.0000E+00  0.0000E+00  0.8000E+01
 -13.930  0.0000E+00  0.0000E+00  0.8000E+01
 -13.920  0.0000E+00  0.0000E+00  0.8000E+01
 -13.910  0.0000E+00  0.0000E+00  0.8000E+01
 -13.900  0.0000E+00  0.0000E+00  0.8000E+01
 -13.890  0.0000E+00  0.0000E+00  0.8000E+01
 -13.880  0.0000E+00  0.0000E+00  0.8000E+01
 -13.870  0.0000E+00  0.0000E+00  0.8000E+01
 -13.860  0.0000E+00  0.0000E+00  0.8000E+01
 -13.850  0.0000E+00  0.0000E+00  0.8000E+01
 -13.840  0.0000E+00  0.0000E+00  0.8000E+01
 -13.830  0.0000E+00  0.0000E+00  0.8000E+01
 -13.820  0.0000E+00  0.0000E+00  0.8000E+01
 -13.810  0.0000E+00  0.0000E+00  0.8000E+01
 -13.800  0.0000E+00  0.0000E+00  0.8000E+01
 -13.790  0.0000E+00  0.0000E+00  0.8000E+01
 -13.780  0.0000E+00  0.0000E+00  0.8000E+01
 -13.770  0.0000E+00  0.0000E+00  0.8000E+01
 -13.760  0.0000E+00  0.0000E+00  0.8000E+01
 -13.750  0.0000E+00  0.0000E+00  0.8000E+01
 -13.740  0.0000E+00  0.0000E+00  0.8000E+01
 -13.730  0.0000E+00  0.0000E+00  0.8000E+01
 -13.720  0.0000E+00  0.0000E+00  0.8000E+01
 -13.710  0.0000E+00  0.0000E+00  0.8000E+01
 -13.700  0.0000E+00  0.0000E+00  0.8000E+01
 -13.690  0.0000E+00  0.0000E+00  0.8000E+01
 -13.680  0.0000E+00  0.0000E+00  0.8000E+01
 -13.670  0.0000E+00  0.0000E+00  0.8000E+01
 -13.660  0.0000E+00  0.0000E+00  0.8000E+01
 -13.650  0.0000E+00  0.0000E+00  0.8000E+01
 -13.640  0.0000E+00  0.0000E+00  0.8000E+01
 -13.630  0.0000E+00  0.0000E+00  0.8000E+01
 -13.620  0.0000E+00  0.0000E+00  0.8000E+01
 -13.610  0.0000E+00  0.0000E+00  0.8000E+01
 -13.600  0.0000E+00  0.0000E+00  0.8000E+01
 -13.590  0.0000E+00  0.0000E+00  0.8000E+01
 -13.580  0.0000E+00  0.0000E+00  0.8000E+01
 -13.570  0.0000E+00  0.0000E+00  0.8000E+01
 -13.560  0.0000E+00  0.0000E+00  0.8000E+01
 -13.550  0.0000E+00  0.0000E+00  0.8000E+01
 -13.540  0.0000E+00  0.0000E+00  0.8000E+01
 -13.530  0.0000E+00  0.0000E+00  0.8000E+01
 -13.520  0.0000E+00  0.0000E+00  0.8000E+01
 -13.510  0.0000E+00  0.0000E+00  0.8000E+01
 -13.500  0.0000E+00  0.0000E+00  0.8000E+01
 -13.490  0.0000E+00  0.0000E+00  0.8000E+01
 -13.480  0.0000E+00  0.0000E+00  0.8000E+01
 -13.470  0.0000E+00  0.0000E+00  0.8000E+01
 -13.460  0.0000E+00  0.0000E+00  0.8000E+01
 -13.450  0.0000E+00  0.0000E+00  0.8000E+01
 -13.440  0.0000E+00  0.0000E+00  0.8000E+01
 -13.430  0.0000E+00  0.0000E+00  0.8000E+01
 -13.420  0.0000E+00  0.0000E+00  0.8000E+01
 -13.410  0.0000E+00  0.0000E+00  0.8000E+01
 -13.400  0.0000E+00  0.0000E+00  0.8000E+01
 -13.390  0.0000E+00  0.0000E+00  0.8000E+01
 -13.380  0.0000E+00  0.0000E+00  0.8000E+01
 -13.370  0.0000E+00  0.0000E+00  0.8000E+01
 -13.360  0.0000E+00  0.0000E+00  0.8000E+01
 -13.350  0.0000E+00  0.0000E+00  0.8000E+01
 -13.340  0.0000E+00  0.0000E+00  0.8000E+01
 -13.330  0.0000E+00  0.0000E+00  0.8000E+01
 -13.320  0.0000E+00  0.0000E+00  0.8000E+01
 -13.310  0.0000E+00  0.0000E+00  0.8000E+01
 -13.300  0.0000E+00  0.0000E+00  0.8000E+01
 -13.290  0.0000E+00  0.0000E+00  0.8000E+01
 -13.280  0.0000E+00  0.0000E+00  0.8000E+01
 -13.270  0.0000E+00  0.0000E+00  0.8000E+01
 -13.260  0.0000E+00  0.0000E+00  0.8000E+01
 -13.250  0.0000E+00  0.0000E+00  0.8000E+01
 -13.240  0.0000E+00  0.0000E+00  0.8000E+01
 -13.230  0.0000E+00  0.0000E+00  0.8000E+01
 -13.220  0.0000E+00  0.0000E+00  0.8000E+01
 -13.210  0.0000E+00  0.0000E+00  0.8000E+01
 -13.200  0.0000E+00  0.0000E+00  0.8000E+01
 -13.190  0.0000E+00  0.0000E+00  0.8000E+01
 -13.180  0.0000E+00  0.0000E+00  0.8000E+01
 -13.170  0.0000E+00  0.0000E+00  0.8000E+01
 -13.160  0.0000E+00  0.0000E+00  0.8000E+01
 -13.150  0.0000E+00  0.0000E+00  0.8000E+01
 -13.140  0.0000E+00  0.0000E+00  0.8000E+01
 -13.130  0.0000E+00  0.0000E+00  0.8000E+01
 -13.120  0.0000E+00  0.0000E+00  0.8000E+01
 -13.110  0.0000E+00  0.0000E+00  0.8000E+01
 -13.100  0.0000E+00  0.0000E+00  0.8000E+01
 -13.090  0.0000E+00  0.0000E+00  0.8000E+01
 -13.080  0.0000E+00  0.0000E+00  0.8000E+01
 -13.070  0.0000E+00  0.0000E+00  0.8000E+01
 -13.060  0.0000E+00  0.0000E+00  0.8000E+01
 -13.050  0.0000E+00  0.0000E+00  0.8000E+01
 -13.040  0.0000E+00  0.0000E+00  0.8000E+01
 -13.030  0.0000E+00  0.0000E+00  0.8000E+01
 -13.020  0.0000E+00  0.0000E+00  0.8000E+01
 -13.010  0.0000E+00  0.0000E+00  0.8000E+01
 -13.000  0.0000E+00  0.0000E+00  0.8000E+01
 -12.990  0.0000E+00  0.0000E+00  0.8000E+01
 -12.980  0.0000E+00  0.0000E+00  0.8000E+01
 -12.970  0.0000E+00  0.0000E+00  0.8000E+01
 -12.960  0.0000E+00  0.0000E+00  0.8000E+01
 -12.950  0.0000E+00  0.0000E+00  0.8000E+01
 -12.940  0.0000E+00  0.0000E+00  0.8000E+01
 -12.930  0.0000E+00  0.0000E+00  0.8000E+01
 -12.920  0.0000E+00  0.0000E+00  0.8000E+01
 -12.910  0.0000E+00  0.0000E+00  0.8000E+01
 -12.900  0.0000E+00  0.0000E+00  0.8000E+01
 -12.890  0.0000E+00  0.0000E+00  0.8000E+01
 -12.880  0.0000E+00  0.0000E+00  0.8000E+01
 -12.870  0.0000E+00  0.0000E+00  0.8000E+01
 -12.860  0.0000E+00  0.0000E+00  0.8000E+01
 -12.850  0.0000E+00  0.0000E+00  0.8000E+01
 -12.840  0.0000E+00  0.0000E+00  0.8000E+01
 -12.830  0.0000E+00  0.0000E+00  0.8000E+01
 -12.820  0.0000E+00  0.0000E+00  0.8000E+01
 -12.810  0.0000E+00  0.0000E+00  0.8000E+01
 -12.800  0.0000E+00  0.0000E+00  0.8000E+01
 -12.790  0.0000E+00  0.0000E+00  0.8000E+01
 -12.780  0.0000E+00  0.0000E+00  0.8000E+01
 -12.770  0.0000E+00  0.0000E+00  0.8000E+01
 -12.760  0.0000E+00  0.0000E+00  0.8000E+01
 -12.750  0.0000E+00  0.0000E+00  0.8000E+01
 -12.740  0.0000E+00  0.0000E+00  0.8000E+01
 -12.730  0.0000E+00  0.0000E+00  0.8000E+01
 -12.720  0.0000E+00  0.0000E+00  0.8000E+01
 -12.710  0.0000E+00  0.0000E+00  0.8000E+01
 -12.700  0.0000E+00  0.0000E+00  0.8000E+01
 -12.690  0.0000E+00  0.0000E+00  0.8000E+01
 -12.680  0.0000E+00  0.0000E+00  0.8000E+01
 -12.670  0.0000E+00  0.0000E+00  0.8000E+01
 -12.660  0.0000E+00  0.0000E+00  0.8000E+01
 -12.650  0.0000E+00  0.0000E+00  0.8000E+01
 -12.640  0.0000E+00  0.0000E+00  0.8000E+01
 -12.630  0.0000E+00  0.0000E+00  0.8000E+01
 -12.620  0.0000E+00  0.0000E+00  0.8000E+01
 -12.610  0.0000E+00  0.0000E+00  0.8000E+01
 -12.600  0.0000E+00  0.0000E+00  0.8000E+01
 -12.590  0.0000E+00  0.0000E+00  0.8000E+01
 -12.580  0.0000E+00  0.0000E+00  0.8000E+01
 -12.570  0.0000E+00  0.0000E+00  0.8000E+01
 -12.560  0.0000E+00  0.0000E+00  0.8000E+01
 -12.550  0.0000E+00  0.0000E+00  0.8000E+01
 -12.540  0.0000E+00  0.0000E+00  0.8000E+01
 -12.530  0.0000E+00  0.0000E+00  0.8000E+01
 -12.520  0.0000E+00  0.0000E+00  0.8000E+01
 -12.510  0.0000E+00  0.0000E+00  0.8000E+01
 -12.500  0.0000E+00  0.0000E+00  0.8000E+01
 -12.490  0.0000E+00  0.0000E+00  0.8000E+01
 -12.480  0.0000E+00  0.0000E+00  0.8000E+01
 -12.470  0.0000E+00  0.0000E+00  0.8000E+01
 -12.460  0.0000E+00  0.0000E+00  0.8000E+01
 -12.450  0.0000E+00  0.0000E+00  0.8000E+01
 -12.440  0.0000E+00  0.0000E+00  0.8000E+01
 -12.430  0.0000E+00  0.0000E+00  0.8000E+01
 -12.420  0.0000E+00  0.0000E+00  0.8000E+01
 -12.410  0.0000E+00  0.0000E+00  0.8000E+01
 -12.400  0.0000E+00  0.0000E+00  0.8000E+01
 -12.390  0.0000E+00  0.0000E+00  0.8000E+01
 -12.380  0.0000E+00  0.0000E+00  0.8000E+01
 -12.370  0.0000E+00  0.0000E+00  0.8000E+01
 -12.360  0.0000E+00  0.0000E+00  0.8000E+01
 -12.350  0.0000E+00  0.0000E+00  0.8000E+01
 -12.340  0.0000E+00  0.0000E+00  0.8000E+01
 -12.330  0.0000E+00  0.0000E+00  0.8000E+01
 -12.320  0.0000E+00  0.0000E+00  0.8000E+01
 -12.310  0.0000E+00  0.0000E+00  0.8000E+01
 -12.300  0.0000E+00  0.0000E+00  0.8000E+01
 -12.290  0.0000E+00  0.0000E+00  0.8000E+01
 -12.280  0.0000E+00  0.0000E+00  0.8000E+01
 -12.270  0.0000E+00  0.0000E+00  0.8000E+01
 -12.260  0.0000E+00  0.0000E+00  0.8000E+01
 -12.250  0.0000E+00  0.0000E+00  0.8000E+01
 -12.240  0.0000E+00  0.0000E+00  0.8000E+01
 -12.230  0.0000E+00  0.0000E+00  0.8000E+01
 -12.220  0.0000E+00  0.0000E+00  0.8000E+01
 -12.210  0.0000E+00  0.0000E+00  0.8000E+01
 -12.200  0.0000E+00  0.0000E+00  0.8000E+01
 -12.190  0.0000E+00  0.0000E+00  0.8000E+01
 -12.180  0.0000E+00  0.0000E+00  0.8000E+01
 -12.170  0.0000E+00  0.0000E+00  0.8000E+01
 -12.160  0.0000E+00  0.0000E+00  0.8000E+01
 -12.150  0.0000E+00  0.0000E+00  0.8000E+01
 -12.140  0.0000E+00  0.0000E+00  0.8000E+01
 -12.130  0.0000E+00  0.0000E+00  0.8000E+01
 -12.120  0.0000E+00  0.0000E+00  0.8000E+01
 -12.110  0.0000E+00  0.0000E+00  0.8000E+01
 -12.100  0.0000E+00  0.0000E+00  0.8000E+01
 -12.090  0.0000E+00  0.0000E+00  0.8000E+01
 -12.080  0.0000E+00  0.0000E+00  0.8000E+01
 -12.070  0.0000E+00  0.0000E+00  0.8000E+01
 -12.060  0.0000E+00  0.0000E+00  0.8000E+01
 -12.050  0.0000E+00  0.0000E+00  0.8000E+01
 -12.040  0.0000E+00  0.0000E+00  0.8000E+01
 -12.030  0.0000E+00  0.0000E+00  0.8000E+01
 -12.020  0.0000E+00  0.0000E+00  0.8000E+01
 -12.010  0.0000E+00  0.0000E+00  0.8000E+01
 -12.000  0.0000E+00  0.0000E+00  0.8000E+01
 -11.990  0.0000E+00  0.0000E+00  0.8000E+01
 -11.980  0.0000E+00  0.0000E+00  0.8000E+01
 -11.970  0.0000E+00  0.0000E+00  0.8000E+01
 -11.960  0.0000E+00  0.0000E+00  0.8000E+01
 -11.950  0.0000E+00  0.0000E+00  0.8000E+01
 -11.940  0.0000E+00  0.0000E+00  0.8000E+01
 -11.930  0.0000E+00  0.0000E+00  0.8000E+01
 -11.920  0.0000E+00  0.0000E+00  0.8000E+01
 -11.910  0.0000E+00  0.0000E+00  0.8000E+01
 -11.900  0.0000E+00  0.0000E+00  0.8000E+01
 -11.890  0.0000E+00  0.0000E+00  0.8000E+01
 -11.880  0.0000E+00  0.0000E+00  0.8000E+01
 -11.870  0.0000E+00  0.0000E+00  0.8000E+01
 -11.860  0.0000E+00  0.0000E+00  0.8000E+01
 -11.850  0.0000E+00  0.0000E+00  0.8000E+01
 -11.840  0.0000E+00  0.0000E+00  0.8000E+01
 -11.830  0.0000E+00  0.0000E+00  0.8000E+01
 -11.820  0.0000E+00  0.0000E+00  0.8000E+01
 -11.810  0.0000E+00  0.0000E+00  0.8000E+01
 -11.800  0.0000E+00  0.0000E+00  0.8000E+01
 -11.790  0.0000E+00  0.0000E+00  0.8000E+01
 -11.780  0.0000E+00  0.0000E+00  0.8000E+01
 -11.770  0.0000E+00  0.0000E+00  0.8000E+01
 -11.760  0.0000E+00  0.0000E+00  0.8000E+01
 -11.750  0.0000E+00  0.0000E+00  0.8000E+01
 -11.740  0.0000E+00  0.0000E+00  0.8000E+01
 -11.730  0.0000E+00  0.0000E+00  0.8000E+01
 -11.720  0.0000E+00  0.0000E+00  0.8000E+01
 -11.710  0.0000E+00  0.0000E+00  0.8000E+01
 -11.700  0.0000E+00  0.0000E+00  0.8000E+01
 -11.690  0.0000E+00  0.0000E+00  0.8000E+01
 -11.680  0.0000E+00  0.0000E+00  0.8000E+01
 -11.670  0.0000E+00  0.0000E+00  0.8000E+01
 -11.660  0.0000E+00  0.0000E+00  0.8000E+01
 -11.650  0.0000E+00  0.0000E+00  0.8000E+01
 -11.640  0.0000E+00  0.0000E+00  0.8000E+01
 -11.630  0.0000E+00  0.0000E+00  0.8000E+01
 -11.620  0.0000E+00  0.0000E+00  0.8000E+01
 -11.610  0.0000E+00  0.0000E+00  0.8000E+01
 -11.600  0.0000E+00  0.0000E+00  0.8000E+01
 -11.590  0.0000E+00  0.0000E+00  0.8000E+01
 -11.580  0.0000E+00  0.0000E+00  0.8000E+01
 -11.570  0.0000E+00  0.0000E+00  0.8000E+01
 -11.560  0.0000E+00  0.0000E+00  0.8000E+01
 -11.550  0.0000E+00  0.0000E+00  0.8000E+01
 -11.540  0.0000E+00  0.0000E+00  0.8000E+01
 -11.530  0.0000E+00  0.0000E+00  0.8000E+01
 -11.520  0.0000E+00  0.0000E+00  0.8000E+01
 -11.510  0.0000E+00  0.0000E+00  0.8000E+01
 -11.500  0.0000E+00  0.0000E+00  0.8000E+01
 -11.490  0.0000E+00  0.0000E+00  0.8000E+01
 -11.480  0.0000E+00  0.0000E+00  0.8000E+01
 -11.470  0.0000E+00  0.0000E+00  0.8000E+01
 -11.460  0.0000E+00  0.0000E+00  0.8000E+01
 -11.450  0.0000E+00  0.0000E+00  0.8000E+01
 -11.440  0.0000E+00  0.0000E+00  0.8000E+01
 -11.430  0.0000E+00  0.0000E+00  0.8000E+01
 -11.420  0.0000E+00  0.0000E+00  0.8000E+01
 -11.410  0.0000E+00  0.0000E+00  0.8000E+01
 -11.400  0.0000E+00  0.0000E+00  0.8000E+01
 -11.390  0.0000E+00  0.0000E+00  0.8000E+01
 -11.380  0.0000E+00  0.0000E+00  0.8000E+01
 -11.370  0.0000E+00  0.0000E+00  0.8000E+01
 -11.360  0.0000E+00  0.0000E+00  0.8000E+01
 -11.350  0.0000E+00  0.0000E+00  0.8000E+01
 -11.340  0.0000E+00  0.0000E+00  0.8000E+01
 -11.330  0.0000E+00  0.0000E+00  0.8000E+01
 -11.320  0.0000E+00  0.0000E+00  0.8000E+01
 -11.310  0.0000E+00  0.0000E+00  0.8000E+01
 -11.300  0.0000E+00  0.0000E+00  0.8000E+01
 -11.290  0.0000E+00  0.0000E+00  0.8000E+01
 -11.280  0.0000E+00  0.0000E+00  0.8000E+01
 -11.270  0.0000E+00  0.0000E+00  0.8000E+01
 -11.260  0.0000E+00  0.0000E+00  0.8000E+01
 -11.250  0.0000E+00  0.0000E+00  0.8000E+01
 -11.240  0.0000E+00  0.0000E+00  0.8000E+01
 -11.230  0.0000E+00  0.0000E+00  0.8000E+01
 -11.220  0.0000E+00  0.0000E+00  0.8000E+01
 -11.210  0.0000E+00  0.0000E+00  0.8000E+01
 -11.200  0.0000E+00  0.0000E+00  0.8000E+01
 -11.190  0.0000E+00  0.0000E+00  0.8000E+01
 -11.180  0.0000E+00  0.0000E+00  0.8000E+01
 -11.170  0.0000E+00  0.0000E+00  0.8000E+01
 -11.160  0.0000E+00  0.0000E+00  0.8000E+01
 -11.150  0.0000E+00  0.0000E+00  0.8000E+01
 -11.140  0.0000E+00  0.0000E+00  0.8000E+01
 -11.130  0.0000E+00  0.0000E+00  0.8000E+01
 -11.120  0.0000E+00  0.0000E+00  0.8000E+01
 -11.110  0.0000E+00  0.0000E+00  0.8000E+01
 -11.100  0.0000E+00  0.0000E+00  0.8000E+01
 -11.090  0.0000E+00  0.0000E+00  0.8000E+01
 -11.080  0.0000E+00  0.0000E+00  0.8000E+01
 -11.070  0.0000E+00  0.0000E+00  0.8000E+01
 -11.060  0.0000E+00  0.0000E+00  0.8000E+01
 -11.050  0.0000E+00  0.0000E+00  0.8000E+01
 -11.040  0.0000E+00  0.0000E+00  0.8000E+01
 -11.030  0.0000E+00  0.0000E+00  0.8000E+01
 -11.020  0.0000E+00  0.0000E+00  0.8000E+01
 -11.010  0.0000E+00  0.0000E+00  0.8000E+01
 -11.000  0.0000E+00  0.0000E+00  0.8000E+01
 -10.990  0.0000E+00  0.0000E+00  0.8000E+01
 -10.980  0.0000E+00  0.0000E+00  0.8000E+01
 -10.970  0.0000E+00  0.0000E+00  0.8000E+01
 -10.960  0.0000E+00  0.0000E+00  0.8000E+01
 -10.950  0.0000E+00  0.0000E+00  0.8000E+01
 -10.940  0.0000E+00  0.0000E+00  0.8000E+01
 -10.930  0.0000E+00  0.0000E+00  0.8000E+01
 -10.920  0.0000E+00  0.0000E+00  0.8000E+01
 -10.910  0.0000E+00  0.0000E+00  0.8000E+01
 -10.900  0.0000E+00  0.0000E+00  0.8000E+01
 -10.890  0.0000E+00  0.0000E+00  0.8000E+01
 -10.880  0.0000E+00  0.0000E+00  0.8000E+01
 -10.870  0.0000E+00  0.0000E+00  0.8000E+01
 -10.860  0.0000E+00  0.0000E+00  0.8000E+01
 -10.850  0.0000E+00  0.0000E+00  0.8000E+01
 -10.840  0.0000E+00  0.0000E+00  0.8000E+01
 -10.830  0.0000E+00  0.0000E+00  0.8000E+01
 -10.820  0.0000E+00  0.0000E+00  0.8000E+01
 -10.810  0.0000E+00  0.0000E+00  0.8000E+01
 -10.800  0.0000E+00  0.0000E+00  0.8000E+01
 -10.790  0.0000E+00  0.0000E+00  0.8000E+01
 -10.780  0.0000E+00  0.0000E+00  0.8000E+01
 -10.770  0.0000E+00  0.0000E+00  0.8000E+01
 -10.760  0.0000E+00  0.0000E+00  0.8000E+01
 -10.750  0.0000E+00  0.0000E+00  0.8000E+01
 -10.740  0.0000E+00  0.0000E+00  0.8000E+01
 -10.730  0.0000E+00  0.0000E+00  0.8000E+01
 -10.720  0.0000E+00  0.0000E+00  0.8000E+01
 -10.710  0.0000E+00  0.0000E+00  0.8000E+01
 -10.700  0.0000E+00  0.0000E+00  0.8000E+01
 -10.690  0.0000E+00  0.0000E+00  0.8000E+01
 -10.680  0.0000E+00  0.0000E+00  0.8000E+01
 -10.670  0.0000E+00  0.0000E+00  0.8000E+01
 -10.660  0.0000E+00  0.0000E+00  0.8000E+01
 -10.650  0.0000E+00  0.0000E+00  0.8000E+01
 -10.640  0.0000E+00  0.0000E+00  0.8000E+01
 -10.630  0.0000E+00  0.0000E+00  0.8000E+01
 -10.620  0.0000E+00  0.0000E+00  0.8000E+01
 -10.610  0.0000E+00  0.0000E+00  0.8000E+01
 -10.600  0.0000E+00  0.0000E+00  0.8000E+01
 -10.590  0.0000E+00  0.0000E+00  0.8000E+01
 -10.580  0.0000E+00  0.0000E+00  0.8000E+01
 -10.570  0.0000E+00  0.0000E+00  0.8000E+01
 -10.560  0.0000E+00  0.0000E+00  0.8000E+01
 -10.550  0.0000E+00  0.0000E+00  0.8000E+01
 -10.540  0.0000E+00  0.0000E+00  0.8000E+01
 -10.530  0.0000E+00  0.0000E+00  0.8000E+01
 -10.520  0.0000E+00  0.0000E+00  0.8000E+01
 -10.510  0.0000E+00  0.0000E+00  0.8000E+01
 -10.500  0.0000E+00  0.0000E+00  0.8000E+01
 -10.490  0.0000E+00  0.0000E+00  0.8000E+01
 -10.480  0.0000E+00  0.0000E+00  0.8000E+01
 -10.470  0.0000E+00  0.0000E+00  0.8000E+01
 -10.460  0.0000E+00  0.0000E+00  0.8000E+01
 -10.450  0.0000E+00  0.0000E+00  0.8000E+01
 -10.440  0.0000E+00  0.0000E+00  0.8000E+01
 -10.430  0.0000E+00  0.0000E+00  0.8000E+01
 -10.420  0.0000E+00  0.0000E+00  0.8000E+01
 -10.410  0.0000E+00  0.0000E+00  0.8000E+01
 -10.400  0.0000E+00  0.0000E+00  0.8000E+01
 -10.390  0.0000E+00  0.0000E+00  0.8000E+01
 -10.380  0.0000E+00  0.0000E+00  0.8000E+01
 -10.370  0.0000E+00  0.0000E+00  0.8000E+01
 -10.360  0.0000E+00  0.0000E+00  0.8000E+01
 -10.350  0.0000E+00  0.0000E+00  0.8000E+01
 -10.340  0.0000E+00  0.0000E+00  0.8000E+01
 -10.330  0.0000E+00  0.0000E+00  0.8000E+01
 -10.320  0.0000E+00  0.0000E+00  0.8000E+01
 -10.310  0.0000E+00  0.0000E+00  0.8000E+01
 -10.300  0.0000E+00  0.0000E+00  0.8000E+01
 -10.290  0.0000E+00  0.0000E+00  0.8000E+01
 -10.280  0.0000E+00  0.0000E+00  0.8000E+01
 -10.270  0.0000E+00  0.0000E+00  0.8000E+01
 -10.260  0.0000E+00  0.0000E+00  0.8000E+01
 -10.250  0.0000E+00  0.0000E+00  0.8000E+01
 -10.240  0.0000E+00  0.0000E+00  0.8000E+01
 -10.230  0.0000E+00  0.0000E+00  0.8000E+01
 -10.220  0.0000E+00  0.0000E+00  0.8000E+01
 -10.210  0.0000E+00  0.0000E+00  0.8000E+01
 -10.200  0.0000E+00  0.0000E+00  0.8000E+01
 -10.190  0.0000E+00  0.0000E+00  0.8000E+01
 -10.180  0.0000E+00  0.0000E+00  0.8000E+01
 -10.170  0.0000E+00  0.0000E+00  0.8000E+01
 -10.160  0.0000E+00  0.0000E+00  0.8000E+01
 -10.150  0.0000E+00  0.0000E+00  0.8000E+01
 -10.140  0.0000E+00  0.0000E+00  0.8000E+01
 -10.130  0.0000E+00  0.0000E+00  0.8000E+01
 -10.120  0.0000E+00  0.0000E+00  0.8000E+01
 -10.110  0.0000E+00  0.0000E+00  0.8000E+01
 -10.100  0.0000E+00  0.0000E+00  0.8000E+01
 -10.090  0.0000E+00  0.0000E+00  0.8000E+01
 -10.080  0.0000E+00  0.0000E+00  0.8000E+01
 -10.070  0.0000E+00  0.0000E+00  0.8000E+01
 -10.060  0.0000E+00  0.0000E+00  0.8000E+01
 -10.050  0.0000E+00  0.0000E+00  0.8000E+01
 -10.040  0.0000E+00  0.0000E+00  0.8000E+01
 -10.030  0.0000E+00  0.0000E+00  0.8000E+01
 -10.020  0.0000E+00  0.0000E+00  0.8000E+01
 -10.010  0.0000E+00  0.0000E+00  0.8000E+01
 -10.000  0.0000E+00  0.0000E+00  0.8000E+01
  -9.990  0.0000E+00  0.0000E+00  0.8000E+01
  -9.980  0.0000E+00  0.0000E+00  0.8000E+01
  -9.970  0.0000E+00  0.0000E+00  0.8000E+01
  -9.960  0.0000E+00  0.0000E+00  0.8000E+01
  -9.950  0.0000E+00  0.0000E+00  0.8000E+01
  -9.940  0.0000E+00  0.0000E+00  0.8000E+01
  -9.930  0.0000E+00  0.0000E+00  0.8000E+01
  -9.920  0.0000E+00  0.0000E+00  0.8000E+01
  -9.910  0.0000E+00  0.0000E+00  0.8000E+01
  -9.900  0.0000E+00  0.0000E+00  0.8000E+01
  -9.890  0.0000E+00  0.0000E+00  0.8000E+01
  -9.880  0.0000E+00  0.0000E+00  0.8000E+01
  -9.870  0.0000E+00  0.0000E+00  0.8000E+01
  -9.860  0.0000E+00  0.0000E+00  0.8000E+01
  -9.850  0.0000E+00  0.0000E+00  0.8000E+01
  -9.840  0.0000E+00  0.0000E+00  0.8000E+01
  -9.830  0.0000E+00  0.0000E+00  0.8000E+01
  -9.820  0.0000E+00  0.0000E+00  0.8000E+01
  -9.810  0.0000E+00  0.0000E+00  0.8000E+01
  -9.800  0.0000E+00  0.0000E+00  0.8000E+01
  -9.790  0.0000E+00  0.0000E+00  0.8000E+01
  -9.780  0.0000E+00  0.0000E+00  0.8000E+01
  -9.770  0.0000E+00  0.0000E+00  0.8000E+01
  -9.760  0.0000E+00  0.0000E+00  0.8000E+01
  -9.750  0.0000E+00  0.0000E+00  0.8000E+01
  -9.740  0.0000E+00  0.0000E+00  0.8000E+01
  -9.730  0.0000E+00  0.0000E+00  0.8000E+01
  -9.720  0.0000E+00  0.0000E+00  0.8000E+01
  -9.710  0.0000E+00  0.0000E+00  0.8000E+01
  -9.700  0.0000E+00  0.0000E+00  0.8000E+01
  -9.690  0.0000E+00  0.0000E+00  0.8000E+01
  -9.680  0.0000E+00  0.0000E+00  0.8000E+01
  -9.670  0.0000E+00  0.0000E+00  0.8000E+01
  -9.660  0.0000E+00  0.0000E+00  0.8000E+01
  -9.650  0.0000E+00  0.0000E+00  0.8000E+01
  -9.640  0.0000E+00  0.0000E+00  0.8000E+01
  -9.630  0.0000E+00  0.0000E+00  0.8000E+01
  -9.620  0.0000E+00  0.0000E+00  0.8000E+01
  -9.610  0.0000E+00  0.0000E+00  0.8000E+01
  -9.600  0.0000E+00  0.0000E+00  0.8000E+01
  -9.590  0.0000E+00  0.0000E+00  0.8000E+01
  -9.580  0.0000E+00  0.0000E+00  0.8000E+01
  -9.570  0.0000E+00  0.0000E+00  0.8000E+01
  -9.560  0.0000E+00  0.0000E+00  0.8000E+01
  -9.550  0.0000E+00  0.0000E+00  0.8000E+01
  -9.540  0.0000E+00  0.0000E+00  0.8000E+01
  -9.530  0.0000E+00  0.0000E+00  0.8000E+01
  -9.520  0.0000E+00  0.0000E+00  0.8000E+01
  -9.510  0.0000E+00  0.0000E+00  0.8000E+01
  -9.500  0.0000E+00  0.0000E+00  0.8000E+01
  -9.490  0.0000E+00  0.0000E+00  0.8000E+01
  -9.480  0.0000E+00  0.0000E+00  0.8000E+01
  -9.470  0.0000E+00  0.0000E+00  0.8000E+01
  -9.460  0.0000E+00  0.0000E+00  0.8000E+01
  -9.450  0.0000E+00  0.0000E+00  0.8000E+01
  -9.440  0.0000E+00  0.0000E+00  0.8000E+01
  -9.430  0.0000E+00  0.0000E+00  0.8000E+01
  -9.420  0.0000E+00  0.0000E+00  0.8000E+01
  -9.410  0.0000E+00  0.0000E+00  0.8000E+01
  -9.400  0.0000E+00  0.0000E+00  0.8000E+01
  -9.390  0.0000E+00  0.0000E+00  0.8000E+01
  -9.380  0.0000E+00  0.0000E+00  0.8000E+01
  -9.370  0.0000E+00  0.0000E+00  0.8000E+01
  -9.360  0.0000E+00  0.0000E+00  0.8000E+01
  -9.350  0.0000E+00  0.0000E+00  0.8000E+01
  -9.340  0.0000E+00  0.0000E+00  0.8000E+01
  -9.330  0.0000E+00  0.0000E+00  0.8000E+01
  -9.320  0.0000E+00  0.0000E+00  0.8000E+01
  -9.310  0.0000E+00  0.0000E+00  0.8000E+01
  -9.300  0.0000E+00  0.0000E+00  0.8000E+01
  -9.290  0.0000E+00  0.0000E+00  0.8000E+01
  -9.280  0.0000E+00  0.0000E+00  0.8000E+01
  -9.270  0.0000E+00  0.0000E+00  0.8000E+01
  -9.260  0.0000E+00  0.0000E+00  0.8000E+01
  -9.250  0.0000E+00  0.0000E+00  0.8000E+01
  -9.240  0.0000E+00  0.0000E+00  0.8000E+01
  -9.230  0.0000E+00  0.0000E+00  0.8000E+01
  -9.220  0.0000E+00  0.0000E+00  0.8000E+01
  -9.210  0.0000E+00  0.0000E+00  0.8000E+01
  -9.200  0.0000E+00  0.0000E+00  0.8000E+01
  -9.190  0.0000E+00  0.0000E+00  0.8000E+01
  -9.180  0.0000E+00  0.0000E+00  0.8000E+01
  -9.170  0.0000E+00  0.0000E+00  0.8000E+01
  -9.160  0.0000E+00  0.0000E+00  0.8000E+01
  -9.150  0.0000E+00  0.0000E+00  0.8000E+01
  -9.140  0.0000E+00  0.0000E+00  0.8000E+01
  -9.130  0.0000E+00  0.0000E+00  0.8000E+01
  -9.120  0.0000E+00  0.0000E+00  0.8000E+01
  -9.110  0.0000E+00  0.0000E+00  0.8000E+01
  -9.100  0.0000E+00  0.0000E+00  0.8000E+01
  -9.090  0.0000E+00  0.0000E+00  0.8000E+01
  -9.080  0.0000E+00  0.0000E+00  0.8000E+01
  -9.070  0.0000E+00  0.0000E+00  0.8000E+01
  -9.060  0.0000E+00  0.0000E+00  0.8000E+01
  -9.050  0.0000E+00  0.0000E+00  0.8000E+01
  -9.040  0.0000E+00  0.0000E+00  0.8000E+01
  -9.030  0.0000E+00  0.0000E+00  0.8000E+01
  -9.020  0.0000E+00  0.0000E+00  0.8000E+01
  -9.010  0.0000E+00  0.0000E+00  0.8000E+01
  -9.000  0.0000E+00  0.0000E+00  0.8000E+01
  -8.990  0.0000E+00  0.0000E+00  0.8000E+01
  -8.980  0.0000E+00  0.0000E+00  0.8000E+01
  -8.970  0.0000E+00  0.0000E+00  0.8000E+01
  -8.960  0.0000E+00  0.0000E+00  0.8000E+01
  -8.950  0.0000E+00  0.0000E+00  0.8000E+01
  -8.940  0.0000E+00  0.0000E+00  0.8000E+01
  -8.930  0.0000E+00  0.0000E+00  0.8000E+01
  -8.920  0.0000E+00  0.0000E+00  0.8000E+01
  -8.910  0.0000E+00  0.0000E+00  0.8000E+01
  -8.900  0.0000E+00  0.0000E+00  0.8000E+01
  -8.890  0.0000E+00  0.0000E+00  0.8000E+01
  -8.880  0.0000E+00  0.0000E+00  0.8000E+01
  -8.870  0.0000E+00  0.0000E+00  0.8000E+01
  -8.860  0.0000E+00  0.0000E+00  0.8000E+01
  -8.850  0.0000E+00  0.0000E+00  0.8000E+01
  -8.840  0.0000E+00  0.0000E+00  0.8000E+01
  -8.830  0.0000E+00  0.0000E+00  0.8000E+01
  -8.820  0.0000E+00  0.0000E+00  0.8000E+01
  -8.810  0.0000E+00  0.0000E+00  0.8000E+01
  -8.800  0.0000E+00  0.0000E+00  0.8000E+01
  -8.790  0.0000E+00  0.0000E+00  0.8000E+01
  -8.780  0.0000E+00  0.0000E+00  0.8000E+01
  -8.770  0.0000E+00  0.0000E+00  0.8000E+01
  -8.760  0.0000E+00  0.0000E+00  0.8000E+01
  -8.750  0.0000E+00  0.0000E+00  0.8000E+01
  -8.740  0.0000E+00  0.0000E+00  0.8000E+01
  -8.730  0.0000E+00  0.0000E+00  0.8000E+01
  -8.720  0.0000E+00  0.0000E+00  0.8000E+01
  -8.710  0.0000E+00  0.0000E+00  0.8000E+01
  -8.700  0.0000E+00  0.0000E+00  0.8000E+01
  -8.690  0.0000E+00  0.0000E+00  0.8000E+01
  -8.680  0.0000E+00  0.0000E+00  0.8000E+01
  -8.670  0.0000E+00  0.0000E+00  0.8000E+01
  -8.660  0.0000E+00  0.0000E+00  0.8000E+01
  -8.650  0.0000E+00  0.0000E+00  0.8000E+01
  -8.640  0.0000E+00  0.0000E+00  0.8000E+01
  -8.630  0.0000E+00  0.0000E+00  0.8000E+01
  -8.620  0.0000E+00  0.0000E+00  0.8000E+01
  -8.610  0.0000E+00  0.0000E+00  0.8000E+01
  -8.600  0.0000E+00  0.0000E+00  0.8000E+01
  -8.590  0.0000E+00  0.0000E+00  0.8000E+01
  -8.580  0.0000E+00  0.0000E+00  0.8000E+01
  -8.570  0.0000E+00  0.0000E+00  0.8000E+01
  -8.560  0.0000E+00  0.0000E+00  0.8000E+01
  -8.550  0.0000E+00  0.0000E+00  0.8000E+01
  -8.540  0.0000E+00  0.0000E+00  0.8000E+01
  -8.530  0.0000E+00  0.0000E+00  0.8000E+01
  -8.520  0.0000E+00  0.0000E+00  0.8000E+01
  -8.510  0.0000E+00  0.0000E+00  0.8000E+01
  -8.500  0.0000E+00  0.0000E+00  0.8000E+01
  -8.490  0.0000E+00  0.0000E+00  0.8000E+01
  -8.480  0.0000E+00  0.0000E+00  0.8000E+01
  -8.470  0.0000E+00  0.0000E+00  0.8000E+01
  -8.460  0.0000E+00  0.0000E+00  0.8000E+01
  -8.450  0.0000E+00  0.0000E+00  0.8000E+01
  -8.440  0.0000E+00  0.0000E+00  0.8000E+01
  -8.430  0.0000E+00  0.0000E+00  0.8000E+01
  -8.420  0.0000E+00  0.0000E+00  0.8000E+01
  -8.410  0.0000E+00  0.0000E+00  0.8000E+01
  -8.400  0.0000E+00  0.0000E+00  0.8000E+01
  -8.390  0.0000E+00  0.0000E+00  0.8000E+01
  -8.380  0.0000E+00  0.0000E+00  0.8000E+01
  -8.370  0.0000E+00  0.0000E+00  0.8000E+01
  -8.360  0.0000E+00  0.0000E+00  0.8000E+01
  -8.350  0.0000E+00  0.0000E+00  0.8000E+01
  -8.340  0.0000E+00  0.0000E+00  0.8000E+01
  -8.330  0.0000E+00  0.0000E+00  0.8000E+01
  -8.320  0.0000E+00  0.0000E+00  0.8000E+01
  -8.310  0.0000E+00  0.0000E+00  0.8000E+01
  -8.300  0.0000E+00  0.0000E+00  0.8000E+01
  -8.290  0.0000E+00  0.0000E+00  0.8000E+01
  -8.280  0.0000E+00  0.0000E+00  0.8000E+01
  -8.270  0.0000E+00  0.0000E+00  0.8000E+01
  -8.260  0.0000E+00  0.0000E+00  0.8000E+01
  -8.250  0.0000E+00  0.0000E+00  0.8000E+01
  -8.240  0.0000E+00  0.0000E+00  0.8000E+01
  -8.230  0.0000E+00  0.0000E+00  0.8000E+01
  -8.220  0.0000E+00  0.0000E+00  0.8000E+01
  -8.210  0.0000E+00  0.0000E+00  0.8000E+01
  -8.200  0.0000E+00  0.0000E+00  0.8000E+01
  -8.190  0.0000E+00  0.0000E+00  0.8000E+01
  -8.180  0.0000E+00  0.0000E+00  0.8000E+01
  -8.170  0.0000E+00  0.0000E+00  0.8000E+01
  -8.160  0.0000E+00  0.0000E+00  0.8000E+01
  -8.150  0.0000E+00  0.0000E+00  0.8000E+01
  -8.140  0.0000E+00  0.0000E+00  0.8000E+01
  -8.130  0.0000E+00  0.0000E+00  0.8000E+01
  -8.120  0.0000E+00  0.0000E+00  0.8000E+01
  -8.110  0.0000E+00  0.0000E+00  0.8000E+01
  -8.100  0.0000E+00  0.0000E+00  0.8000E+01
  -8.090  0.0000E+00  0.0000E+00  0.8000E+01
  -8.080  0.0000E+00  0.0000E+00  0.8000E+01
  -8.070  0.0000E+00  0.0000E+00  0.8000E+01
  -8.060  0.0000E+00  0.0000E+00  0.8000E+01
  -8.050  0.0000E+00  0.0000E+00  0.8000E+01
  -8.040  0.0000E+00  0.0000E+00  0.8000E+01
  -8.030  0.0000E+00  0.0000E+00  0.8000E+01
  -8.020  0.0000E+00  0.0000E+00  0.8000E+01
  -8.010  0.0000E+00  0.0000E+00  0.8000E+01
  -8.000  0.0000E+00  0.0000E+00  0.8000E+01
  -7.990  0.0000E+00  0.0000E+00  0.8000E+01
  -7.980  0.0000E+00  0.0000E+00  0.8000E+01
  -7.970  0.0000E+00  0.0000E+00  0.8000E+01
  -7.960  0.0000E+00  0.0000E+00  0.8000E+01
  -7.950  0.0000E+00  0.0000E+00  0.8000E+01
  -7.940  0.0000E+00  0.0000E+00  0.8000E+01
  -7.930  0.0000E+00  0.0000E+00  0.8000E+01
  -7.920  0.0000E+00  0.0000E+00  0.8000E+01
  -7.910  0.0000E+00  0.0000E+00  0.8000E+01
  -7.900  0.0000E+00  0.0000E+00  0.8000E+01
  -7.890  0.0000E+00  0.0000E+00  0.8000E+01
  -7.880  0.0000E+00  0.0000E+00  0.8000E+01
  -7.870  0.0000E+00  0.0000E+00  0.8000E+01
  -7.860  0.0000E+00  0.0000E+00  0.8000E+01
  -7.850  0.0000E+00  0.0000E+00  0.8000E+01
  -7.840  0.0000E+00  0.0000E+00  0.8000E+01
  -7.830  0.0000E+00  0.0000E+00  0.8000E+01
  -7.820  0.0000E+00  0.0000E+00  0.8000E+01
  -7.810  0.0000E+00  0.0000E+00  0.8000E+01
  -7.800  0.0000E+00  0.0000E+00  0.8000E+01
  -7.790  0.0000E+00  0.0000E+00  0.8000E+01
  -7.780  0.0000E+00  0.0000E+00  0.8000E+01
  -7.770  0.0000E+00  0.0000E+00  0.8000E+01
  -7.760  0.0000E+00  0.0000E+00  0.8000E+01
  -7.750  0.0000E+00  0.0000E+00  0.8000E+01
  -7.740  0.0000E+00  0.0000E+00  0.8000E+01
  -7.730  0.0000E+00  0.0000E+00  0.8000E+01
  -7.720  0.0000E+00  0.0000E+00  0.8000E+01
  -7.710  0.0000E+00  0.0000E+00  0.8000E+01
  -7.700  0.0000E+00  0.0000E+00  0.8000E+01
  -7.690  0.0000E+00  0.0000E+00  0.8000E+01
  -7.680  0.0000E+00  0.0000E+00  0.8000E+01
  -7.670  0.0000E+00  0.0000E+00  0.8000E+01
  -7.660  0.0000E+00  0.0000E+00  0.8000E+01
  -7.650  0.0000E+00  0.0000E+00  0.8000E+01
  -7.640  0.0000E+00  0.0000E+00  0.8000E+01
  -7.630  0.0000E+00  0.0000E+00  0.8000E+01
  -7.620  0.0000E+00  0.0000E+00  0.8000E+01
  -7.610  0.0000E+00  0.0000E+00  0.8000E+01
  -7.600  0.0000E+00  0.0000E+00  0.8000E+01
  -7.590  0.0000E+00  0.0000E+00  0.8000E+01
  -7.580  0.0000E+00  0.0000E+00  0.8000E+01
  -7.570  0.0000E+00  0.0000E+00  0.8000E+01
  -7.560  0.0000E+00  0.0000E+00  0.8000E+01
  -7.550  0.0000E+00  0.0000E+00  0.8000E+01
  -7.540  0.0000E+00  0.0000E+00  0.8000E+01
  -7.530  0.0000E+00  0.0000E+00  0.8000E+01
  -7.520  0.0000E+00  0.0000E+00  0.8000E+01
  -7.510  0.0000E+00  0.0000E+00  0.8000E+01
  -7.500  0.3670E-02  0.3670E-02  0.8000E+01
  -7.490  0.8549E-01  0.8549E-01  0.8001E+01
  -7.480  0.4717E+00  0.4717E+00  0.8006E+01
  -7.470  0.1196E+01  0.1196E+01  0.8022E+01
  -7.460  0.2070E+01  0.2070E+01  0.8055E+01
  -7.450  0.2666E+01  0.2666E+01  0.8103E+01
  -7.440  0.3040E+01  0.3040E+01  0.8160E+01
  -7.430  0.3290E+01  0.3290E+01  0.8223E+01
  -7.420  0.3602E+01  0.3602E+01  0.8292E+01
  -7.410  0.3874E+01  0.3874E+01  0.8367E+01
  -7.400  0.4285E+01  0.4285E+01  0.8448E+01
  -7.390  0.5024E+01  0.5024E+01  0.8540E+01
  -7.380  0.5941E+01  0.5941E+01  0.8651E+01
  -7.370  0.6622E+01  0.6622E+01  0.8777E+01
  -7.360  0.6719E+01  0.6719E+01  0.8911E+01
  -7.350  0.6234E+01  0.6234E+01  0.9042E+01
  -7.340  0.5574E+01  0.5574E+01  0.9160E+01
  -7.330  0.5159E+01  0.5159E+01  0.9266E+01
  -7.320  0.4917E+01  0.4917E+01  0.9366E+01
  -7.310  0.4634E+01  0.4634E+01  0.9462E+01
  -7.300  0.4421E+01  0.4421E+01  0.9553E+01
  -7.290  0.4473E+01  0.4473E+01  0.9641E+01
  -7.280  0.4674E+01  0.4674E+01  0.9732E+01
  -7.270  0.5478E+01  0.5478E+01  0.9833E+01
  -7.260  0.6420E+01  0.6420E+01  0.9952E+01
  -7.250  0.7569E+01  0.7569E+01  0.1009E+02
  -7.240  0.8089E+01  0.8089E+01  0.1025E+02
  -7.230  0.8310E+01  0.8310E+01  0.1041E+02
  -7.220  0.8505E+01  0.8505E+01  0.1058E+02
  -7.210  0.8630E+01  0.8630E+01  0.1075E+02
  -7.200  0.8634E+01  0.8634E+01  0.1093E+02
  -7.190  0.8746E+01  0.8746E+01  0.1110E+02
  -7.180  0.8862E+01  0.8862E+01  0.1128E+02
  -7.170  0.8767E+01  0.8767E+01  0.1145E+02
  -7.160  0.8613E+01  0.8613E+01  0.1163E+02
  -7.150  0.8975E+01  0.8975E+01  0.1180E+02
  -7.140  0.1097E+02  0.1097E+02  0.1200E+02
  -7.130  0.9686E+01  0.9686E+01  0.1221E+02
  -7.120  0.9023E+01  0.9023E+01  0.1240E+02
  -7.110  0.9472E+01  0.9472E+01  0.1258E+02
  -7.100  0.1359E+02  0.1359E+02  0.1281E+02
  -7.090  0.1588E+02  0.1588E+02  0.1311E+02
  -7.080  0.1513E+02  0.1513E+02  0.1342E+02
  -7.070  0.1277E+02  0.1277E+02  0.1370E+02
  -7.060  0.1058E+02  0.1058E+02  0.1393E+02
  -7.050  0.9037E+01  0.9037E+01  0.1413E+02
  -7.040  0.8715E+01  0.8715E+01  0.1430E+02
  -7.030  0.9034E+01  0.9034E+01  0.1448E+02
  -7.020  0.9501E+01  0.9501E+01  0.1467E+02
  -7.010  0.9963E+01  0.9963E+01  0.1492E+02
  -7.000  0.1029E+02  0.1029E+02  0.1513E+02
  -6.990  0.1056E+02  0.1056E+02  0.1533E+02
  -6.980  0.1092E+02  0.1092E+02  0.1555E+02
  -6.970  0.1137E+02  0.1137E+02  0.1577E+02
  -6.960  0.1476E+02  0.1476E+02  0.1600E+02
  -6.950  0.1476E+02  0.1476E+02  0.1634E+02
  -6.940  0.1802E+02  0.1802E+02  0.1667E+02
  -6.930  0.2156E+02  0.2156E+02  0.1706E+02
  -6.920  0.2736E+02  0.2736E+02  0.1753E+02
  -6.910  0.2384E+02  0.2384E+02  0.1803E+02
  -6.900  0.2706E+02  0.2706E+02  0.1854E+02
  -6.890  0.2821E+02  0.2821E+02  0.1911E+02
  -6.880  0.2536E+02  0.2536E+02  0.1965E+02
  -6.870  0.1961E+02  0.1961E+02  0.2011E+02
  -6.860  0.9582E+01  0.9582E+01  0.2037E+02
  -6.850  0.8188E+01  0.8188E+01  0.2055E+02
  -6.840  0.7987E+01  0.7987E+01  0.2071E+02
  -6.830  0.8667E+01  0.8667E+01  0.2087E+02
  -6.820  0.9902E+01  0.9902E+01  0.2106E+02
  -6.810  0.1142E+02  0.1142E+02  0.2127E+02
  -6.800  0.1595E+02  0.1595E+02  0.2153E+02
  -6.790  0.1998E+02  0.1998E+02  0.2191E+02
  -6.780  0.2114E+02  0.2114E+02  0.2232E+02
  -6.770  0.2243E+02  0.2243E+02  0.2275E+02
  -6.760  0.2418E+02  0.2418E+02  0.2322E+02
  -6.750  0.4102E+02  0.4102E+02  0.2390E+02
  -6.740  0.3409E+02  0.3409E+02  0.2465E+02
  -6.730  0.3535E+02  0.3535E+02  0.2547E+02
  -6.720  0.3211E+02  0.3211E+02  0.2613E+02
  -6.710  0.2856E+02  0.2856E+02  0.2674E+02
  -6.700  0.3001E+02  0.3001E+02  0.2730E+02
  -6.690  0.3468E+02  0.3468E+02  0.2797E+02
  -6.680  0.3213E+02  0.3213E+02  0.2863E+02
  -6.670  0.3280E+02  0.3280E+02  0.2928E+02
  -6.660  0.2620E+02  0.2620E+02  0.2987E+02
  -6.650  0.5896E+02  0.5896E+02  0.3071E+02
  -6.640  0.4909E+02  0.4909E+02  0.3180E+02
  -6.630  0.4331E+02  0.4331E+02  0.3271E+02
  -6.620  0.3666E+02  0.3666E+02  0.3352E+02
  -6.610  0.8022E+02  0.8023E+02  0.3443E+02
  -6.600  0.3509E+02  0.3509E+02  0.3531E+02
  -6.590  0.3430E+02  0.3430E+02  0.3599E+02
  -6.580  0.3720E+02  0.3720E+02  0.3670E+02
  -6.570  0.4171E+02  0.4171E+02  0.3749E+02
  -6.560  0.4494E+02  0.4494E+02  0.3836E+02
  -6.550  0.4461E+02  0.4461E+02  0.3927E+02
  -6.540  0.4286E+02  0.4286E+02  0.4014E+02
  -6.530  0.4068E+02  0.4068E+02  0.4097E+02
  -6.520  0.4952E+02  0.4951E+02  0.4180E+02
  -6.510  0.6887E+02  0.6887E+02  0.4307E+02
  -6.500  0.6013E+02  0.6013E+02  0.4431E+02
  -6.490  0.5195E+02  0.5195E+02  0.4548E+02
  -6.480  0.4530E+02  0.4530E+02  0.4643E+02
  -6.470  0.1066E+03  0.1066E+03  0.4819E+02
  -6.460  0.6360E+02  0.6360E+02  0.4958E+02
  -6.450  0.5914E+02  0.5914E+02  0.5083E+02
  -6.440  0.8350E+02  0.8350E+02  0.5213E+02
  -6.430  0.2307E+02  0.2307E+02  0.5302E+02
  -6.420  0.2768E+02  0.2768E+02  0.5350E+02
  -6.410  0.4493E+02  0.4493E+02  0.5420E+02
  -6.400  0.5716E+02  0.5716E+02  0.5522E+02
  -6.390  0.5046E+02  0.5046E+02  0.5639E+02
  -6.380  0.5366E+02  0.5366E+02  0.5753E+02
  -6.370  0.6601E+02  0.6601E+02  0.5878E+02
  -6.360  0.7701E+02  0.7701E+02  0.6025E+02
  -6.350  0.5858E+02  0.5858E+02  0.6160E+02
  -6.340  0.4102E+02  0.4102E+02  0.6272E+02
  -6.330  0.2862E+02  0.2862E+02  0.6347E+02
  -6.320  0.1327E+02  0.1327E+02  0.6387E+02
  -6.310  0.8896E+00  0.8896E+00  0.6400E+02
  -6.300  0.0000E+00  0.0000E+00  0.6400E+02
  -6.290  0.0000E+00  0.0000E+00  0.6400E+02
  -6.280  0.0000E+00  0.0000E+00  0.6400E+02
  -6.270  0.0000E+00  0.0000E+00  0.6400E+02
  -6.260  0.0000E+00  0.0000E+00  0.6400E+02
  -6.250  0.0000E+00  0.0000E+00  0.6400E+02
  -6.240  0.0000E+00  0.0000E+00  0.6400E+02
  -6.230  0.0000E+00  0.0000E+00  0.6400E+02
  -6.220  0.0000E+00  0.0000E+00  0.6400E+02
  -6.210  0.0000E+00  0.0000E+00  0.6400E+02
  -6.200  0.0000E+00  0.0000E+00  0.6400E+02
  -6.190  0.0000E+00  0.0000E+00  0.6400E+02
  -6.180  0.0000E+00  0.0000E+00  0.6400E+02
  -6.170  0.0000E+00  0.0000E+00  0.6400E+02
  -6.160  0.0000E+00  0.0000E+00  0.6400E+02
  -6.150  0.0000E+00  0.0000E+00  0.6400E+02
  -6.140  0.0000E+00  0.0000E+00  0.6400E+02
  -6.130  0.1435E+01  0.1434E+01  0.6401E+02
  -6.120  0.8036E+01  0.8035E+01  0.6409E+02
  -6.110  0.1854E+02  0.1854E+02  0.6435E+02
  -6.100  0.3283E+02  0.3283E+02  0.6489E+02
  -6.090  0.2977E+02  0.2977E+02  0.6553E+02
  -6.080  0.9706E+01  0.9708E+01  0.6592E+02
  -6.070  0.2937E+00  0.2942E+00  0.6600E+02
  -6.060  0.0000E+00  0.0000E+00  0.6600E+02
  -6.050  0.0000E+00  0.0000E+00  0.6600E+02
  -6.040  0.0000E+00  0.0000E+00  0.6600E+02
  -6.030  0.0000E+00  0.0000E+00  0.6600E+02
  -6.020  0.0000E+00  0.0000E+00  0.6600E+02
  -6.010  0.0000E+00  0.0000E+00  0.6600E+02
  -6.000  0.0000E+00  0.0000E+00  0.6600E+02
  -5.990  0.0000E+00  0.0000E+00  0.6600E+02
  -5.980  0.0000E+00  0.0000E+00  0.6600E+02
  -5.970  0.0000E+00  0.0000E+00  0.6600E+02
  -5.960  0.0000E+00  0.0000E+00  0.6600E+02
  -5.950  0.0000E+00  0.0000E+00  0.6600E+02
  -5.940  0.0000E+00  0.0000E+00  0.6600E+02
  -5.930  0.3424E+01  0.3399E+01  0.6600E+02
  -5.920  0.8171E+02  0.8172E+02  0.6757E+02
  -5.910  0.1180E+03  0.1179E+03  0.6970E+02
  -5.900  0.9440E+02  0.9476E+02  0.7167E+02
  -5.890  0.0000E+00  0.0000E+00  0.7200E+02
  -5.880  0.0000E+00  0.0000E+00  0.7200E+02
  -5.870  0.0000E+00  0.0000E+00  0.7200E+02
  -5.860  0.0000E+00  0.0000E+00  0.7200E+02
  -5.850  0.0000E+00  0.0000E+00  0.7200E+02
  -5.840  0.0000E+00  0.0000E+00  0.7200E+02
  -5.830  0.0000E+00  0.0000E+00  0.7200E+02
  -5.820  0.0000E+00  0.0000E+00  0.7200E+02
  -5.810  0.0000E+00  0.0000E+00  0.7200E+02
  -5.800  0.0000E+00  0.0000E+00  0.7200E+02
  -5.790  0.0000E+00  0.0000E+00  0.7200E+02
  -5.780  0.0000E+00  0.0000E+00  0.7200E+02
  -5.770  0.0000E+00  0.0000E+00  0.7200E+02
  -5.760  0.0000E+00  0.0000E+00  0.7200E+02
  -5.750  0.0000E+00  0.0000E+00  0.7200E+02
  -5.740  0.0000E+00  0.0000E+00  0.7200E+02
  -5.730  0.0000E+00  0.0000E+00  0.7200E+02
  -5.720  0.0000E+00  0.0000E+00  0.7200E+02
  -5.710  0.0000E+00  0.0000E+00  0.7200E+02
  -5.700  0.0000E+00  0.0000E+00  0.7200E+02
  -5.690  0.0000E+00  0.0000E+00  0.7200E+02
  -5.680  0.0000E+00  0.0000E+00  0.7200E+02
  -5.670  0.0000E+00  0.0000E+00  0.7200E+02
  -5.660  0.0000E+00  0.0000E+00  0.7200E+02
  -5.650  0.0000E+00  0.0000E+00  0.7200E+02
  -5.640  0.0000E+00  0.0000E+00  0.7200E+02
  -5.630  0.0000E+00  0.0000E+00  0.7200E+02
  -5.620  0.0000E+00  0.0000E+00  0.7200E+02
  -5.610  0.0000E+00  0.0000E+00  0.7200E+02
  -5.600  0.0000E+00  0.0000E+00  0.7200E+02
  -5.590  0.0000E+00  0.0000E+00  0.7200E+02
  -5.580  0.0000E+00  0.0000E+00  0.7200E+02
  -5.570  0.0000E+00  0.0000E+00  0.7200E+02
  -5.560  0.0000E+00  0.0000E+00  0.7200E+02
  -5.550  0.0000E+00  0.0000E+00  0.7200E+02
  -5.540  0.0000E+00  0.0000E+00  0.7200E+02
  -5.530  0.0000E+00  0.0000E+00  0.7200E+02
  -5.520  0.0000E+00  0.0000E+00  0.7200E+02
  -5.510  0.0000E+00  0.0000E+00  0.7200E+02
  -5.500  0.0000E+00  0.0000E+00  0.7200E+02
  -5.490  0.0000E+00  0.0000E+00  0.7200E+02
  -5.480  0.0000E+00  0.0000E+00  0.7200E+02
  -5.470  0.0000E+00  0.0000E+00  0.7200E+02
  -5.460  0.0000E+00  0.0000E+00  0.7200E+02
  -5.450  0.0000E+00  0.0000E+00  0.7200E+02
  -5.440  0.0000E+00  0.0000E+00  0.7200E+02
  -5.430  0.0000E+00  0.0000E+00  0.7200E+02
  -5.420  0.0000E+00  0.0000E+00  0.7200E+02
  -5.410  0.0000E+00  0.0000E+00  0.7200E+02
  -5.400  0.0000E+00  0.0000E+00  0.7200E+02
  -5.390  0.0000E+00  0.0000E+00  0.7200E+02
  -5.380  0.0000E+00  0.0000E+00  0.7200E+02
  -5.370  0.0000E+00  0.0000E+00  0.7200E+02
  -5.360  0.0000E+00  0.0000E+00  0.7200E+02
  -5.350  0.0000E+00  0.0000E+00  0.7200E+02
  -5.340  0.0000E+00  0.0000E+00  0.7200E+02
  -5.330  0.0000E+00  0.0000E+00  0.7200E+02
  -5.320  0.0000E+00  0.0000E+00  0.7200E+02
  -5.310  0.0000E+00  0.0000E+00  0.7200E+02
  -5.300  0.0000E+00  0.0000E+00  0.7200E+02
  -5.290  0.0000E+00  0.0000E+00  0.7200E+02
  -5.280  0.0000E+00  0.0000E+00  0.7200E+02
  -5.270  0.0000E+00  0.0000E+00  0.7200E+02
  -5.260  0.0000E+00  0.0000E+00  0.7200E+02
  -5.250  0.0000E+00  0.0000E+00  0.7200E+02
  -5.240  0.0000E+00  0.0000E+00  0.7200E+02
  -5.230  0.0000E+00  0.0000E+00  0.7200E+02
  -5.220  0.0000E+00  0.0000E+00  0.7200E+02
  -5.210  0.0000E+00  0.0000E+00  0.7200E+02
  -5.200  0.0000E+00  0.0000E+00  0.7200E+02
  -5.190  0.0000E+00  0.0000E+00  0.7200E+02
  -5.180  0.0000E+00  0.0000E+00  0.7200E+02
  -5.170  0.0000E+00  0.0000E+00  0.7200E+02
  -5.160  0.0000E+00  0.0000E+00  0.7200E+02
  -5.150  0.0000E+00  0.0000E+00  0.7200E+02
  -5.140  0.0000E+00  0.0000E+00  0.7200E+02
  -5.130  0.0000E+00  0.0000E+00  0.7200E+02
  -5.120  0.0000E+00  0.0000E+00  0.7200E+02
  -5.110  0.0000E+00  0.0000E+00  0.7200E+02
  -5.100  0.0000E+00  0.0000E+00  0.7200E+02
  -5.090  0.0000E+00  0.0000E+00  0.7200E+02
  -5.080  0.0000E+00  0.0000E+00  0.7200E+02
  -5.070  0.0000E+00  0.0000E+00  0.7200E+02
  -5.060  0.0000E+00  0.0000E+00  0.7200E+02
  -5.050  0.0000E+00  0.0000E+00  0.7200E+02
  -5.040  0.0000E+00  0.0000E+00  0.7200E+02
  -5.030  0.0000E+00  0.0000E+00  0.7200E+02
  -5.020  0.0000E+00  0.0000E+00  0.7200E+02
  -5.010  0.0000E+00  0.0000E+00  0.7200E+02
  -5.000  0.0000E+00  0.0000E+00  0.7200E+02
  -4.990  0.0000E+00  0.0000E+00  0.7200E+02
  -4.980  0.0000E+00  0.0000E+00  0.7200E+02
  -4.970  0.0000E+00  0.0000E+00  0.7200E+02
  -4.960  0.0000E+00  0.0000E+00  0.7200E+02
  -4.950  0.0000E+00  0.0000E+00  0.7200E+02
  -4.940  0.0000E+00  0.0000E+00  0.7200E+02
  -4.930  0.0000E+00  0.0000E+00  0.7200E+02
  -4.920  0.0000E+00  0.0000E+00  0.7200E+02
  -4.910  0.0000E+00  0.0000E+00  0.7200E+02
  -4.900  0.0000E+00  0.0000E+00  0.7200E+02
  -4.890  0.0000E+00  0.0000E+00  0.7200E+02
  -4.880  0.0000E+00  0.0000E+00  0.7200E+02
  -4.870  0.0000E+00  0.0000E+00  0.7200E+02
  -4.860  0.0000E+00  0.0000E+00  0.7200E+02
  -4.850  0.0000E+00  0.0000E+00  0.7200E+02
  -4.840  0.0000E+00  0.0000E+00  0.7200E+02
  -4.830  0.0000E+00  0.0000E+00  0.7200E+02
  -4.820  0.0000E+00  0.0000E+00  0.7200E+02
  -4.810  0.0000E+00  0.0000E+00  0.7200E+02
  -4.800  0.0000E+00  0.0000E+00  0.7200E+02
  -4.790  0.0000E+00  0.0000E+00  0.7200E+02
  -4.780  0.0000E+00  0.0000E+00  0.7200E+02
  -4.770  0.0000E+00  0.0000E+00  0.7200E+02
  -4.760  0.0000E+00  0.0000E+00  0.7200E+02
  -4.750  0.0000E+00  0.0000E+00  0.7200E+02
  -4.740  0.0000E+00  0.0000E+00  0.7200E+02
  -4.730  0.0000E+00  0.0000E+00  0.7200E+02
  -4.720  0.0000E+00  0.0000E+00  0.7200E+02
  -4.710  0.0000E+00  0.0000E+00  0.7200E+02
  -4.700  0.0000E+00  0.0000E+00  0.7200E+02
  -4.690  0.0000E+00  0.0000E+00  0.7200E+02
  -4.680  0.0000E+00  0.0000E+00  0.7200E+02
  -4.670  0.0000E+00  0.0000E+00  0.7200E+02
  -4.660  0.0000E+00  0.0000E+00  0.7200E+02
  -4.650  0.0000E+00  0.0000E+00  0.7200E+02
  -4.640  0.0000E+00  0.0000E+00  0.7200E+02
  -4.630  0.0000E+00  0.0000E+00  0.7200E+02
  -4.620  0.0000E+00  0.0000E+00  0.7200E+02
  -4.610  0.0000E+00  0.0000E+00  0.7200E+02
  -4.600  0.0000E+00  0.0000E+00  0.7200E+02
  -4.590  0.0000E+00  0.0000E+00  0.7200E+02
  -4.580  0.0000E+00  0.0000E+00  0.7200E+02
  -4.570  0.0000E+00  0.0000E+00  0.7200E+02
  -4.560  0.0000E+00  0.0000E+00  0.7200E+02
  -4.550  0.0000E+00  0.0000E+00  0.7200E+02
  -4.540  0.0000E+00  0.0000E+00  0.7200E+02
  -4.530  0.0000E+00  0.0000E+00  0.7200E+02
  -4.520  0.0000E+00  0.0000E+00  0.7200E+02
  -4.510  0.0000E+00  0.0000E+00  0.7200E+02
  -4.500  0.0000E+00  0.0000E+00  0.7200E+02
  -4.490  0.0000E+00  0.0000E+00  0.7200E+02
  -4.480  0.0000E+00  0.0000E+00  0.7200E+02
  -4.470  0.0000E+00  0.0000E+00  0.7200E+02
  -4.460  0.0000E+00  0.0000E+00  0.7200E+02
  -4.450  0.0000E+00  0.0000E+00  0.7200E+02
  -4.440  0.0000E+00  0.0000E+00  0.7200E+02
  -4.430  0.0000E+00  0.0000E+00  0.7200E+02
  -4.420  0.0000E+00  0.0000E+00  0.7200E+02
  -4.410  0.0000E+00  0.0000E+00  0.7200E+02
  -4.400  0.0000E+00  0.0000E+00  0.7200E+02
  -4.390  0.0000E+00  0.0000E+00  0.7200E+02
  -4.380  0.0000E+00  0.0000E+00  0.7200E+02
  -4.370  0.0000E+00  0.0000E+00  0.7200E+02
  -4.360  0.0000E+00  0.0000E+00  0.7200E+02
  -4.350  0.0000E+00  0.0000E+00  0.7200E+02
  -4.340  0.0000E+00  0.0000E+00  0.7200E+02
  -4.330  0.0000E+00  0.0000E+00  0.7200E+02
  -4.320  0.0000E+00  0.0000E+00  0.7200E+02
  -4.310  0.0000E+00  0.0000E+00  0.7200E+02
  -4.300  0.0000E+00  0.0000E+00  0.7200E+02
  -4.290  0.0000E+00  0.0000E+00  0.7200E+02
  -4.280  0.0000E+00  0.0000E+00  0.7200E+02
  -4.270  0.0000E+00  0.0000E+00  0.7200E+02
  -4.260  0.0000E+00  0.0000E+00  0.7200E+02
  -4.250  0.0000E+00  0.0000E+00  0.7200E+02
  -4.240  0.0000E+00  0.0000E+00  0.7200E+02
  -4.230  0.0000E+00  0.0000E+00  0.7200E+02
  -4.220  0.0000E+00  0.0000E+00  0.7200E+02
  -4.210  0.0000E+00  0.0000E+00  0.7200E+02
  -4.200  0.0000E+00  0.0000E+00  0.7200E+02
  -4.190  0.0000E+00  0.0000E+00  0.7200E+02
  -4.180  0.0000E+00  0.0000E+00  0.7200E+02
  -4.170  0.0000E+00  0.0000E+00  0.7200E+02
  -4.160  0.0000E+00  0.0000E+00  0.7200E+02
  -4.150  0.0000E+00  0.0000E+00  0.7200E+02
  -4.140  0.0000E+00  0.0000E+00  0.7200E+02
  -4.130  0.0000E+00  0.0000E+00  0.7200E+02
  -4.120  0.0000E+00  0.0000E+00  0.7200E+02
  -4.110  0.0000E+00  0.0000E+00  0.7200E+02
  -4.100  0.0000E+00  0.0000E+00  0.7200E+02
  -4.090  0.0000E+00  0.0000E+00  0.7200E+02
  -4.080  0.0000E+00  0.0000E+00  0.7200E+02
  -4.070  0.0000E+00  0.0000E+00  0.7200E+02
  -4.060  0.0000E+00  0.0000E+00  0.7200E+02
  -4.050  0.0000E+00  0.0000E+00  0.7200E+02
  -4.040  0.0000E+00  0.0000E+00  0.7200E+02
  -4.030  0.0000E+00  0.0000E+00  0.7200E+02
  -4.020  0.0000E+00  0.0000E+00  0.7200E+02
  -4.010  0.0000E+00  0.0000E+00  0.7200E+02
  -4.000  0.0000E+00  0.0000E+00  0.7200E+02
  -3.990  0.0000E+00  0.0000E+00  0.7200E+02
  -3.980  0.0000E+00  0.0000E+00  0.7200E+02
  -3.970  0.0000E+00  0.0000E+00  0.7200E+02
  -3.960  0.0000E+00  0.0000E+00  0.7200E+02
  -3.950  0.0000E+00  0.0000E+00  0.7200E+02
  -3.940  0.0000E+00  0.0000E+00  0.7200E+02
  -3.930  0.0000E+00  0.0000E+00  0.7200E+02
  -3.920  0.0000E+00  0.0000E+00  0.7200E+02
  -3.910  0.0000E+00  0.0000E+00  0.7200E+02
  -3.900  0.0000E+00  0.0000E+00  0.7200E+02
  -3.890  0.0000E+00  0.0000E+00  0.7200E+02
  -3.880  0.0000E+00  0.0000E+00  0.7200E+02
  -3.870  0.0000E+00  0.0000E+00  0.7200E+02
  -3.860  0.0000E+00  0.0000E+00  0.7200E+02
  -3.850  0.0000E+00  0.0000E+00  0.7200E+02
  -3.840  0.0000E+00  0.0000E+00  0.7200E+02
  -3.830  0.0000E+00  0.0000E+00  0.7200E+02
  -3.820  0.0000E+00  0.0000E+00  0.7200E+02
  -3.810  0.0000E+00  0.0000E+00  0.7200E+02
  -3.800  0.0000E+00  0.0000E+00  0.7200E+02
  -3.790  0.0000E+00  0.0000E+00  0.7200E+02
  -3.780  0.0000E+00  0.0000E+00  0.7200E+02
  -3.770  0.0000E+00  0.0000E+00  0.7200E+02
  -3.760  0.0000E+00  0.0000E+00  0.7200E+02
  -3.750  0.0000E+00  0.0000E+00  0.7200E+02
  -3.740  0.0000E+00  0.0000E+00  0.7200E+02
  -3.730  0.0000E+00  0.0000E+00  0.7200E+02
  -3.720  0.0000E+00  0.0000E+00  0.7200E+02
  -3.710  0.0000E+00  0.0000E+00  0.7200E+02
  -3.700  0.0000E+00  0.0000E+00  0.7200E+02
  -3.690  0.0000E+00  0.0000E+00  0.7200E+02
  -3.680  0.0000E+00  0.0000E+00  0.7200E+02
  -3.670  0.0000E+00  0.0000E+00  0.7200E+02
  -3.660  0.0000E+00  0.0000E+00  0.7200E+02
  -3.650  0.0000E+00  0.0000E+00  0.7200E+02
  -3.640  0.0000E+00  0.0000E+00  0.7200E+02
  -3.630  0.0000E+00  0.0000E+00  0.7200E+02
  -3.620  0.0000E+00  0.0000E+00  0.7200E+02
  -3.610  0.0000E+00  0.0000E+00  0.7200E+02
  -3.600  0.0000E+00  0.0000E+00  0.7200E+02
  -3.590  0.0000E+00  0.0000E+00  0.7200E+02
  -3.580  0.0000E+00  0.0000E+00  0.7200E+02
  -3.570  0.0000E+00  0.0000E+00  0.7200E+02
  -3.560  0.0000E+00  0.0000E+00  0.7200E+02
  -3.550  0.0000E+00  0.0000E+00  0.7200E+02
  -3.540  0.0000E+00  0.0000E+00  0.7200E+02
  -3.530  0.0000E+00  0.0000E+00  0.7200E+02
  -3.520  0.0000E+00  0.0000E+00  0.7200E+02
  -3.510  0.0000E+00  0.0000E+00  0.7200E+02
  -3.500  0.0000E+00  0.0000E+00  0.7200E+02
  -3.490  0.0000E+00  0.0000E+00  0.7200E+02
  -3.480  0.0000E+00  0.0000E+00  0.7200E+02
  -3.470  0.0000E+00  0.0000E+00  0.7200E+02
  -3.460  0.0000E+00  0.0000E+00  0.7200E+02
  -3.450  0.0000E+00  0.0000E+00  0.7200E+02
  -3.440  0.0000E+00  0.0000E+00  0.7200E+02
  -3.430  0.0000E+00  0.0000E+00  0.7200E+02
  -3.420  0.0000E+00  0.0000E+00  0.7200E+02
  -3.410  0.0000E+00  0.0000E+00  0.7200E+02
  -3.400  0.0000E+00  0.0000E+00  0.7200E+02
  -3.390  0.0000E+00  0.0000E+00  0.7200E+02
  -3.380  0.0000E+00  0.0000E+00  0.7200E+02
  -3.370  0.0000E+00  0.0000E+00  0.7200E+02
  -3.360  0.0000E+00  0.0000E+00  0.7200E+02
  -3.350  0.0000E+00  0.0000E+00  0.7200E+02
  -3.340  0.0000E+00  0.0000E+00  0.7200E+02
  -3.330  0.0000E+00  0.0000E+00  0.7200E+02
  -3.320  0.0000E+00  0.0000E+00  0.7200E+02
  -3.310  0.0000E+00  0.0000E+00  0.7200E+02
  -3.300  0.0000E+00  0.0000E+00  0.7200E+02
  -3.290  0.0000E+00  0.0000E+00  0.7200E+02
  -3.280  0.0000E+00  0.0000E+00  0.7200E+02
  -3.270  0.0000E+00  0.0000E+00  0.7200E+02
  -3.260  0.0000E+00  0.0000E+00  0.7200E+02
  -3.250  0.0000E+00  0.0000E+00  0.7200E+02
  -3.240  0.0000E+00  0.0000E+00  0.7200E+02
  -3.230  0.0000E+00  0.0000E+00  0.7200E+02
  -3.220  0.0000E+00  0.0000E+00  0.7200E+02
  -3.210  0.0000E+00  0.0000E+00  0.7200E+02
  -3.200  0.0000E+00  0.0000E+00  0.7200E+02
  -3.190  0.0000E+00  0.0000E+00  0.7200E+02
  -3.180  0.0000E+00  0.0000E+00  0.7200E+02
  -3.170  0.0000E+00  0.0000E+00  0.7200E+02
  -3.160  0.0000E+00  0.0000E+00  0.7200E+02
  -3.150  0.0000E+00  0.0000E+00  0.7200E+02
  -3.140  0.0000E+00  0.0000E+00  0.7200E+02
  -3.130  0.0000E+00  0.0000E+00  0.7200E+02
  -3.120  0.0000E+00  0.0000E+00  0.7200E+02
  -3.110  0.0000E+00  0.0000E+00  0.7200E+02
  -3.100  0.0000E+00  0.0000E+00  0.7200E+02
  -3.090  0.0000E+00  0.0000E+00  0.7200E+02
  -3.080  0.0000E+00  0.0000E+00  0.7200E+02
  -3.070  0.0000E+00  0.0000E+00  0.7200E+02
  -3.060  0.0000E+00  0.0000E+00  0.7200E+02
  -3.050  0.0000E+00  0.0000E+00  0.7200E+02
  -3.040  0.0000E+00  0.0000E+00  0.7200E+02
  -3.030  0.0000E+00  0.0000E+00  0.7200E+02
  -3.020  0.0000E+00  0.0000E+00  0.7200E+02
  -3.010  0.0000E+00  0.0000E+00  0.7200E+02
  -3.000  0.0000E+00  0.0000E+00  0.7200E+02
  -2.990  0.0000E+00  0.0000E+00  0.7200E+02
  -2.980  0.0000E+00  0.0000E+00  0.7200E+02
  -2.970  0.0000E+00  0.0000E+00  0.7200E+02
  -2.960  0.0000E+00  0.0000E+00  0.7200E+02
  -2.950  0.0000E+00  0.0000E+00  0.7200E+02
  -2.940  0.0000E+00  0.0000E+00  0.7200E+02
  -2.930  0.0000E+00  0.0000E+00  0.7200E+02
  -2.920  0.0000E+00  0.0000E+00  0.7200E+02
  -2.910  0.0000E+00  0.0000E+00  0.7200E+02
  -2.900  0.0000E+00  0.0000E+00  0.7200E+02
  -2.890  0.0000E+00  0.0000E+00  0.7200E+02
  -2.880  0.0000E+00  0.0000E+00  0.7200E+02
  -2.870  0.0000E+00  0.0000E+00  0.7200E+02
  -2.860  0.0000E+00  0.0000E+00  0.7200E+02
  -2.850  0.0000E+00  0.0000E+00  0.7200E+02
  -2.840  0.0000E+00  0.0000E+00  0.7200E+02
  -2.830  0.0000E+00  0.0000E+00  0.7200E+02
  -2.820  0.0000E+00  0.0000E+00  0.7200E+02
  -2.810  0.0000E+00  0.0000E+00  0.7200E+02
  -2.800  0.0000E+00  0.0000E+00  0.7200E+02
  -2.790  0.0000E+00  0.0000E+00  0.7200E+02
  -2.780  0.0000E+00  0.0000E+00  0.7200E+02
  -2.770  0.0000E+00  0.0000E+00  0.7200E+02
  -2.760  0.0000E+00  0.0000E+00  0.7200E+02
  -2.750  0.0000E+00  0.0000E+00  0.7200E+02
  -2.740  0.0000E+00  0.0000E+00  0.7200E+02
  -2.730  0.0000E+00  0.0000E+00  0.7200E+02
  -2.720  0.0000E+00  0.0000E+00  0.7200E+02
  -2.710  0.0000E+00  0.0000E+00  0.7200E+02
  -2.700  0.0000E+00  0.0000E+00  0.7200E+02
  -2.690  0.0000E+00  0.0000E+00  0.7200E+02
  -2.680  0.0000E+00  0.0000E+00  0.7200E+02
  -2.670  0.0000E+00  0.0000E+00  0.7200E+02
  -2.660  0.0000E+00  0.0000E+00  0.7200E+02
  -2.650  0.0000E+00  0.0000E+00  0.7200E+02
  -2.640  0.0000E+00  0.0000E+00  0.7200E+02
  -2.630  0.0000E+00  0.0000E+00  0.7200E+02
  -2.620  0.0000E+00  0.0000E+00  0.7200E+02
  -2.610  0.0000E+00  0.0000E+00  0.7200E+02
  -2.600  0.0000E+00  0.0000E+00  0.7200E+02
  -2.590  0.0000E+00  0.0000E+00  0.7200E+02
  -2.580  0.0000E+00  0.0000E+00  0.7200E+02
  -2.570  0.0000E+00  0.0000E+00  0.7200E+02
  -2.560  0.0000E+00  0.0000E+00  0.7200E+02
  -2.550  0.0000E+00  0.0000E+00  0.7200E+02
  -2.540  0.0000E+00  0.0000E+00  0.7200E+02
  -2.530  0.0000E+00  0.0000E+00  0.7200E+02
  -2.520  0.0000E+00  0.0000E+00  0.7200E+02
  -2.510  0.0000E+00  0.0000E+00  0.7200E+02
  -2.500  0.0000E+00  0.0000E+00  0.7200E+02
  -2.490  0.0000E+00  0.0000E+00  0.7200E+02
  -2.480  0.0000E+00  0.0000E+00  0.7200E+02
  -2.470  0.0000E+00  0.0000E+00  0.7200E+02
  -2.460  0.0000E+00  0.0000E+00  0.7200E+02
  -2.450  0.0000E+00  0.0000E+00  0.7200E+02
  -2.440  0.0000E+00  0.0000E+00  0.7200E+02
  -2.430  0.0000E+00  0.0000E+00  0.7200E+02
  -2.420  0.0000E+00  0.0000E+00  0.7200E+02
  -2.410  0.0000E+00  0.0000E+00  0.7200E+02
  -2.400  0.0000E+00  0.0000E+00  0.7200E+02
  -2.390  0.0000E+00  0.0000E+00  0.7200E+02
  -2.380  0.0000E+00  0.0000E+00  0.7200E+02
  -2.370  0.0000E+00  0.0000E+00  0.7200E+02
  -2.360  0.0000E+00  0.0000E+00  0.7200E+02
  -2.350  0.0000E+00  0.0000E+00  0.7200E+02
  -2.340  0.0000E+00  0.0000E+00  0.7200E+02
  -2.330  0.0000E+00  0.0000E+00  0.7200E+02
  -2.320  0.0000E+00  0.0000E+00  0.7200E+02
  -2.310  0.0000E+00  0.0000E+00  0.7200E+02
  -2.300  0.0000E+00  0.0000E+00  0.7200E+02
  -2.290  0.0000E+00  0.0000E+00  0.7200E+02
  -2.280  0.0000E+00  0.0000E+00  0.7200E+02
  -2.270  0.0000E+00  0.0000E+00  0.7200E+02
  -2.260  0.0000E+00  0.0000E+00  0.7200E+02
  -2.250  0.0000E+00  0.0000E+00  0.7200E+02
  -2.240  0.0000E+00  0.0000E+00  0.7200E+02
  -2.230  0.0000E+00  0.0000E+00  0.7200E+02
  -2.220  0.0000E+00  0.0000E+00  0.7200E+02
  -2.210  0.0000E+00  0.0000E+00  0.7200E+02
  -2.200  0.0000E+00  0.0000E+00  0.7200E+02
  -2.190  0.0000E+00  0.0000E+00  0.7200E+02
  -2.180  0.0000E+00  0.0000E+00  0.7200E+02
  -2.170  0.0000E+00  0.0000E+00  0.7200E+02
  -2.160  0.0000E+00  0.0000E+00  0.7200E+02
  -2.150  0.0000E+00  0.0000E+00  0.7200E+02
  -2.140  0.0000E+00  0.0000E+00  0.7200E+02
  -2.130  0.0000E+00  0.0000E+00  0.7200E+02
  -2.120  0.0000E+00  0.0000E+00  0.7200E+02
  -2.110  0.0000E+00  0.0000E+00  0.7200E+02
  -2.100  0.0000E+00  0.0000E+00  0.7200E+02
  -2.090  0.0000E+00  0.0000E+00  0.7200E+02
  -2.080  0.0000E+00  0.0000E+00  0.7200E+02
  -2.070  0.0000E+00  0.0000E+00  0.7200E+02
  -2.060  0.0000E+00  0.0000E+00  0.7200E+02
  -2.050  0.0000E+00  0.0000E+00  0.7200E+02
  -2.040  0.0000E+00  0.0000E+00  0.7200E+02
  -2.030  0.0000E+00  0.0000E+00  0.7200E+02
  -2.020  0.0000E+00  0.0000E+00  0.7200E+02
  -2.010  0.0000E+00  0.0000E+00  0.7200E+02
  -2.000  0.0000E+00  0.0000E+00  0.7200E+02
  -1.990  0.0000E+00  0.0000E+00  0.7200E+02
  -1.980  0.0000E+00  0.0000E+00  0.7200E+02
  -1.970  0.0000E+00  0.0000E+00  0.7200E+02
  -1.960  0.0000E+00  0.0000E+00  0.7200E+02
  -1.950  0.0000E+00  0.0000E+00  0.7200E+02
  -1.940  0.0000E+00  0.0000E+00  0.7200E+02
  -1.930  0.0000E+00  0.0000E+00  0.7200E+02
  -1.920  0.0000E+00  0.0000E+00  0.7200E+02
  -1.910  0.0000E+00  0.0000E+00  0.7200E+02
  -1.900  0.0000E+00  0.0000E+00  0.7200E+02
  -1.890  0.0000E+00  0.0000E+00  0.7200E+02
  -1.880  0.0000E+00  0.0000E+00  0.7200E+02
  -1.870  0.0000E+00  0.0000E+00  0.7200E+02
  -1.860  0.0000E+00  0.0000E+00  0.7200E+02
  -1.850  0.0000E+00  0.0000E+00  0.7200E+02
  -1.840  0.0000E+00  0.0000E+00  0.7200E+02
  -1.830  0.0000E+00  0.0000E+00  0.7200E+02
  -1.820  0.0000E+00  0.0000E+00  0.7200E+02
  -1.810  0.0000E+00  0.0000E+00  0.7200E+02
  -1.800  0.0000E+00  0.0000E+00  0.7200E+02
  -1.790  0.0000E+00  0.0000E+00  0.7200E+02
  -1.780  0.0000E+00  0.0000E+00  0.7200E+02
  -1.770  0.0000E+00  0.0000E+00  0.7200E+02
  -1.760  0.0000E+00  0.0000E+00  0.7200E+02
  -1.750  0.0000E+00  0.0000E+00  0.7200E+02
  -1.740  0.0000E+00  0.0000E+00  0.7200E+02
  -1.730  0.0000E+00  0.0000E+00  0.7200E+02
  -1.720  0.0000E+00  0.0000E+00  0.7200E+02
  -1.710  0.0000E+00  0.0000E+00  0.7200E+02
  -1.700  0.0000E+00  0.0000E+00  0.7200E+02
  -1.690  0.0000E+00  0.0000E+00  0.7200E+02
  -1.680  0.0000E+00  0.0000E+00  0.7200E+02
  -1.670  0.0000E+00  0.0000E+00  0.7200E+02
  -1.660  0.0000E+00  0.0000E+00  0.7200E+02
  -1.650  0.0000E+00  0.0000E+00  0.7200E+02
  -1.640  0.0000E+00  0.0000E+00  0.7200E+02
  -1.630  0.0000E+00  0.0000E+00  0.7200E+02
  -1.620  0.0000E+00  0.0000E+00  0.7200E+02
  -1.610  0.0000E+00  0.0000E+00  0.7200E+02
  -1.600  0.0000E+00  0.0000E+00  0.7200E+02
  -1.590  0.0000E+00  0.0000E+00  0.7200E+02
  -1.580  0.0000E+00  0.0000E+00  0.7200E+02
  -1.570  0.0000E+00  0.0000E+00  0.7200E+02
  -1.560  0.0000E+00  0.0000E+00  0.7200E+02
  -1.550  0.0000E+00  0.0000E+00  0.7200E+02
  -1.540  0.0000E+00  0.0000E+00  0.7200E+02
  -1.530  0.0000E+00  0.0000E+00  0.7200E+02
  -1.520  0.0000E+00  0.0000E+00  0.7200E+02
  -1.510  0.0000E+00  0.0000E+00  0.7200E+02
  -1.500  0.0000E+00  0.0000E+00  0.7200E+02
  -1.490  0.0000E+00  0.0000E+00  0.7200E+02
  -1.480  0.0000E+00  0.0000E+00  0.7200E+02
  -1.470  0.0000E+00  0.0000E+00  0.7200E+02
  -1.460  0.0000E+00  0.0000E+00  0.7200E+02
  -1.450  0.0000E+00  0.0000E+00  0.7200E+02
  -1.440  0.0000E+00  0.0000E+00  0.7200E+02
  -1.430  0.0000E+00  0.0000E+00  0.7200E+02
  -1.420  0.0000E+00  0.0000E+00  0.7200E+02
  -1.410  0.0000E+00  0.0000E+00  0.7200E+02
  -1.400  0.0000E+00  0.0000E+00  0.7200E+02
  -1.390  0.0000E+00  0.0000E+00  0.7200E+02
  -1.380  0.0000E+00  0.0000E+00  0.7200E+02
  -1.370  0.0000E+00  0.0000E+00  0.7200E+02
  -1.360  0.0000E+00  0.0000E+00  0.7200E+02
  -1.350  0.0000E+00  0.0000E+00  0.7200E+02
  -1.340  0.0000E+00  0.0000E+00  0.7200E+02
  -1.330  0.0000E+00  0.0000E+00  0.7200E+02
  -1.320  0.0000E+00  0.0000E+00  0.7200E+02
  -1.310  0.0000E+00  0.0000E+00  0.7200E+02
  -1.300  0.0000E+00  0.0000E+00  0.7200E+02
  -1.290  0.0000E+00  0.0000E+00  0.7200E+02
  -1.280  0.0000E+00  0.0000E+00  0.7200E+02
  -1.270  0.0000E+00  0.0000E+00  0.7200E+02
  -1.260  0.0000E+00  0.0000E+00  0.7200E+02
  -1.250  0.0000E+00  0.0000E+00  0.7200E+02
  -1.240  0.0000E+00  0.0000E+00  0.7200E+02
  -1.230  0.0000E+00  0.0000E+00  0.7200E+02
  -1.220  0.0000E+00  0.0000E+00  0.7200E+02
  -1.210  0.0000E+00  0.0000E+00  0.7200E+02
  -1.200  0.0000E+00  0.0000E+00  0.7200E+02
  -1.190  0.0000E+00  0.0000E+00  0.7200E+02
  -1.180  0.0000E+00  0.0000E+00  0.7200E+02
  -1.170  0.0000E+00  0.0000E+00  0.7200E+02
  -1.160  0.0000E+00  0.0000E+00  0.7200E+02
  -1.150  0.0000E+00  0.0000E+00  0.7200E+02
  -1.140  0.0000E+00  0.0000E+00  0.7200E+02
  -1.130  0.0000E+00  0.0000E+00  0.7200E+02
  -1.120  0.0000E+00  0.0000E+00  0.7200E+02
  -1.110  0.0000E+00  0.0000E+00  0.7200E+02
  -1.100  0.0000E+00  0.0000E+00  0.7200E+02
  -1.090  0.0000E+00  0.0000E+00  0.7200E+02
  -1.080  0.0000E+00  0.0000E+00  0.7200E+02
  -1.070  0.0000E+00  0.0000E+00  0.7200E+02
  -1.060  0.0000E+00  0.0000E+00  0.7200E+02
  -1.050  0.0000E+00  0.0000E+00  0.7200E+02
  -1.040  0.0000E+00  0.0000E+00  0.7200E+02
  -1.030  0.0000E+00  0.0000E+00  0.7200E+02
  -1.020  0.0000E+00  0.0000E+00  0.7200E+02
  -1.010  0.0000E+00  0.0000E+00  0.7200E+02
  -1.000  0.0000E+00  0.0000E+00  0.7200E+02
  -0.990  0.0000E+00  0.0000E+00  0.7200E+02
  -0.980  0.0000E+00  0.0000E+00  0.7200E+02
  -0.970  0.0000E+00  0.0000E+00  0.7200E+02
  -0.960  0.0000E+00  0.0000E+00  0.7200E+02
  -0.950  0.0000E+00  0.0000E+00  0.7200E+02
  -0.940  0.0000E+00  0.0000E+00  0.7200E+02
  -0.930  0.0000E+00  0.0000E+00  0.7200E+02
  -0.920  0.0000E+00  0.0000E+00  0.7200E+02
  -0.910  0.0000E+00  0.0000E+00  0.7200E+02
  -0.900  0.0000E+00  0.0000E+00  0.7200E+02
  -0.890  0.0000E+00  0.0000E+00  0.7200E+02
  -0.880  0.0000E+00  0.0000E+00  0.7200E+02
  -0.870  0.0000E+00  0.0000E+00  0.7200E+02
  -0.860  0.0000E+00  0.0000E+00  0.7200E+02
  -0.850  0.0000E+00  0.0000E+00  0.7200E+02
  -0.840  0.0000E+00  0.0000E+00  0.7200E+02
  -0.830  0.0000E+00  0.0000E+00  0.7200E+02
  -0.820  0.0000E+00  0.0000E+00  0.7200E+02
  -0.810  0.0000E+00  0.0000E+00  0.7200E+02
  -0.800  0.0000E+00  0.0000E+00  0.7200E+02
  -0.790  0.0000E+00  0.0000E+00  0.7200E+02
  -0.780  0.5595E-01  0.5595E-01  0.7200E+02
  -0.770  0.4352E+02  0.4352E+02  0.7232E+02
  -0.760  0.1001E+03  0.1001E+03  0.7388E+02
  -0.750  0.1302E+03  0.1302E+03  0.7614E+02
  -0.740  0.1213E+03  0.1213E+03  0.7900E+02
  -0.730  0.6891E+02  0.6891E+02  0.8102E+02
  -0.720  0.7725E+02  0.7725E+02  0.8233E+02
  -0.710  0.6800E+02  0.6800E+02  0.8375E+02
  -0.700  0.1900E+03  0.1900E+03  0.8615E+02
  -0.690  0.1666E+03  0.1666E+03  0.8957E+02
  -0.680  0.2044E+03  0.2044E+03  0.9356E+02
  -0.670  0.4506E+03  0.4506E+03  0.9913E+02
  -0.660  0.3174E+03  0.3174E+03  0.1048E+03
  -0.650  0.2583E+03  0.2583E+03  0.1102E+03
  -0.640  0.2681E+03  0.2681E+03  0.1158E+03
  -0.630  0.2529E+03  0.2529E+03  0.1219E+03
  -0.620  0.2220E+03  0.2220E+03  0.1266E+03
  -0.610  0.2832E+03  0.2832E+03  0.1319E+03
  -0.600  0.3566E+03  0.3566E+03  0.1386E+03
  -0.590  0.3438E+03  0.3438E+03  0.1459E+03
  -0.580  0.2603E+03  0.2603E+03  0.1522E+03
  -0.570  0.2704E+03  0.2704E+03  0.1563E+03
  -0.560  0.9662E+02  0.9662E+02  0.1594E+03
  -0.550  0.1696E+03  0.1696E+03  0.1636E+03
  -0.540  0.1374E+03  0.1374E+03  0.1666E+03
  -0.530  0.1504E+03  0.1504E+03  0.1698E+03
  -0.520  0.2371E+03  0.2371E+03  0.1732E+03
  -0.510  0.1625E+03  0.1625E+03  0.1770E+03
  -0.500  0.1055E+03  0.1055E+03  0.1801E+03
  -0.490  0.1090E+03  0.1090E+03  0.1836E+03
  -0.480  0.1545E+03  0.1545E+03  0.1865E+03
  -0.470  0.1656E+03  0.1656E+03  0.1904E+03
  -0.460  0.2402E+03  0.2402E+03  0.1948E+03
  -0.450  0.1540E+03  0.1540E+03  0.1983E+03
  -0.440  0.2023E+03  0.2023E+03  0.2017E+03
  -0.430  0.9176E+02  0.9176E+02  0.2046E+03
  -0.420  0.1215E+03  0.1215E+03  0.2069E+03
  -0.410  0.1931E+03  0.1931E+03  0.2101E+03
  -0.400  0.3207E+02  0.3207E+02  0.2138E+03
  -0.390  0.1553E+03  0.1553E+03  0.2155E+03
  -0.380  0.6058E+02  0.6058E+02  0.2173E+03
  -0.370  0.2719E+03  0.2719E+03  0.2211E+03
  -0.360  0.1209E+03  0.1209E+03  0.2240E+03
  -0.350  0.1439E+03  0.1439E+03  0.2265E+03
  -0.340  0.2054E+03  0.2054E+03  0.2302E+03
  -0.330  0.1863E+03  0.1863E+03  0.2339E+03
  -0.320  0.2306E+03  0.2306E+03  0.2382E+03
  -0.310  0.2157E+03  0.2157E+03  0.2427E+03
  -0.300  0.2823E+03  0.2823E+03  0.2483E+03
  -0.290  0.2022E+03  0.2022E+03  0.2535E+03
  -0.280  0.1502E+03  0.1502E+03  0.2569E+03
  -0.270  0.5135E+03  0.5135E+03  0.2605E+03
  -0.260  0.2792E+03  0.2792E+03  0.2696E+03
  -0.250  0.2802E+03  0.2802E+03  0.2763E+03
  -0.240  0.3888E+03  0.3888E+03  0.2826E+03
  -0.230  0.2979E+03  0.2979E+03  0.2907E+03
  -0.220  0.2781E+03  0.2781E+03  0.2965E+03
  -0.210  0.1186E+03  0.1186E+03  0.3000E+03
  -0.200  0.9346E+02  0.9346E+02  0.3019E+03
  -0.190  0.1080E+03  0.1080E+03  0.3043E+03
  -0.180  0.1723E+03  0.1723E+03  0.3067E+03
  -0.170  0.8806E+02  0.8806E+02  0.3099E+03
  -0.160  0.1304E+03  0.1304E+03  0.3118E+03
  -0.150  0.1378E+03  0.1378E+03  0.3154E+03
  -0.140  0.1479E+03  0.1479E+03  0.3178E+03
  -0.130  0.2060E+03  0.2060E+03  0.3219E+03
  -0.120  0.3078E+03  0.3078E+03  0.3276E+03
  -0.110  0.3006E+03  0.3006E+03  0.3334E+03
  -0.100  0.2650E+03  0.2650E+03  0.3384E+03
  -0.090  0.2855E+03  0.2855E+03  0.3441E+03
  -0.080  0.9509E+02  0.9509E+02  0.3499E+03
  -0.070  0.1368E+03  0.1368E+03  0.3521E+03
  -0.060  0.9780E+02  0.9780E+02  0.3547E+03
  -0.050  0.9037E+02  0.9037E+02  0.3564E+03
  -0.040  0.8027E+02  0.8027E+02  0.3582E+03
  -0.030  0.6184E+02  0.6184E+02  0.3596E+03
  -0.020  0.8419E+02  0.8419E+02  0.3609E+03
  -0.010  0.6932E+02  0.6932E+02  0.3626E+03
   0.000  0.5398E+02  0.5398E+02  0.3638E+03
   0.010  0.5901E+02  0.5901E+02  0.3648E+03
   0.020  0.9650E+02  0.9650E+02  0.3666E+03
   0.030  0.9992E+02  0.9992E+02  0.3688E+03
   0.040  0.4005E+02  0.4005E+02  0.3703E+03
   0.050  0.5180E+02  0.5180E+02  0.3712E+03
   0.060  0.5759E+02  0.5759E+02  0.3723E+03
   0.070  0.4781E+02  0.4781E+02  0.3733E+03
   0.080  0.5611E+02  0.5611E+02  0.3743E+03
   0.090  0.7040E+02  0.7040E+02  0.3756E+03
   0.100  0.1015E+03  0.1015E+03  0.3775E+03
   0.110  0.7103E+02  0.7103E+02  0.3792E+03
   0.120  0.4395E+02  0.4395E+02  0.3804E+03
   0.130  0.2656E+02  0.2656E+02  0.3811E+03
   0.140  0.1565E+02  0.1565E+02  0.3815E+03
   0.150  0.1803E+02  0.1803E+02  0.3818E+03
   0.160  0.4594E+01  0.4594E+01  0.3819E+03
   0.170  0.1523E+01  0.1523E+01  0.3820E+03
   0.180  0.1166E+00  0.1166E+00  0.3820E+03
   0.190  0.0000E+00  0.0000E+00  0.3820E+03
   0.200  0.0000E+00  0.0000E+00  0.3820E+03
   0.210  0.0000E+00  0.0000E+00  0.3820E+03
   0.220  0.0000E+00  0.0000E+00  0.3820E+03
   0.230  0.0000E+00  0.0000E+00  0.3820E+03
   0.240  0.0000E+00  0.0000E+00  0.3820E+03
   0.250  0.0000E+00  0.0000E+00  0.3820E+03
   0.260  0.0000E+00  0.0000E+00  0.3820E+03
   0.270  0.0000E+00  0.0000E+00  0.3820E+03
   0.280  0.0000E+00  0.0000E+00  0.3820E+03
   0.290  0.0000E+00  0.0000E+00  0.3820E+03
   0.300  0.0000E+00  0.0000E+00  0.3820E+03
   0.310  0.0000E+00  0.0000E+00  0.3820E+03
   0.320  0.0000E+00  0.0000E+00  0.3820E+03
   0.330  0.1503E-04  0.1503E-04  0.3820E+03
   0.340  0.1659E-02  0.1659E-02  0.3820E+03
   0.350  0.1053E-01  0.1053E-01  0.3820E+03
   0.360  0.3142E-01  0.3142E-01  0.3820E+03
   0.370  0.6518E-01  0.6518E-01  0.3820E+03
   0.380  0.1123E+00  0.1123E+00  0.3820E+03
   0.390  0.1727E+00  0.1727E+00  0.3820E+03
   0.400  0.2466E+00  0.2466E+00  0.3820E+03
   0.410  0.3337E+00  0.3337E+00  0.3820E+03
   0.420  0.4342E+00  0.4342E+00  0.3820E+03
   0.430  0.5481E+00  0.5481E+00  0.3820E+03
   0.440  0.6753E+00  0.6753E+00  0.3820E+03
   0.450  0.8158E+00  0.8158E+00  0.3821E+03
   0.460  0.9768E+00  0.9768E+00  0.3821E+03
   0.470  0.1364E+01  0.1364E+01  0.3821E+03
   0.480  0.2236E+01  0.2236E+01  0.3821E+03
   0.490  0.3102E+01  0.3102E+01  0.3822E+03
   0.500  0.3751E+01  0.3751E+01  0.3823E+03
   0.510  0.4193E+01  0.4193E+01  0.3823E+03
   0.520  0.4433E+01  0.4433E+01  0.3824E+03
   0.530  0.4474E+01  0.4474E+01  0.3825E+03
   0.540  0.4313E+01  0.4313E+01  0.3826E+03
   0.550  0.4021E+01  0.4021E+01  0.3827E+03
   0.560  0.4048E+01  0.4048E+01  0.3828E+03
   0.570  0.4330E+01  0.4330E+01  0.3829E+03
   0.580  0.4631E+01  0.4631E+01  0.3829E+03
   0.590  0.4943E+01  0.4943E+01  0.3830E+03
   0.600  0.5272E+01  0.5272E+01  0.3831E+03
   0.610  0.5617E+01  0.5617E+01  0.3832E+03
   0.620  0.5979E+01  0.5979E+01  0.3834E+03
   0.630  0.6357E+01  0.6357E+01  0.3835E+03
   0.640  0.6748E+01  0.6748E+01  0.3836E+03
   0.650  0.7111E+01  0.7111E+01  0.3838E+03
   0.660  0.7736E+01  0.7736E+01  0.3839E+03
   0.670  0.1033E+02  0.1033E+02  0.3841E+03
   0.680  0.1110E+02  0.1110E+02  0.3843E+03
   0.690  0.1179E+02  0.1179E+02  0.3845E+03
   0.700  0.1248E+02  0.1248E+02  0.3848E+03
   0.710  0.1309E+02  0.1309E+02  0.3850E+03
   0.720  0.1345E+02  0.1345E+02  0.3853E+03
   0.730  0.1275E+02  0.1275E+02  0.3856E+03
   0.740  0.1095E+02  0.1095E+02  0.3858E+03
   0.750  0.1050E+02  0.1050E+02  0.3860E+03
   0.760  0.1082E+02  0.1082E+02  0.3862E+03
   0.770  0.1134E+02  0.1134E+02  0.3864E+03
   0.780  0.1184E+02  0.1184E+02  0.3867E+03
   0.790  0.1211E+02  0.1211E+02  0.3869E+03
   0.800  0.1239E+02  0.1239E+02  0.3872E+03
   0.810  0.1262E+02  0.1262E+02  0.3874E+03
   0.820  0.1282E+02  0.1282E+02  0.3877E+03
   0.830  0.1299E+02  0.1299E+02  0.3879E+03
   0.840  0.1316E+02  0.1316E+02  0.3882E+03
   0.850  0.1353E+02  0.1353E+02  0.3885E+03
   0.860  0.1408E+02  0.1408E+02  0.3887E+03
   0.870  0.1431E+02  0.1431E+02  0.3890E+03
   0.880  0.1441E+02  0.1441E+02  0.3893E+03
   0.890  0.1504E+02  0.1504E+02  0.3896E+03
   0.900  0.1756E+02  0.1756E+02  0.3899E+03
   0.910  0.2083E+02  0.2083E+02  0.3903E+03
   0.920  0.2097E+02  0.2097E+02  0.3907E+03
   0.930  0.1993E+02  0.1993E+02  0.3911E+03
   0.940  0.2191E+02  0.2191E+02  0.3915E+03
   0.950  0.2617E+02  0.2617E+02  0.3920E+03
   0.960  0.3295E+02  0.3295E+02  0.3926E+03
   0.970  0.3986E+02  0.3986E+02  0.3933E+03
   0.980  0.4969E+02  0.4969E+02  0.3942E+03
   0.990  0.4126E+02  0.4126E+02  0.3953E+03
   1.000  0.5543E+02  0.5543E+02  0.3962E+03
   1.010  0.4415E+02  0.4415E+02  0.3972E+03
   1.020  0.4354E+02  0.4354E+02  0.3981E+03
   1.030  0.4833E+02  0.4833E+02  0.3990E+03
   1.040  0.5428E+02  0.5428E+02  0.4000E+03
   1.050  0.5497E+02  0.5497E+02  0.4011E+03
   1.060  0.6610E+02  0.6610E+02  0.4023E+03
   1.070  0.3131E+02  0.3131E+02  0.4032E+03
   1.080  0.2431E+02  0.2431E+02  0.4037E+03
   1.090  0.1016E+02  0.1016E+02  0.4041E+03
   1.100  0.2148E+02  0.2148E+02  0.4044E+03
   1.110  0.3625E+02  0.3625E+02  0.4050E+03
   1.120  0.1809E+02  0.1809E+02  0.4056E+03
   1.130  0.1294E+02  0.1294E+02  0.4059E+03
   1.140  0.1749E+02  0.1749E+02  0.4062E+03
   1.150  0.2053E+02  0.2053E+02  0.4066E+03
   1.160  0.1999E+02  0.1999E+02  0.4070E+03
   1.170  0.2153E+02  0.2153E+02  0.4074E+03
   1.180  0.2221E+02  0.2221E+02  0.4079E+03
   1.190  0.2266E+02  0.2266E+02  0.4083E+03
   1.200  0.2333E+02  0.2333E+02  0.4088E+03
   1.210  0.2341E+02  0.2341E+02  0.4092E+03
   1.220  0.2312E+02  0.2312E+02  0.4097E+03
   1.230  0.2425E+02  0.2425E+02  0.4102E+03
   1.240  0.2575E+02  0.2575E+02  0.4107E+03
   1.250  0.2649E+02  0.2649E+02  0.4112E+03
   1.260  0.2654E+02  0.2654E+02  0.4117E+03
   1.270  0.2595E+02  0.2595E+02  0.4123E+03
   1.280  0.2523E+02  0.2523E+02  0.4128E+03
   1.290  0.2400E+02  0.2400E+02  0.4133E+03
   1.300  0.2244E+02  0.2244E+02  0.4137E+03
   1.310  0.2032E+02  0.2032E+02  0.4142E+03
   1.320  0.1788E+02  0.1788E+02  0.4145E+03
   1.330  0.1628E+02  0.1628E+02  0.4149E+03
   1.340  0.1521E+02  0.1521E+02  0.4152E+03
   1.350  0.1454E+02  0.1454E+02  0.4155E+03
   1.360  0.1431E+02  0.1431E+02  0.4158E+03
   1.370  0.1436E+02  0.1436E+02  0.4161E+03
   1.380  0.1460E+02  0.1460E+02  0.4164E+03
   1.390  0.1545E+02  0.1545E+02  0.4167E+03
   1.400  0.1748E+02  0.1748E+02  0.4170E+03
   1.410  0.1952E+02  0.1952E+02  0.4174E+03
   1.420  0.2218E+02  0.2218E+02  0.4178E+03
   1.430  0.1656E+02  0.1656E+02  0.4182E+03
   1.440  0.1560E+02  0.1560E+02  0.4185E+03
   1.450  0.1481E+02  0.1481E+02  0.4188E+03
   1.460  0.1406E+02  0.1406E+02  0.4191E+03
   1.470  0.1335E+02  0.1335E+02  0.4193E+03
   1.480  0.1272E+02  0.1272E+02  0.4196E+03
   1.490  0.1269E+02  0.1269E+02  0.4199E+03
   1.500  0.1290E+02  0.1290E+02  0.4201E+03
   1.510  0.1312E+02  0.1312E+02  0.4204E+03
   1.520  0.1361E+02  0.1361E+02  0.4206E+03
   1.530  0.1346E+02  0.1346E+02  0.4209E+03
   1.540  0.1317E+02  0.1317E+02  0.4212E+03
   1.550  0.1269E+02  0.1269E+02  0.4214E+03
   1.560  0.1213E+02  0.1213E+02  0.4217E+03
   1.570  0.1173E+02  0.1173E+02  0.4219E+03
   1.580  0.1138E+02  0.1138E+02  0.4222E+03
   1.590  0.1103E+02  0.1103E+02  0.4224E+03
   1.600  0.1064E+02  0.1064E+02  0.4226E+03
   1.610  0.1024E+02  0.1024E+02  0.4228E+03
   1.620  0.9969E+01  0.9969E+01  0.4230E+03
   1.630  0.9752E+01  0.9752E+01  0.4232E+03
   1.640  0.9837E+01  0.9837E+01  0.4234E+03
   1.650  0.9903E+01  0.9903E+01  0.4236E+03
   1.660  0.9630E+01  0.9630E+01  0.4238E+03
   1.670  0.9309E+01  0.9309E+01  0.4240E+03
   1.680  0.9349E+01  0.9349E+01  0.4242E+03
   1.690  0.9256E+01  0.9256E+01  0.4244E+03
   1.700  0.8704E+01  0.8704E+01  0.4245E+03
   1.710  0.7874E+01  0.7874E+01  0.4247E+03
   1.720  0.8430E+01  0.8430E+01  0.4249E+03
   1.730  0.9010E+01  0.9010E+01  0.4250E+03
   1.740  0.1127E+02  0.1127E+02  0.4252E+03
   1.750  0.1137E+02  0.1137E+02  0.4255E+03
   1.760  0.9544E+01  0.9544E+01  0.4257E+03
   1.770  0.7913E+01  0.7913E+01  0.4258E+03
   1.780  0.7103E+01  0.7103E+01  0.4260E+03
   1.790  0.7307E+01  0.7307E+01  0.4261E+03
   1.800  0.7723E+01  0.7723E+01  0.4263E+03
   1.810  0.8254E+01  0.8254E+01  0.4264E+03
   1.820  0.8712E+01  0.8712E+01  0.4266E+03
   1.830  0.9023E+01  0.9023E+01  0.4268E+03
   1.840  0.9260E+01  0.9260E+01  0.4270E+03
   1.850  0.9217E+01  0.9217E+01  0.4272E+03
   1.860  0.8961E+01  0.8961E+01  0.4273E+03
   1.870  0.8914E+01  0.8914E+01  0.4275E+03
   1.880  0.8912E+01  0.8912E+01  0.4277E+03
   1.890  0.8863E+01  0.8863E+01  0.4279E+03
   1.900  0.8765E+01  0.8765E+01  0.4281E+03
   1.910  0.8615E+01  0.8615E+01  0.4282E+03
   1.920  0.8418E+01  0.8418E+01  0.4284E+03
   1.930  0.8194E+01  0.8194E+01  0.4286E+03
   1.940  0.8009E+01  0.8009E+01  0.4287E+03
   1.950  0.7849E+01  0.7849E+01  0.4289E+03
   1.960  0.7688E+01  0.7688E+01  0.4290E+03
   1.970  0.7522E+01  0.7522E+01  0.4292E+03
   1.980  0.7437E+01  0.7437E+01  0.4293E+03
   1.990  0.8530E+01  0.8530E+01  0.4295E+03
   2.000  0.1038E+02  0.1038E+02  0.4297E+03
   2.010  0.9634E+01  0.9634E+01  0.4299E+03
   2.020  0.7682E+01  0.7682E+01  0.4301E+03
   2.030  0.6477E+01  0.6477E+01  0.4302E+03
   2.040  0.5695E+01  0.5694E+01  0.4303E+03
   2.050  0.5131E+01  0.5131E+01  0.4304E+03
   2.060  0.4873E+01  0.4873E+01  0.4305E+03
   2.070  0.4798E+01  0.4798E+01  0.4306E+03
   2.080  0.4809E+01  0.4809E+01  0.4307E+03
   2.090  0.4835E+01  0.4835E+01  0.4308E+03
   2.100  0.4868E+01  0.4868E+01  0.4309E+03
   2.110  0.5051E+01  0.5051E+01  0.4310E+03
   2.120  0.6272E+01  0.6272E+01  0.4311E+03
   2.130  0.7936E+01  0.7936E+01  0.4313E+03
   2.140  0.8897E+01  0.8897E+01  0.4314E+03
   2.150  0.9478E+01  0.9478E+01  0.4316E+03
   2.160  0.1008E+02  0.1008E+02  0.4318E+03
   2.170  0.1048E+02  0.1048E+02  0.4320E+03
   2.180  0.1035E+02  0.1035E+02  0.4322E+03
   2.190  0.1032E+02  0.1032E+02  0.4324E+03
   2.200  0.9619E+01  0.9619E+01  0.4326E+03
   2.210  0.8451E+01  0.8451E+01  0.4328E+03
   2.220  0.7345E+01  0.7345E+01  0.4330E+03
   2.230  0.6453E+01  0.6453E+01  0.4331E+03
   2.240  0.6069E+01  0.6069E+01  0.4332E+03
   2.250  0.5881E+01  0.5881E+01  0.4334E+03
   2.260  0.5735E+01  0.5735E+01  0.4335E+03
   2.270  0.5631E+01  0.5631E+01  0.4336E+03
   2.280  0.5564E+01  0.5564E+01  0.4337E+03
   2.290  0.5536E+01  0.5536E+01  0.4338E+03
   2.300  0.5553E+01  0.5553E+01  0.4339E+03
   2.310  0.5635E+01  0.5635E+01  0.4340E+03
   2.320  0.5665E+01  0.5665E+01  0.4342E+03
   2.330  0.5675E+01  0.5675E+01  0.4343E+03
   2.340  0.5637E+01  0.5637E+01  0.4344E+03
   2.350  0.5553E+01  0.5553E+01  0.4345E+03
   2.360  0.5427E+01  0.5427E+01  0.4346E+03
   2.370  0.5259E+01  0.5259E+01  0.4347E+03
   2.380  0.5088E+01  0.5088E+01  0.4348E+03
   2.390  0.4928E+01  0.4928E+01  0.4349E+03
   2.400  0.4819E+01  0.4819E+01  0.4350E+03
   2.410  0.5124E+01  0.5124E+01  0.4351E+03
   2.420  0.6197E+01  0.6197E+01  0.4352E+03
   2.430  0.7012E+01  0.7012E+01  0.4354E+03
   2.440  0.7384E+01  0.7384E+01  0.4355E+03
   2.450  0.7750E+01  0.7750E+01  0.4356E+03
   2.460  0.7997E+01  0.7997E+01  0.4358E+03
   2.470  0.8236E+01  0.8236E+01  0.4360E+03
   2.480  0.8446E+01  0.8446E+01  0.4361E+03
   2.490  0.8882E+01  0.8882E+01  0.4363E+03
   2.500  0.9882E+01  0.9882E+01  0.4365E+03
   2.510  0.1055E+02  0.1055E+02  0.4367E+03
   2.520  0.1113E+02  0.1113E+02  0.4369E+03
   2.530  0.1168E+02  0.1168E+02  0.4371E+03
   2.540  0.1222E+02  0.1222E+02  0.4374E+03
   2.550  0.1271E+02  0.1271E+02  0.4376E+03
   2.560  0.1318E+02  0.1318E+02  0.4379E+03
   2.570  0.1365E+02  0.1365E+02  0.4382E+03
   2.580  0.1413E+02  0.1413E+02  0.4384E+03
   2.590  0.1474E+02  0.1474E+02  0.4387E+03
   2.600  0.1535E+02  0.1535E+02  0.4390E+03
   2.610  0.1596E+02  0.1596E+02  0.4393E+03
   2.620  0.1678E+02  0.1678E+02  0.4397E+03
   2.630  0.1758E+02  0.1758E+02  0.4400E+03
   2.640  0.1827E+02  0.1827E+02  0.4404E+03
   2.650  0.1885E+02  0.1885E+02  0.4407E+03
   2.660  0.1924E+02  0.1924E+02  0.4411E+03
   2.670  0.1970E+02  0.1970E+02  0.4415E+03
   2.680  0.2073E+02  0.2073E+02  0.4419E+03
   2.690  0.2348E+02  0.2348E+02  0.4424E+03
   2.700  0.3071E+02  0.3071E+02  0.4429E+03
   2.710  0.3687E+02  0.3687E+02  0.4436E+03
   2.720  0.4377E+02  0.4377E+02  0.4444E+03
   2.730  0.4455E+02  0.4455E+02  0.4452E+03
   2.740  0.3894E+02  0.3894E+02  0.4461E+03
   2.750  0.2515E+02  0.2515E+02  0.4467E+03
   2.760  0.1872E+02  0.1873E+02  0.4471E+03
   2.770  0.1951E+02  0.1951E+02  0.4475E+03
   2.780  0.1820E+02  0.1820E+02  0.4479E+03
   2.790  0.1769E+02  0.1769E+02  0.4482E+03
   2.800  0.2198E+02  0.2198E+02  0.4486E+03
   2.810  0.2430E+02  0.2430E+02  0.4491E+03
   2.820  0.2683E+02  0.2683E+02  0.4496E+03
   2.830  0.2764E+02  0.2764E+02  0.4502E+03
   2.840  0.2403E+02  0.2403E+02  0.4507E+03
   2.850  0.2034E+02  0.2034E+02  0.4511E+03
   2.860  0.1529E+02  0.1529E+02  0.4515E+03
   2.870  0.1122E+02  0.1122E+02  0.4517E+03
   2.880  0.1141E+02  0.1141E+02  0.4520E+03
   2.890  0.1188E+02  0.1188E+02  0.4522E+03
   2.900  0.1199E+02  0.1199E+02  0.4524E+03
   2.910  0.1242E+02  0.1242E+02  0.4527E+03
   2.920  0.1297E+02  0.1297E+02  0.4529E+03
   2.930  0.1396E+02  0.1396E+02  0.4532E+03
   2.940  0.1531E+02  0.1531E+02  0.4535E+03
   2.950  0.1682E+02  0.1682E+02  0.4538E+03
   2.960  0.1919E+02  0.1919E+02  0.4542E+03
   2.970  0.2076E+02  0.2076E+02  0.4546E+03
   2.980  0.2166E+02  0.2166E+02  0.4550E+03
   2.990  0.2212E+02  0.2212E+02  0.4555E+03
   3.000  0.2259E+02  0.2259E+02  0.4559E+03
   3.010  0.2293E+02  0.2293E+02  0.4564E+03
   3.020  0.2354E+02  0.2354E+02  0.4568E+03
   3.030  0.2601E+02  0.2601E+02  0.4573E+03
   3.040  0.2783E+02  0.2783E+02  0.4578E+03
   3.050  0.2933E+02  0.2933E+02  0.4584E+03
   3.060  0.2914E+02  0.2914E+02  0.4590E+03
   3.070  0.2994E+02  0.2994E+02  0.4596E+03
   3.080  0.3313E+02  0.3313E+02  0.4602E+03
   3.090  0.3243E+02  0.3243E+02  0.4609E+03
   3.100  0.3189E+02  0.3189E+02  0.4615E+03
   3.110  0.2884E+02  0.2884E+02  0.4621E+03
   3.120  0.2784E+02  0.2784E+02  0.4627E+03
   3.130  0.2747E+02  0.2747E+02  0.4632E+03
   3.140  0.2778E+02  0.2778E+02  0.4638E+03
   3.150  0.2814E+02  0.2814E+02  0.4644E+03
   3.160  0.2656E+02  0.2656E+02  0.4649E+03
   3.170  0.2044E+02  0.2044E+02  0.4654E+03
   3.180  0.1857E+02  0.1857E+02  0.4658E+03
   3.190  0.1650E+02  0.1650E+02  0.4661E+03
   3.200  0.1506E+02  0.1506E+02  0.4664E+03
   3.210  0.1354E+02  0.1354E+02  0.4667E+03
   3.220  0.1260E+02  0.1260E+02  0.4670E+03
   3.230  0.1308E+02  0.1308E+02  0.4672E+03
   3.240  0.1432E+02  0.1432E+02  0.4675E+03
   3.250  0.1615E+02  0.1615E+02  0.4678E+03
   3.260  0.2470E+02  0.2470E+02  0.4681E+03
   3.270  0.2366E+02  0.2366E+02  0.4687E+03
   3.280  0.2554E+02  0.2554E+02  0.4692E+03
   3.290  0.2664E+02  0.2664E+02  0.4697E+03
   3.300  0.2778E+02  0.2778E+02  0.4703E+03
   3.310  0.2841E+02  0.2841E+02  0.4708E+03
   3.320  0.2836E+02  0.2836E+02  0.4714E+03
   3.330  0.2859E+02  0.2859E+02  0.4720E+03
   3.340  0.2900E+02  0.2900E+02  0.4725E+03
   3.350  0.2936E+02  0.2936E+02  0.4731E+03
   3.360  0.2882E+02  0.2882E+02  0.4737E+03
   3.370  0.2895E+02  0.2895E+02  0.4743E+03
   3.380  0.2809E+02  0.2809E+02  0.4748E+03
   3.390  0.2798E+02  0.2798E+02  0.4754E+03
   3.400  0.2849E+02  0.2849E+02  0.4760E+03
   3.410  0.2883E+02  0.2883E+02  0.4765E+03
   3.420  0.2920E+02  0.2920E+02  0.4771E+03
   3.430  0.3003E+02  0.3003E+02  0.4777E+03
   3.440  0.3076E+02  0.3076E+02  0.4783E+03
   3.450  0.3150E+02  0.3150E+02  0.4789E+03
   3.460  0.3219E+02  0.3219E+02  0.4796E+03
   3.470  0.3290E+02  0.3290E+02  0.4802E+03
   3.480  0.3342E+02  0.3342E+02  0.4809E+03
   3.490  0.3262E+02  0.3262E+02  0.4816E+03
   3.500  0.3241E+02  0.3241E+02  0.4822E+03
   3.510  0.3226E+02  0.3226E+02  0.4829E+03
   3.520  0.3270E+02  0.3270E+02  0.4835E+03
   3.530  0.3334E+02  0.3334E+02  0.4842E+03
   3.540  0.3334E+02  0.3334E+02  0.4848E+03
   3.550  0.3224E+02  0.3224E+02  0.4855E+03
   3.560  0.3182E+02  0.3182E+02  0.4861E+03
   3.570  0.3206E+02  0.3206E+02  0.4868E+03
   3.580  0.3151E+02  0.3151E+02  0.4874E+03
   3.590  0.3110E+02  0.3110E+02  0.4880E+03
   3.600  0.2990E+02  0.2990E+02  0.4886E+03
   3.610  0.3028E+02  0.3028E+02  0.4892E+03
   3.620  0.2955E+02  0.2955E+02  0.4898E+03
   3.630  0.2905E+02  0.2905E+02  0.4905E+03
   3.640  0.2803E+02  0.2803E+02  0.4910E+03
   3.650  0.2888E+02  0.2888E+02  0.4916E+03
   3.660  0.2897E+02  0.2897E+02  0.4922E+03
   3.670  0.3068E+02  0.3068E+02  0.4928E+03
   3.680  0.2885E+02  0.2885E+02  0.4934E+03
   3.690  0.2800E+02  0.2800E+02  0.4939E+03
   3.700  0.2749E+02  0.2749E+02  0.4945E+03
   3.710  0.2684E+02  0.2684E+02  0.4950E+03
   3.720  0.2680E+02  0.2680E+02  0.4956E+03
   3.730  0.2687E+02  0.2687E+02  0.4961E+03
   3.740  0.2971E+02  0.2971E+02  0.4966E+03
   3.750  0.2969E+02  0.2969E+02  0.4973E+03
   3.760  0.2855E+02  0.2855E+02  0.4978E+03
   3.770  0.2881E+02  0.2881E+02  0.4984E+03
   3.780  0.3689E+02  0.3689E+02  0.4991E+03
   3.790  0.4148E+02  0.4148E+02  0.4999E+03
   3.800  0.3632E+02  0.3632E+02  0.5007E+03
   3.810  0.3797E+02  0.3797E+02  0.5013E+03
   3.820  0.3701E+02  0.3701E+02  0.5021E+03
   3.830  0.3931E+02  0.3931E+02  0.5028E+03
   3.840  0.3631E+02  0.3631E+02  0.5036E+03
   3.850  0.3453E+02  0.3453E+02  0.5043E+03
   3.860  0.3237E+02  0.3237E+02  0.5050E+03
   3.870  0.2959E+02  0.2959E+02  0.5056E+03
   3.880  0.2656E+02  0.2656E+02  0.5062E+03
   3.890  0.2772E+02  0.2772E+02  0.5067E+03
   3.900  0.2729E+02  0.2729E+02  0.5073E+03
   3.910  0.2768E+02  0.2768E+02  0.5078E+03
   3.920  0.2782E+02  0.2782E+02  0.5084E+03
   3.930  0.2742E+02  0.2742E+02  0.5089E+03
   3.940  0.2610E+02  0.2610E+02  0.5094E+03
   3.950  0.2727E+02  0.2727E+02  0.5100E+03
   3.960  0.2674E+02  0.2674E+02  0.5105E+03
   3.970  0.2536E+02  0.2536E+02  0.5110E+03
   3.980  0.2648E+02  0.2648E+02  0.5116E+03
   3.990  0.2783E+02  0.2783E+02  0.5121E+03
   4.000  0.2876E+02  0.2876E+02  0.5127E+03
   4.010  0.2912E+02  0.2912E+02  0.5132E+03
   4.020  0.2964E+02  0.2964E+02  0.5138E+03
   4.030  0.2954E+02  0.2954E+02  0.5144E+03
   4.040  0.2837E+02  0.2837E+02  0.5150E+03
   4.050  0.2865E+02  0.2865E+02  0.5156E+03
   4.060  0.2927E+02  0.2927E+02  0.5162E+03
   4.070  0.3025E+02  0.3025E+02  0.5167E+03
   4.080  0.3032E+02  0.3032E+02  0.5174E+03
   4.090  0.3022E+02  0.3022E+02  0.5180E+03
   4.100  0.2998E+02  0.2998E+02  0.5186E+03
   4.110  0.3002E+02  0.3002E+02  0.5192E+03
   4.120  0.3015E+02  0.3015E+02  0.5198E+03
   4.130  0.3095E+02  0.3095E+02  0.5204E+03
   4.140  0.3173E+02  0.3173E+02  0.5210E+03
   4.150  0.3258E+02  0.3258E+02  0.5216E+03
   4.160  0.3333E+02  0.3333E+02  0.5223E+03
   4.170  0.3394E+02  0.3394E+02  0.5230E+03
   4.180  0.3334E+02  0.3334E+02  0.5236E+03
   4.190  0.3281E+02  0.3281E+02  0.5243E+03
   4.200  0.3121E+02  0.3121E+02  0.5250E+03
   4.210  0.3082E+02  0.3082E+02  0.5256E+03
   4.220  0.3146E+02  0.3146E+02  0.5262E+03
   4.230  0.3206E+02  0.3206E+02  0.5268E+03
   4.240  0.3269E+02  0.3269E+02  0.5275E+03
   4.250  0.3487E+02  0.3487E+02  0.5281E+03
   4.260  0.3667E+02  0.3667E+02  0.5289E+03
   4.270  0.3677E+02  0.3677E+02  0.5296E+03
   4.280  0.4038E+02  0.4038E+02  0.5304E+03
   4.290  0.3943E+02  0.3943E+02  0.5312E+03
   4.300  0.4479E+02  0.4479E+02  0.5320E+03
   4.310  0.4154E+02  0.4154E+02  0.5329E+03
   4.320  0.3681E+02  0.3681E+02  0.5337E+03
   4.330  0.3258E+02  0.3258E+02  0.5344E+03
   4.340  0.2905E+02  0.2905E+02  0.5350E+03
   4.350  0.2703E+02  0.2703E+02  0.5355E+03
   4.360  0.2676E+02  0.2676E+02  0.5361E+03
   4.370  0.2653E+02  0.2653E+02  0.5366E+03
   4.380  0.2644E+02  0.2644E+02  0.5371E+03
   4.390  0.2689E+02  0.2689E+02  0.5377E+03
   4.400  0.2462E+02  0.2462E+02  0.5382E+03
   4.410  0.2229E+02  0.2229E+02  0.5387E+03
   4.420  0.2126E+02  0.2126E+02  0.5391E+03
   4.430  0.2153E+02  0.2153E+02  0.5395E+03
   4.440  0.2173E+02  0.2173E+02  0.5400E+03
   4.450  0.2235E+02  0.2235E+02  0.5404E+03
   4.460  0.2451E+02  0.2451E+02  0.5409E+03
   4.470  0.2403E+02  0.2403E+02  0.5414E+03
   4.480  0.2367E+02  0.2367E+02  0.5418E+03
   4.490  0.2311E+02  0.2311E+02  0.5423E+03
   4.500  0.2208E+02  0.2208E+02  0.5428E+03
   4.510  0.2272E+02  0.2272E+02  0.5432E+03
   4.520  0.2600E+02  0.2600E+02  0.5437E+03
   4.530  0.2493E+02  0.2493E+02  0.5442E+03
   4.540  0.2578E+02  0.2578E+02  0.5447E+03
   4.550  0.2805E+02  0.2805E+02  0.5452E+03
   4.560  0.3058E+02  0.3058E+02  0.5458E+03
   4.570  0.3207E+02  0.3207E+02  0.5465E+03
   4.580  0.3253E+02  0.3253E+02  0.5471E+03
   4.590  0.3373E+02  0.3373E+02  0.5478E+03
   4.600  0.3552E+02  0.3552E+02  0.5485E+03
   4.610  0.3719E+02  0.3719E+02  0.5492E+03
   4.620  0.5601E+02  0.5601E+02  0.5500E+03
   4.630  0.3165E+02  0.3165E+02  0.5507E+03
   4.640  0.2499E+02  0.2499E+02  0.5512E+03
   4.650  0.4268E+02  0.4268E+02  0.5519E+03
   4.660  0.3035E+02  0.3035E+02  0.5527E+03
   4.670  0.2709E+02  0.2709E+02  0.5533E+03
   4.680  0.2782E+02  0.2782E+02  0.5538E+03
   4.690  0.2908E+02  0.2908E+02  0.5544E+03
   4.700  0.2827E+02  0.2827E+02  0.5549E+03
   4.710  0.2745E+02  0.2745E+02  0.5555E+03
   4.720  0.2645E+02  0.2645E+02  0.5560E+03
   4.730  0.2518E+02  0.2518E+02  0.5566E+03
   4.740  0.2833E+02  0.2832E+02  0.5571E+03
   4.750  0.2594E+02  0.2594E+02  0.5577E+03
   4.760  0.2044E+02  0.2044E+02  0.5581E+03
   4.770  0.1884E+02  0.1884E+02  0.5585E+03
   4.780  0.2088E+02  0.2088E+02  0.5589E+03
   4.790  0.2091E+02  0.2091E+02  0.5593E+03
   4.800  0.2237E+02  0.2237E+02  0.5598E+03
   4.810  0.2342E+02  0.2342E+02  0.5602E+03
   4.820  0.2075E+02  0.2075E+02  0.5607E+03
   4.830  0.1969E+02  0.1969E+02  0.5611E+03
   4.840  0.1907E+02  0.1907E+02  0.5615E+03
   4.850  0.1837E+02  0.1837E+02  0.5618E+03
   4.860  0.1782E+02  0.1782E+02  0.5622E+03
   4.870  0.1735E+02  0.1735E+02  0.5625E+03
   4.880  0.1777E+02  0.1777E+02  0.5629E+03
   4.890  0.1842E+02  0.1842E+02  0.5633E+03
   4.900  0.1798E+02  0.1798E+02  0.5636E+03
   4.910  0.1654E+02  0.1654E+02  0.5640E+03
   4.920  0.1606E+02  0.1606E+02  0.5643E+03
   4.930  0.1583E+02  0.1583E+02  0.5646E+03
   4.940  0.1591E+02  0.1591E+02  0.5649E+03
   4.950  0.1590E+02  0.1590E+02  0.5652E+03
   4.960  0.1527E+02  0.1527E+02  0.5656E+03
   4.970  0.1426E+02  0.1426E+02  0.5659E+03
   4.980  0.1345E+02  0.1345E+02  0.5661E+03
   4.990  0.1347E+02  0.1347E+02  0.5664E+03
   5.000  0.1379E+02  0.1379E+02  0.5667E+03
   5.010  0.1469E+02  0.1469E+02  0.5670E+03
   5.020  0.1650E+02  0.1650E+02  0.5673E+03
   5.030  0.1463E+02  0.1463E+02  0.5676E+03
   5.040  0.1279E+02  0.1279E+02  0.5679E+03
   5.050  0.1149E+02  0.1149E+02  0.5681E+03
   5.060  0.1077E+02  0.1077E+02  0.5683E+03
   5.070  0.1018E+02  0.1018E+02  0.5685E+03
   5.080  0.9597E+01  0.9597E+01  0.5687E+03
   5.090  0.9076E+01  0.9076E+01  0.5689E+03
   5.100  0.8488E+01  0.8488E+01  0.5691E+03
   5.110  0.7944E+01  0.7944E+01  0.5693E+03
   5.120  0.7618E+01  0.7618E+01  0.5694E+03
   5.130  0.7739E+01  0.7739E+01  0.5696E+03
   5.140  0.8695E+01  0.8695E+01  0.5697E+03
   5.150  0.9483E+01  0.9482E+01  0.5699E+03
   5.160  0.7667E+01  0.7667E+01  0.5701E+03
   5.170  0.8223E+01  0.8223E+01  0.5702E+03
   5.180  0.1080E+02  0.1080E+02  0.5704E+03
   5.190  0.1235E+02  0.1235E+02  0.5707E+03
   5.200  0.1215E+02  0.1215E+02  0.5709E+03
   5.210  0.1243E+02  0.1243E+02  0.5711E+03
   5.220  0.1268E+02  0.1268E+02  0.5714E+03
   5.230  0.1297E+02  0.1297E+02  0.5717E+03
   5.240  0.1320E+02  0.1320E+02  0.5719E+03
   5.250  0.1239E+02  0.1239E+02  0.5722E+03
   5.260  0.1120E+02  0.1120E+02  0.5724E+03
   5.270  0.9933E+01  0.9933E+01  0.5726E+03
   5.280  0.8906E+01  0.8906E+01  0.5728E+03
   5.290  0.8055E+01  0.8055E+01  0.5730E+03
   5.300  0.7210E+01  0.7210E+01  0.5731E+03
   5.310  0.6379E+01  0.6379E+01  0.5733E+03
   5.320  0.5602E+01  0.5602E+01  0.5734E+03
   5.330  0.4932E+01  0.4932E+01  0.5735E+03
   5.340  0.4743E+01  0.4743E+01  0.5736E+03
   5.350  0.4704E+01  0.4704E+01  0.5737E+03
   5.360  0.4351E+01  0.4351E+01  0.5738E+03
   5.370  0.3728E+01  0.3728E+01  0.5739E+03
   5.380  0.2832E+01  0.2832E+01  0.5739E+03
   5.390  0.1636E+01  0.1636E+01  0.5740E+03
   5.400  0.5528E+00  0.5528E+00  0.5740E+03
   5.410  0.2496E+00  0.2496E+00  0.5740E+03
   5.420  0.7760E-01  0.7761E-01  0.5740E+03
   5.430  0.6883E-02  0.6884E-02  0.5740E+03
   5.440  0.1095E-02  0.1095E-02  0.5740E+03
   5.450  0.2554E-03  0.2554E-03  0.5740E+03
   5.460  0.7700E-06  0.7706E-06  0.5740E+03
   5.470  0.0000E+00  0.0000E+00  0.5740E+03
   5.480  0.0000E+00  0.0000E+00  0.5740E+03
   5.490  0.0000E+00  0.0000E+00  0.5740E+03
   5.500  0.0000E+00  0.0000E+00  0.5740E+03
   5.510  0.0000E+00  0.0000E+00  0.5740E+03
   5.520  0.0000E+00  0.0000E+00  0.5740E+03
   5.530  0.0000E+00  0.0000E+00  0.5740E+03
   5.540  0.0000E+00  0.0000E+00  0.5740E+03
   5.550  0.0000E+00  0.0000E+00  0.5740E+03
   5.560  0.0000E+00  0.0000E+00  0.5740E+03
   5.570  0.0000E+00  0.0000E+00  0.5740E+03
   5.580  0.0000E+00  0.0000E+00  0.5740E+03
   5.590  0.0000E+00  0.0000E+00  0.5740E+03
   5.600  0.0000E+00  0.0000E+00  0.5740E+03
   5.610  0.0000E+00  0.0000E+00  0.5740E+03
   5.620  0.0000E+00  0.0000E+00  0.5740E+03
   5.630  0.0000E+00  0.0000E+00  0.5740E+03
   5.640  0.0000E+00  0.0000E+00  0.5740E+03
   5.650  0.0000E+00  0.0000E+00  0.5740E+03
   5.660  0.0000E+00  0.0000E+00  0.5740E+03
   5.670  0.0000E+00  0.0000E+00  0.5740E+03
   5.680  0.0000E+00  0.0000E+00  0.5740E+03
   5.690  0.0000E+00  0.0000E+00  0.5740E+03
   5.700  0.0000E+00  0.0000E+00  0.5740E+03
   5.710  0.0000E+00  0.0000E+00  0.5740E+03
   5.720  0.0000E+00  0.0000E+00  0.5740E+03
   5.730  0.0000E+00  0.0000E+00  0.5740E+03
   5.740  0.0000E+00  0.0000E+00  0.5740E+03
   5.750  0.0000E+00  0.0000E+00  0.5740E+03
   5.760  0.0000E+00  0.0000E+00  0.5740E+03
   5.770  0.0000E+00  0.0000E+00  0.5740E+03
   5.780  0.0000E+00  0.0000E+00  0.5740E+03
   5.790  0.0000E+00  0.0000E+00  0.5740E+03
   5.800  0.0000E+00  0.0000E+00  0.5740E+03
   5.810  0.0000E+00  0.0000E+00  0.5740E+03
   5.820  0.0000E+00  0.0000E+00  0.5740E+03
   5.830  0.0000E+00  0.0000E+00  0.5740E+03
   5.840  0.0000E+00  0.0000E+00  0.5740E+03
   5.850  0.1302E+02  0.1301E+02  0.5741E+03
   5.860  0.7657E+02  0.7656E+02  0.5749E+03
   5.870  0.8480E+02  0.8480E+02  0.5764E+03
   5.880  0.3555E+02  0.3557E+02  0.5777E+03
   5.890  0.4518E+01  0.4520E+01  0.5780E+03
   5.900  0.1374E+00  0.1377E+00  0.5780E+03
   5.910  0.0000E+00  0.0000E+00  0.5780E+03
   5.920  0.0000E+00  0.0000E+00  0.5780E+03
   5.930  0.0000E+00  0.0000E+00  0.5780E+03
   5.940  0.0000E+00  0.0000E+00  0.5780E+03
   5.950  0.0000E+00  0.0000E+00  0.5780E+03
   5.960  0.0000E+00  0.0000E+00  0.5780E+03
   5.970  0.0000E+00  0.0000E+00  0.5780E+03
   5.980  0.0000E+00  0.0000E+00  0.5780E+03
   5.990  0.0000E+00  0.0000E+00  0.5780E+03
   6.000  0.0000E+00  0.0000E+00  0.5780E+03
   6.010  0.0000E+00  0.0000E+00  0.5780E+03
   6.020  0.0000E+00  0.0000E+00  0.5780E+03
   6.030  0.0000E+00  0.0000E+00  0.5780E+03
   6.040  0.0000E+00  0.0000E+00  0.5780E+03
   6.050  0.0000E+00  0.0000E+00  0.5780E+03
   6.060  0.0000E+00  0.0000E+00  0.5780E+03
   6.070  0.0000E+00  0.0000E+00  0.5780E+03
   6.080  0.0000E+00  0.0000E+00  0.5780E+03
   6.090  0.0000E+00  0.0000E+00  0.5780E+03
   6.100  0.0000E+00  0.0000E+00  0.5780E+03
   6.110  0.0000E+00  0.0000E+00  0.5780E+03
   6.120  0.0000E+00  0.0000E+00  0.5780E+03
   6.130  0.0000E+00  0.0000E+00  0.5780E+03
   6.140  0.0000E+00  0.0000E+00  0.5780E+03
   6.150  0.0000E+00  0.0000E+00  0.5780E+03
   6.160  0.0000E+00  0.0000E+00  0.5780E+03
   6.170  0.0000E+00  0.0000E+00  0.5780E+03
   6.180  0.0000E+00  0.0000E+00  0.5780E+03
   6.190  0.0000E+00  0.0000E+00  0.5780E+03
   6.200  0.0000E+00  0.0000E+00  0.5780E+03
   6.210  0.0000E+00  0.0000E+00  0.5780E+03
   6.220  0.0000E+00  0.0000E+00  0.5780E+03
   6.230  0.0000E+00  0.0000E+00  0.5780E+03
   6.240  0.0000E+00  0.0000E+00  0.5780E+03
   6.250  0.0000E+00  0.0000E+00  0.5780E+03
   6.260  0.0000E+00  0.0000E+00  0.5780E+03
   6.270  0.0000E+00  0.0000E+00  0.5780E+03
   6.280  0.0000E+00  0.0000E+00  0.5780E+03
   6.290  0.0000E+00  0.0000E+00  0.5780E+03
   6.300  0.0000E+00  0.0000E+00  0.5780E+03
   6.310  0.0000E+00  0.0000E+00  0.5780E+03
   6.320  0.0000E+00  0.0000E+00  0.5780E+03
   6.330  0.0000E+00  0.0000E+00  0.5780E+03
   6.340  0.0000E+00  0.0000E+00  0.5780E+03
   6.350  0.0000E+00  0.0000E+00  0.5780E+03
   6.360  0.0000E+00  0.0000E+00  0.5780E+03
   6.370  0.6612E-02  0.6588E-02  0.5780E+03
   6.380  0.8373E+00  0.8367E+00  0.5780E+03
   6.390  0.4108E+01  0.4106E+01  0.5780E+03
   6.400  0.1643E+02  0.1642E+02  0.5782E+03
   6.410  0.2942E+02  0.2941E+02  0.5787E+03
   6.420  0.2444E+02  0.2444E+02  0.5793E+03
   6.430  0.9769E+01  0.9770E+01  0.5796E+03
   6.440  0.1601E+02  0.1601E+02  0.5799E+03
   6.450  0.2706E+02  0.2706E+02  0.5803E+03
   6.460  0.3352E+02  0.3352E+02  0.5809E+03
   6.470  0.5528E+02  0.5528E+02  0.5818E+03
   6.480  0.8510E+02  0.8505E+02  0.5830E+03
   6.490  0.1174E+02  0.1175E+02  0.5839E+03
   6.500  0.1204E+01  0.1205E+01  0.5840E+03
   6.510  0.7893E-02  0.7900E-02  0.5840E+03
   6.520  0.0000E+00  0.0000E+00  0.5840E+03
   6.530  0.0000E+00  0.0000E+00  0.5840E+03
   6.540  0.0000E+00  0.0000E+00  0.5840E+03
   6.550  0.0000E+00  0.0000E+00  0.5840E+03
   6.560  0.0000E+00  0.0000E+00  0.5840E+03
   6.570  0.0000E+00  0.0000E+00  0.5840E+03
   6.580  0.0000E+00  0.0000E+00  0.5840E+03
   6.590  0.0000E+00  0.0000E+00  0.5840E+03
   6.600  0.0000E+00  0.0000E+00  0.5840E+03
   6.610  0.0000E+00  0.0000E+00  0.5840E+03
   6.620  0.0000E+00  0.0000E+00  0.5840E+03
   6.630  0.0000E+00  0.0000E+00  0.5840E+03
   6.640  0.0000E+00  0.0000E+00  0.5840E+03
   6.650  0.0000E+00  0.0000E+00  0.5840E+03
   6.660  0.0000E+00  0.0000E+00  0.5840E+03
   6.670  0.0000E+00  0.0000E+00  0.5840E+03
   6.680  0.0000E+00  0.0000E+00  0.5840E+03
   6.690  0.0000E+00  0.0000E+00  0.5840E+03
   6.700  0.0000E+00  0.0000E+00  0.5840E+03
   6.710  0.0000E+00  0.0000E+00  0.5840E+03
   6.720  0.0000E+00  0.0000E+00  0.5840E+03
   6.730  0.0000E+00  0.0000E+00  0.5840E+03
   6.740  0.0000E+00  0.0000E+00  0.5840E+03
   6.750  0.0000E+00  0.0000E+00  0.5840E+03
   6.760  0.0000E+00  0.0000E+00  0.5840E+03
   6.770  0.0000E+00  0.0000E+00  0.5840E+03
   6.780  0.0000E+00  0.0000E+00  0.5840E+03
   6.790  0.0000E+00  0.0000E+00  0.5840E+03
   6.800  0.0000E+00  0.0000E+00  0.5840E+03
   6.810  0.0000E+00  0.0000E+00  0.5840E+03
   6.820  0.0000E+00  0.0000E+00  0.5840E+03
   6.830  0.0000E+00  0.0000E+00  0.5840E+03
   6.840  0.0000E+00  0.0000E+00  0.5840E+03
   6.850  0.0000E+00  0.0000E+00  0.5840E+03
   6.860  0.0000E+00  0.0000E+00  0.5840E+03
   6.870  0.0000E+00  0.0000E+00  0.5840E+03
   6.880  0.0000E+00  0.0000E+00  0.5840E+03
   6.890  0.0000E+00  0.0000E+00  0.5840E+03
   6.900  0.0000E+00  0.0000E+00  0.5840E+03
   6.910  0.0000E+00  0.0000E+00  0.5840E+03
   6.920  0.0000E+00  0.0000E+00  0.5840E+03
   6.930  0.0000E+00  0.0000E+00  0.5840E+03
   6.940  0.0000E+00  0.0000E+00  0.5840E+03
   6.950  0.0000E+00  0.0000E+00  0.5840E+03
   6.960  0.0000E+00  0.0000E+00  0.5840E+03
   6.970  0.0000E+00  0.0000E+00  0.5840E+03
   6.980  0.0000E+00  0.0000E+00  0.5840E+03
   6.990  0.0000E+00  0.0000E+00  0.5840E+03
   7.000  0.0000E+00  0.0000E+00  0.5840E+03
   7.010  0.0000E+00  0.0000E+00  0.5840E+03
   7.020  0.0000E+00  0.0000E+00  0.5840E+03
   7.030  0.0000E+00  0.0000E+00  0.5840E+03
   7.040  0.0000E+00  0.0000E+00  0.5840E+03
   7.050  0.0000E+00  0.0000E+00  0.5840E+03
   7.060  0.0000E+00  0.0000E+00  0.5840E+03
   7.070  0.0000E+00  0.0000E+00  0.5840E+03
   7.080  0.0000E+00  0.0000E+00  0.5840E+03
   7.090  0.0000E+00  0.0000E+00  0.5840E+03
   7.100  0.0000E+00  0.0000E+00  0.5840E+03
   7.110  0.0000E+00  0.0000E+00  0.5840E+03
   7.120  0.0000E+00  0.0000E+00  0.5840E+03
   7.130  0.0000E+00  0.0000E+00  0.5840E+03
   7.140  0.0000E+00  0.0000E+00  0.5840E+03
   7.150  0.0000E+00  0.0000E+00  0.5840E+03
   7.160  0.0000E+00  0.0000E+00  0.5840E+03
   7.170  0.0000E+00  0.0000E+00  0.5840E+03
   7.180  0.0000E+00  0.0000E+00  0.5840E+03
   7.190  0.0000E+00  0.0000E+00  0.5840E+03
   7.200  0.0000E+00  0.0000E+00  0.5840E+03
   7.210  0.0000E+00  0.0000E+00  0.5840E+03
   7.220  0.0000E+00  0.0000E+00  0.5840E+03
   7.230  0.0000E+00  0.0000E+00  0.5840E+03
   7.240  0.0000E+00  0.0000E+00  0.5840E+03
   7.250  0.0000E+00  0.0000E+00  0.5840E+03
   7.260  0.0000E+00  0.0000E+00  0.5840E+03
   7.270  0.0000E+00  0.0000E+00  0.5840E+03
   7.280  0.0000E+00  0.0000E+00  0.5840E+03
   7.290  0.0000E+00  0.0000E+00  0.5840E+03
   7.300  0.0000E+00  0.0000E+00  0.5840E+03
   7.310  0.0000E+00  0.0000E+00  0.5840E+03
   7.320  0.0000E+00  0.0000E+00  0.5840E+03
   7.330  0.0000E+00  0.0000E+00  0.5840E+03
   7.340  0.0000E+00  0.0000E+00  0.5840E+03
   7.350  0.0000E+00  0.0000E+00  0.5840E+03
   7.360  0.0000E+00  0.0000E+00  0.5840E+03
   7.370  0.0000E+00  0.0000E+00  0.5840E+03
   7.380  0.0000E+00  0.0000E+00  0.5840E+03
   7.390  0.0000E+00  0.0000E+00  0.5840E+03
   7.400  0.0000E+00  0.0000E+00  0.5840E+03
   7.410  0.0000E+00  0.0000E+00  0.5840E+03
   7.420  0.0000E+00  0.0000E+00  0.5840E+03
   7.430  0.0000E+00  0.0000E+00  0.5840E+03
   7.440  0.1053E-04  0.1053E-04  0.5840E+03
   7.450  0.7880E-04  0.7880E-04  0.5840E+03
   7.460  0.2105E-03  0.2105E-03  0.5840E+03
   7.470  0.4503E-03  0.4503E-03  0.5840E+03
   7.480  0.9244E-03  0.9244E-03  0.5840E+03
   7.490  0.1640E-02  0.1640E-02  0.5840E+03
   7.500  0.2598E-02  0.2598E-02  0.5840E+03
   7.510  0.3798E-02  0.3798E-02  0.5840E+03
   7.520  0.5239E-02  0.5239E-02  0.5840E+03
   7.530  0.6923E-02  0.6923E-02  0.5840E+03
   7.540  0.8848E-02  0.8848E-02  0.5840E+03
   7.550  0.1102E-01  0.1102E-01  0.5840E+03
   7.560  0.1342E-01  0.1342E-01  0.5840E+03
   7.570  0.1608E-01  0.1608E-01  0.5840E+03
   7.580  0.1897E-01  0.1897E-01  0.5840E+03
   7.590  0.2210E-01  0.2210E-01  0.5840E+03
   7.600  0.2548E-01  0.2548E-01  0.5840E+03
   7.610  0.2910E-01  0.2910E-01  0.5840E+03
   7.620  0.3296E-01  0.3296E-01  0.5840E+03
   7.630  0.3706E-01  0.3706E-01  0.5840E+03
   7.640  0.4140E-01  0.4140E-01  0.5840E+03
   7.650  0.4599E-01  0.4599E-01  0.5840E+03
   7.660  0.5082E-01  0.5082E-01  0.5840E+03
   7.670  0.5589E-01  0.5589E-01  0.5840E+03
   7.680  0.6120E-01  0.6120E-01  0.5840E+03
   7.690  0.6675E-01  0.6675E-01  0.5840E+03
   7.700  0.7255E-01  0.7255E-01  0.5840E+03
   7.710  0.7858E-01  0.7858E-01  0.5840E+03
   7.720  0.8486E-01  0.8486E-01  0.5840E+03
   7.730  0.9138E-01  0.9138E-01  0.5840E+03
   7.740  0.9815E-01  0.9815E-01  0.5840E+03
   7.750  0.1052E+00  0.1052E+00  0.5840E+03
   7.760  0.1124E+00  0.1124E+00  0.5840E+03
   7.770  0.1199E+00  0.1199E+00  0.5840E+03
   7.780  0.1276E+00  0.1276E+00  0.5840E+03
   7.790  0.1356E+00  0.1356E+00  0.5840E+03
   7.800  0.1438E+00  0.1438E+00  0.5840E+03
   7.810  0.1523E+00  0.1523E+00  0.5840E+03
   7.820  0.1610E+00  0.1610E+00  0.5840E+03
   7.830  0.1699E+00  0.1699E+00  0.5840E+03
   7.840  0.1791E+00  0.1791E+00  0.5840E+03
   7.850  0.1876E+00  0.1876E+00  0.5840E+03
   7.860  0.1963E+00  0.1963E+00  0.5841E+03
   7.870  0.2062E+00  0.2062E+00  0.5841E+03
   7.880  0.2177E+00  0.2177E+00  0.5841E+03
   7.890  0.2313E+00  0.2313E+00  0.5841E+03
   7.900  0.2459E+00  0.2459E+00  0.5841E+03
   7.910  0.2596E+00  0.2596E+00  0.5841E+03
   7.920  0.2726E+00  0.2726E+00  0.5841E+03
   7.930  0.2849E+00  0.2849E+00  0.5841E+03
   7.940  0.2967E+00  0.2967E+00  0.5841E+03
   7.950  0.3081E+00  0.3081E+00  0.5841E+03
   7.960  0.3192E+00  0.3192E+00  0.5841E+03
   7.970  0.3300E+00  0.3300E+00  0.5841E+03
   7.980  0.3405E+00  0.3405E+00  0.5841E+03
   7.990  0.3509E+00  0.3509E+00  0.5841E+03
   8.000  0.3610E+00  0.3610E+00  0.5841E+03
   8.010  0.3710E+00  0.3710E+00  0.5841E+03
   8.020  0.3809E+00  0.3809E+00  0.5841E+03
   8.030  0.3905E+00  0.3905E+00  0.5842E+03
   8.040  0.4000E+00  0.4000E+00  0.5842E+03
   8.050  0.4094E+00  0.4094E+00  0.5842E+03
   8.060  0.4185E+00  0.4185E+00  0.5842E+03
   8.070  0.4275E+00  0.4275E+00  0.5842E+03
   8.080  0.4363E+00  0.4363E+00  0.5842E+03
   8.090  0.4449E+00  0.4449E+00  0.5842E+03
   8.100  0.4534E+00  0.4534E+00  0.5842E+03
   8.110  0.4617E+00  0.4617E+00  0.5842E+03
   8.120  0.4698E+00  0.4698E+00  0.5842E+03
   8.130  0.4776E+00  0.4776E+00  0.5842E+03
   8.140  0.4828E+00  0.4828E+00  0.5843E+03
   8.150  0.4854E+00  0.4854E+00  0.5843E+03
   8.160  0.4856E+00  0.4856E+00  0.5843E+03
   8.170  0.4857E+00  0.4857E+00  0.5843E+03
   8.180  0.4876E+00  0.4876E+00  0.5843E+03
   8.190  0.4904E+00  0.4904E+00  0.5843E+03
   8.200  0.4944E+00  0.4944E+00  0.5843E+03
   8.210  0.4981E+00  0.4981E+00  0.5843E+03
   8.220  0.5015E+00  0.5015E+00  0.5843E+03
   8.230  0.5049E+00  0.5049E+00  0.5843E+03
   8.240  0.5087E+00  0.5087E+00  0.5844E+03
   8.250  0.5130E+00  0.5130E+00  0.5844E+03
   8.260  0.5179E+00  0.5179E+00  0.5844E+03
   8.270  0.5237E+00  0.5237E+00  0.5844E+03
   8.280  0.5305E+00  0.5305E+00  0.5844E+03
   8.290  0.5382E+00  0.5382E+00  0.5844E+03
   8.300  0.5469E+00  0.5469E+00  0.5844E+03
   8.310  0.5568E+00  0.5568E+00  0.5844E+03
   8.320  0.5684E+00  0.5684E+00  0.5844E+03
   8.330  0.5817E+00  0.5817E+00  0.5844E+03
   8.340  0.5960E+00  0.5960E+00  0.5845E+03
   8.350  0.6106E+00  0.6106E+00  0.5845E+03
   8.360  0.6254E+00  0.6254E+00  0.5845E+03
   8.370  0.6404E+00  0.6404E+00  0.5845E+03
   8.380  0.6556E+00  0.6556E+00  0.5845E+03
   8.390  0.6708E+00  0.6708E+00  0.5845E+03
   8.400  0.6860E+00  0.6860E+00  0.5845E+03
   8.410  0.7014E+00  0.7014E+00  0.5845E+03
   8.420  0.7171E+00  0.7171E+00  0.5846E+03
   8.430  0.7331E+00  0.7331E+00  0.5846E+03
   8.440  0.7494E+00  0.7494E+00  0.5846E+03
   8.450  0.7662E+00  0.7662E+00  0.5846E+03
   8.460  0.7834E+00  0.7834E+00  0.5846E+03
   8.470  0.8010E+00  0.8010E+00  0.5846E+03
   8.480  0.8191E+00  0.8191E+00  0.5847E+03
   8.490  0.8379E+00  0.8379E+00  0.5847E+03
   8.500  0.8573E+00  0.8573E+00  0.5847E+03
   8.510  0.8773E+00  0.8773E+00  0.5847E+03
   8.520  0.8979E+00  0.8979E+00  0.5847E+03
   8.530  0.9191E+00  0.9191E+00  0.5847E+03
   8.540  0.9410E+00  0.9410E+00  0.5848E+03
   8.550  0.9635E+00  0.9635E+00  0.5848E+03
   8.560  0.9866E+00  0.9866E+00  0.5848E+03
   8.570  0.1010E+01  0.1010E+01  0.5848E+03
   8.580  0.1035E+01  0.1035E+01  0.5848E+03
   8.590  0.1060E+01  0.1060E+01  0.5849E+03
   8.600  0.1085E+01  0.1085E+01  0.5849E+03
   8.610  0.1111E+01  0.1111E+01  0.5849E+03
   8.620  0.1138E+01  0.1138E+01  0.5849E+03
   8.630  0.1166E+01  0.1166E+01  0.5849E+03
   8.640  0.1194E+01  0.1194E+01  0.5850E+03
   8.650  0.1222E+01  0.1222E+01  0.5850E+03
   8.660  0.1252E+01  0.1252E+01  0.5850E+03
   8.670  0.1282E+01  0.1282E+01  0.5850E+03
   8.680  0.1312E+01  0.1312E+01  0.5851E+03
   8.690  0.1343E+01  0.1343E+01  0.5851E+03
   8.700  0.1374E+01  0.1374E+01  0.5851E+03
   8.710  0.1401E+01  0.1401E+01  0.5852E+03
   8.720  0.1422E+01  0.1422E+01  0.5852E+03
   8.730  0.1436E+01  0.1436E+01  0.5852E+03
   8.740  0.1444E+01  0.1444E+01  0.5852E+03
   8.750  0.1450E+01  0.1450E+01  0.5853E+03
   8.760  0.1470E+01  0.1470E+01  0.5853E+03
   8.770  0.1511E+01  0.1511E+01  0.5853E+03
   8.780  0.1575E+01  0.1575E+01  0.5854E+03
   8.790  0.1660E+01  0.1660E+01  0.5854E+03
   8.800  0.1776E+01  0.1776E+01  0.5854E+03
   8.810  0.1940E+01  0.1940E+01  0.5855E+03
   8.820  0.2160E+01  0.2160E+01  0.5855E+03
   8.830  0.2441E+01  0.2441E+01  0.5856E+03
   8.840  0.2798E+01  0.2798E+01  0.5856E+03
   8.850  0.3370E+01  0.3370E+01  0.5857E+03
   8.860  0.6622E+01  0.6622E+01  0.5857E+03
   8.870  0.6547E+01  0.6547E+01  0.5859E+03
   8.880  0.6906E+01  0.6906E+01  0.5860E+03
   8.890  0.7375E+01  0.7375E+01  0.5862E+03
   8.900  0.7739E+01  0.7739E+01  0.5863E+03
   8.910  0.7931E+01  0.7931E+01  0.5865E+03
   8.920  0.7971E+01  0.7971E+01  0.5867E+03
   8.930  0.7990E+01  0.7990E+01  0.5868E+03
   8.940  0.7967E+01  0.7967E+01  0.5870E+03
   8.950  0.7902E+01  0.7902E+01  0.5871E+03
   8.960  0.7797E+01  0.7797E+01  0.5873E+03
   8.970  0.7687E+01  0.7687E+01  0.5874E+03
   8.980  0.7744E+01  0.7744E+01  0.5876E+03
   8.990  0.7650E+01  0.7650E+01  0.5878E+03
   9.000  0.7356E+01  0.7356E+01  0.5879E+03
   9.010  0.6993E+01  0.6993E+01  0.5880E+03
   9.020  0.6975E+01  0.6975E+01  0.5882E+03
   9.030  0.6966E+01  0.6966E+01  0.5883E+03
   9.040  0.6710E+01  0.6710E+01  0.5885E+03
   9.050  0.6052E+01  0.6052E+01  0.5886E+03
   9.060  0.5679E+01  0.5679E+01  0.5887E+03
   9.070  0.5985E+01  0.5985E+01  0.5888E+03
   9.080  0.6258E+01  0.6258E+01  0.5889E+03
   9.090  0.6480E+01  0.6480E+01  0.5891E+03
   9.100  0.6695E+01  0.6695E+01  0.5892E+03
   9.110  0.6906E+01  0.6906E+01  0.5893E+03
   9.120  0.7143E+01  0.7143E+01  0.5895E+03
   9.130  0.7381E+01  0.7381E+01  0.5896E+03
   9.140  0.7666E+01  0.7666E+01  0.5898E+03
   9.150  0.7956E+01  0.7956E+01  0.5899E+03
   9.160  0.8266E+01  0.8266E+01  0.5901E+03
   9.170  0.8591E+01  0.8591E+01  0.5903E+03
   9.180  0.8931E+01  0.8931E+01  0.5904E+03
   9.190  0.9276E+01  0.9276E+01  0.5906E+03
   9.200  0.9645E+01  0.9645E+01  0.5908E+03
   9.210  0.1004E+02  0.1004E+02  0.5910E+03
   9.220  0.1043E+02  0.1043E+02  0.5912E+03
   9.230  0.1080E+02  0.1080E+02  0.5914E+03
   9.240  0.1119E+02  0.1119E+02  0.5916E+03
   9.250  0.1158E+02  0.1158E+02  0.5919E+03
   9.260  0.1197E+02  0.1197E+02  0.5921E+03
   9.270  0.1238E+02  0.1238E+02  0.5923E+03
   9.280  0.1276E+02  0.1276E+02  0.5926E+03
   9.290  0.1308E+02  0.1308E+02  0.5929E+03
   9.300  0.1341E+02  0.1341E+02  0.5931E+03
   9.310  0.1401E+02  0.1401E+02  0.5934E+03
   9.320  0.1479E+02  0.1479E+02  0.5937E+03
   9.330  0.1548E+02  0.1548E+02  0.5940E+03
   9.340  0.1592E+02  0.1592E+02  0.5943E+03
   9.350  0.1608E+02  0.1608E+02  0.5946E+03
   9.360  0.1588E+02  0.1588E+02  0.5949E+03
   9.370  0.1574E+02  0.1574E+02  0.5953E+03
   9.380  0.1580E+02  0.1580E+02  0.5956E+03
   9.390  0.1602E+02  0.1602E+02  0.5959E+03
   9.400  0.1641E+02  0.1641E+02  0.5962E+03
   9.410  0.1697E+02  0.1697E+02  0.5965E+03
   9.420  0.1757E+02  0.1757E+02  0.5969E+03
   9.430  0.1735E+02  0.1735E+02  0.5972E+03
   9.440  0.1666E+02  0.1666E+02  0.5976E+03
   9.450  0.1913E+02  0.1913E+02  0.5979E+03
   9.460  0.1785E+02  0.1785E+02  0.5983E+03
   9.470  0.1524E+02  0.1524E+02  0.5986E+03
   9.480  0.1367E+02  0.1367E+02  0.5989E+03
   9.490  0.1418E+02  0.1418E+02  0.5992E+03
   9.500  0.1446E+02  0.1446E+02  0.5995E+03
   9.510  0.1405E+02  0.1405E+02  0.5998E+03
   9.520  0.1454E+02  0.1454E+02  0.6001E+03
   9.530  0.1663E+02  0.1663E+02  0.6004E+03
   9.540  0.1823E+02  0.1823E+02  0.6007E+03
   9.550  0.1829E+02  0.1829E+02  0.6011E+03
   9.560  0.1797E+02  0.1797E+02  0.6015E+03
   9.570  0.1772E+02  0.1772E+02  0.6018E+03
   9.580  0.1748E+02  0.1748E+02  0.6022E+03
   9.590  0.1719E+02  0.1719E+02  0.6025E+03
   9.600  0.1672E+02  0.1672E+02  0.6029E+03
   9.610  0.1623E+02  0.1623E+02  0.6032E+03
   9.620  0.1473E+02  0.1473E+02  0.6035E+03
   9.630  0.1346E+02  0.1346E+02  0.6038E+03
   9.640  0.1156E+02  0.1156E+02  0.6040E+03
   9.650  0.1272E+02  0.1272E+02  0.6043E+03
   9.660  0.1409E+02  0.1409E+02  0.6045E+03
   9.670  0.1554E+02  0.1554E+02  0.6048E+03
   9.680  0.1729E+02  0.1729E+02  0.6051E+03
   9.690  0.1877E+02  0.1877E+02  0.6055E+03
   9.700  0.1929E+02  0.1929E+02  0.6059E+03
   9.710  0.2052E+02  0.2052E+02  0.6063E+03
   9.720  0.1979E+02  0.1979E+02  0.6067E+03
   9.730  0.2048E+02  0.2048E+02  0.6071E+03
   9.740  0.1976E+02  0.1976E+02  0.6075E+03
   9.750  0.1925E+02  0.1925E+02  0.6079E+03
   9.760  0.1869E+02  0.1869E+02  0.6083E+03
   9.770  0.1830E+02  0.1830E+02  0.6086E+03
   9.780  0.1805E+02  0.1805E+02  0.6090E+03
   9.790  0.1826E+02  0.1826E+02  0.6094E+03
   9.800  0.1974E+02  0.1974E+02  0.6097E+03
   9.810  0.2494E+02  0.2495E+02  0.6102E+03
   9.820  0.3275E+02  0.3275E+02  0.6108E+03
   9.830  0.3562E+02  0.3562E+02  0.6114E+03
   9.840  0.3398E+02  0.3398E+02  0.6122E+03
   9.850  0.3362E+02  0.3362E+02  0.6128E+03
   9.860  0.4187E+02  0.4187E+02  0.6135E+03
   9.870  0.3437E+02  0.3437E+02  0.6143E+03
   9.880  0.3591E+02  0.3591E+02  0.6150E+03
   9.890  0.3282E+02  0.3282E+02  0.6156E+03
   9.900  0.2944E+02  0.2944E+02  0.6163E+03
   9.910  0.2945E+02  0.2945E+02  0.6168E+03
   9.920  0.2885E+02  0.2885E+02  0.6174E+03
   9.930  0.2707E+02  0.2707E+02  0.6180E+03
   9.940  0.2457E+02  0.2457E+02  0.6185E+03
   9.950  0.2602E+02  0.2602E+02  0.6190E+03
   9.960  0.2932E+02  0.2932E+02  0.6196E+03
   9.970  0.3233E+02  0.3233E+02  0.6202E+03
   9.980  0.3109E+02  0.3109E+02  0.6208E+03
   9.990  0.3296E+02  0.3296E+02  0.6215E+03
  10.000  0.3454E+02  0.3454E+02  0.6221E+03
  10.010  0.3590E+02  0.3590E+02  0.6228E+03
  10.020  0.3632E+02  0.3632E+02  0.6236E+03
  10.030  0.3538E+02  0.3538E+02  0.6243E+03
  10.040  0.3410E+02  0.3410E+02  0.6250E+03
  10.050  0.3353E+02  0.3353E+02  0.6257E+03
  10.060  0.3338E+02  0.3338E+02  0.6263E+03
  10.070  0.3394E+02  0.3394E+02  0.6270E+03
  10.080  0.3375E+02  0.3375E+02  0.6277E+03
  10.090  0.3347E+02  0.3347E+02  0.6284E+03
  10.100  0.3235E+02  0.3235E+02  0.6290E+03
  10.110  0.2998E+02  0.2998E+02  0.6296E+03
  10.120  0.2800E+02  0.2800E+02  0.6302E+03
  10.130  0.2745E+02  0.2745E+02  0.6308E+03
  10.140  0.2611E+02  0.2611E+02  0.6313E+03
  10.150  0.2414E+02  0.2414E+02  0.6318E+03
  10.160  0.2222E+02  0.2222E+02  0.6323E+03
  10.170  0.2009E+02  0.2009E+02  0.6327E+03
  10.180  0.2004E+02  0.2004E+02  0.6331E+03
  10.190  0.2053E+02  0.2053E+02  0.6335E+03
  10.200  0.2104E+02  0.2104E+02  0.6339E+03
  10.210  0.2147E+02  0.2147E+02  0.6343E+03
  10.220  0.2179E+02  0.2179E+02  0.6348E+03
  10.230  0.2156E+02  0.2156E+02  0.6352E+03
  10.240  0.2127E+02  0.2127E+02  0.6356E+03
  10.250  0.2162E+02  0.2162E+02  0.6361E+03
  10.260  0.2190E+02  0.2190E+02  0.6365E+03
  10.270  0.2214E+02  0.2214E+02  0.6369E+03
  10.280  0.2109E+02  0.2109E+02  0.6374E+03
  10.290  0.2107E+02  0.2107E+02  0.6378E+03
  10.300  0.2670E+02  0.2670E+02  0.6383E+03
  10.310  0.3922E+02  0.3922E+02  0.6389E+03
  10.320  0.4005E+02  0.4005E+02  0.6397E+03
  10.330  0.4254E+02  0.4254E+02  0.6406E+03
  10.340  0.2860E+02  0.2860E+02  0.6413E+03
  10.350  0.2046E+02  0.2046E+02  0.6418E+03
  10.360  0.1804E+02  0.1804E+02  0.6421E+03
  10.370  0.1655E+02  0.1655E+02  0.6425E+03
  10.380  0.1975E+02  0.1975E+02  0.6428E+03
  10.390  0.2208E+02  0.2208E+02  0.6433E+03
  10.400  0.2216E+02  0.2216E+02  0.6437E+03
  10.410  0.1990E+02  0.1990E+02  0.6441E+03
  10.420  0.1742E+02  0.1742E+02  0.6445E+03
  10.430  0.1722E+02  0.1722E+02  0.6448E+03
  10.440  0.1723E+02  0.1723E+02  0.6452E+03
  10.450  0.1697E+02  0.1697E+02  0.6455E+03
  10.460  0.1657E+02  0.1657E+02  0.6459E+03
  10.470  0.1611E+02  0.1611E+02  0.6462E+03
  10.480  0.1570E+02  0.1570E+02  0.6465E+03
  10.490  0.1528E+02  0.1528E+02  0.6468E+03
  10.500  0.1502E+02  0.1502E+02  0.6471E+03
  10.510  0.1392E+02  0.1392E+02  0.6474E+03
  10.520  0.1297E+02  0.1297E+02  0.6477E+03
  10.530  0.1260E+02  0.1260E+02  0.6479E+03
  10.540  0.1245E+02  0.1245E+02  0.6482E+03
  10.550  0.1242E+02  0.1242E+02  0.6484E+03
  10.560  0.1259E+02  0.1259E+02  0.6487E+03
  10.570  0.1284E+02  0.1284E+02  0.6489E+03
  10.580  0.1298E+02  0.1298E+02  0.6492E+03
  10.590  0.1317E+02  0.1317E+02  0.6495E+03
  10.600  0.1339E+02  0.1339E+02  0.6497E+03
  10.610  0.1363E+02  0.1363E+02  0.6500E+03
  10.620  0.1376E+02  0.1376E+02  0.6503E+03
  10.630  0.1409E+02  0.1409E+02  0.6505E+03
  10.640  0.1470E+02  0.1470E+02  0.6508E+03
  10.650  0.1615E+02  0.1615E+02  0.6511E+03
  10.660  0.1820E+02  0.1820E+02  0.6515E+03
  10.670  0.1981E+02  0.1981E+02  0.6519E+03
  10.680  0.1900E+02  0.1900E+02  0.6523E+03
  10.690  0.1682E+02  0.1682E+02  0.6526E+03
  10.700  0.1560E+02  0.1560E+02  0.6529E+03
  10.710  0.1817E+02  0.1817E+02  0.6533E+03
  10.720  0.2024E+02  0.2024E+02  0.6537E+03
  10.730  0.2045E+02  0.2045E+02  0.6541E+03
  10.740  0.2024E+02  0.2024E+02  0.6545E+03
  10.750  0.1964E+02  0.1964E+02  0.6549E+03
  10.760  0.1923E+02  0.1923E+02  0.6553E+03
  10.770  0.1825E+02  0.1825E+02  0.6556E+03
  10.780  0.1731E+02  0.1731E+02  0.6560E+03
  10.790  0.1485E+02  0.1485E+02  0.6563E+03
  10.800  0.1298E+02  0.1298E+02  0.6566E+03
  10.810  0.1226E+02  0.1226E+02  0.6568E+03
  10.820  0.1045E+02  0.1045E+02  0.6571E+03
  10.830  0.8722E+01  0.8722E+01  0.6573E+03
  10.840  0.7380E+01  0.7380E+01  0.6574E+03
  10.850  0.7643E+01  0.7643E+01  0.6576E+03
  10.860  0.9736E+01  0.9736E+01  0.6577E+03
  10.870  0.1306E+02  0.1306E+02  0.6580E+03
  10.880  0.1445E+02  0.1445E+02  0.6583E+03
  10.890  0.1590E+02  0.1590E+02  0.6586E+03
  10.900  0.1517E+02  0.1517E+02  0.6589E+03
  10.910  0.1400E+02  0.1400E+02  0.6592E+03
  10.920  0.1337E+02  0.1337E+02  0.6594E+03
  10.930  0.1240E+02  0.1240E+02  0.6597E+03
  10.940  0.1221E+02  0.1221E+02  0.6599E+03
  10.950  0.1196E+02  0.1196E+02  0.6602E+03
  10.960  0.1172E+02  0.1172E+02  0.6604E+03
  10.970  0.1198E+02  0.1198E+02  0.6607E+03
  10.980  0.1440E+02  0.1440E+02  0.6609E+03
  10.990  0.1488E+02  0.1488E+02  0.6612E+03
  11.000  0.1581E+02  0.1581E+02  0.6615E+03
  11.010  0.1660E+02  0.1660E+02  0.6619E+03
  11.020  0.1692E+02  0.1692E+02  0.6622E+03
  11.030  0.1675E+02  0.1675E+02  0.6625E+03
  11.040  0.1686E+02  0.1686E+02  0.6629E+03
  11.050  0.1733E+02  0.1733E+02  0.6632E+03
  11.060  0.1669E+02  0.1669E+02  0.6635E+03
  11.070  0.1488E+02  0.1488E+02  0.6639E+03
  11.080  0.1424E+02  0.1424E+02  0.6641E+03
  11.090  0.1399E+02  0.1399E+02  0.6644E+03
  11.100  0.1303E+02  0.1303E+02  0.6647E+03
  11.110  0.1114E+02  0.1114E+02  0.6649E+03
  11.120  0.9961E+01  0.9961E+01  0.6652E+03
  11.130  0.9677E+01  0.9677E+01  0.6653E+03
  11.140  0.9366E+01  0.9366E+01  0.6655E+03
  11.150  0.8552E+01  0.8552E+01  0.6657E+03
  11.160  0.7969E+01  0.7969E+01  0.6659E+03
  11.170  0.7420E+01  0.7420E+01  0.6660E+03
  11.180  0.7057E+01  0.7057E+01  0.6662E+03
  11.190  0.6933E+01  0.6933E+01  0.6663E+03
  11.200  0.6908E+01  0.6908E+01  0.6665E+03
  11.210  0.6969E+01  0.6969E+01  0.6666E+03
  11.220  0.7104E+01  0.7104E+01  0.6667E+03
  11.230  0.7187E+01  0.7187E+01  0.6669E+03
  11.240  0.7240E+01  0.7240E+01  0.6670E+03
  11.250  0.7291E+01  0.7291E+01  0.6672E+03
  11.260  0.7392E+01  0.7392E+01  0.6673E+03
  11.270  0.8092E+01  0.8092E+01  0.6675E+03
  11.280  0.9125E+01  0.9125E+01  0.6676E+03
  11.290  0.1091E+02  0.1091E+02  0.6678E+03
  11.300  0.1331E+02  0.1331E+02  0.6681E+03
  11.310  0.1489E+02  0.1489E+02  0.6684E+03
  11.320  0.1561E+02  0.1561E+02  0.6687E+03
  11.330  0.1555E+02  0.1555E+02  0.6690E+03
  11.340  0.1663E+02  0.1663E+02  0.6693E+03
  11.350  0.1811E+02  0.1811E+02  0.6697E+03
  11.360  0.1977E+02  0.1977E+02  0.6700E+03
  11.370  0.2178E+02  0.2178E+02  0.6704E+03
  11.380  0.2324E+02  0.2324E+02  0.6709E+03
  11.390  0.2491E+02  0.2491E+02  0.6714E+03
  11.400  0.2697E+02  0.2697E+02  0.6719E+03
  11.410  0.2854E+02  0.2854E+02  0.6725E+03
  11.420  0.3023E+02  0.3023E+02  0.6730E+03
  11.430  0.2932E+02  0.2932E+02  0.6736E+03
  11.440  0.2763E+02  0.2763E+02  0.6742E+03
  11.450  0.2526E+02  0.2526E+02  0.6747E+03
  11.460  0.2503E+02  0.2503E+02  0.6752E+03
  11.470  0.2510E+02  0.2510E+02  0.6757E+03
  11.480  0.2412E+02  0.2412E+02  0.6762E+03
  11.490  0.2339E+02  0.2339E+02  0.6767E+03
  11.500  0.2307E+02  0.2307E+02  0.6772E+03
  11.510  0.2276E+02  0.2276E+02  0.6776E+03
  11.520  0.2247E+02  0.2247E+02  0.6781E+03
  11.530  0.2237E+02  0.2237E+02  0.6785E+03
  11.540  0.2209E+02  0.2209E+02  0.6790E+03
  11.550  0.2175E+02  0.2175E+02  0.6794E+03
  11.560  0.2270E+02  0.2270E+02  0.6799E+03
  11.570  0.2198E+02  0.2198E+02  0.6803E+03
  11.580  0.2168E+02  0.2168E+02  0.6807E+03
  11.590  0.2346E+02  0.2346E+02  0.6812E+03
  11.600  0.2470E+02  0.2470E+02  0.6817E+03
  11.610  0.2690E+02  0.2690E+02  0.6822E+03
  11.620  0.2541E+02  0.2541E+02  0.6827E+03
  11.630  0.2557E+02  0.2557E+02  0.6832E+03
  11.640  0.2456E+02  0.2456E+02  0.6837E+03
  11.650  0.2255E+02  0.2255E+02  0.6842E+03
  11.660  0.2156E+02  0.2156E+02  0.6846E+03
  11.670  0.2212E+02  0.2212E+02  0.6851E+03
  11.680  0.2386E+02  0.2386E+02  0.6855E+03
  11.690  0.2626E+02  0.2626E+02  0.6860E+03
  11.700  0.2684E+02  0.2684E+02  0.6866E+03
  11.710  0.2464E+02  0.2464E+02  0.6871E+03
  11.720  0.2635E+02  0.2635E+02  0.6876E+03
  11.730  0.3028E+02  0.3028E+02  0.6882E+03
  11.740  0.3044E+02  0.3044E+02  0.6888E+03
  11.750  0.2965E+02  0.2965E+02  0.6894E+03
  11.760  0.2668E+02  0.2668E+02  0.6900E+03
  11.770  0.2564E+02  0.2564E+02  0.6905E+03
  11.780  0.2519E+02  0.2519E+02  0.6910E+03
  11.790  0.2505E+02  0.2505E+02  0.6915E+03
  11.800  0.2490E+02  0.2490E+02  0.6920E+03
  11.810  0.2480E+02  0.2480E+02  0.6925E+03
  11.820  0.2450E+02  0.2450E+02  0.6930E+03
  11.830  0.2395E+02  0.2395E+02  0.6935E+03
  11.840  0.2318E+02  0.2318E+02  0.6939E+03
  11.850  0.2228E+02  0.2228E+02  0.6944E+03
  11.860  0.2121E+02  0.2121E+02  0.6948E+03
  11.870  0.2006E+02  0.2006E+02  0.6952E+03
  11.880  0.1880E+02  0.1880E+02  0.6956E+03
  11.890  0.1753E+02  0.1753E+02  0.6960E+03
  11.900  0.1616E+02  0.1616E+02  0.6963E+03
  11.910  0.1525E+02  0.1525E+02  0.6966E+03
  11.920  0.1462E+02  0.1462E+02  0.6969E+03
  11.930  0.1415E+02  0.1415E+02  0.6972E+03
  11.940  0.1347E+02  0.1347E+02  0.6975E+03
  11.950  0.1276E+02  0.1276E+02  0.6978E+03
  11.960  0.1206E+02  0.1206E+02  0.6980E+03
  11.970  0.1132E+02  0.1132E+02  0.6982E+03
  11.980  0.1052E+02  0.1052E+02  0.6985E+03
  11.990  0.9797E+01  0.9797E+01  0.6987E+03
  12.000  0.8998E+01  0.8998E+01  0.6989E+03
  12.010  0.9109E+01  0.9109E+01  0.6990E+03
  12.020  0.8171E+01  0.8171E+01  0.6992E+03
  12.030  0.6827E+01  0.6827E+01  0.6994E+03
  12.040  0.5441E+01  0.5441E+01  0.6995E+03
  12.050  0.4196E+01  0.4196E+01  0.6996E+03
  12.060  0.3492E+01  0.3492E+01  0.6997E+03
  12.070  0.2975E+01  0.2975E+01  0.6997E+03
  12.080  0.2470E+01  0.2470E+01  0.6998E+03
  12.090  0.2052E+01  0.2052E+01  0.6998E+03
  12.100  0.1680E+01  0.1680E+01  0.6999E+03
  12.110  0.1348E+01  0.1348E+01  0.6999E+03
  12.120  0.1058E+01  0.1058E+01  0.6999E+03
  12.130  0.8069E+00  0.8069E+00  0.6999E+03
  12.140  0.5965E+00  0.5965E+00  0.6999E+03
  12.150  0.4264E+00  0.4264E+00  0.7000E+03
  12.160  0.2965E+00  0.2965E+00  0.7000E+03
  12.170  0.2069E+00  0.2069E+00  0.7000E+03
  12.180  0.1572E+00  0.1572E+00  0.7000E+03
  12.190  0.1345E+00  0.1345E+00  0.7000E+03
  12.200  0.1213E+00  0.1213E+00  0.7000E+03
  12.210  0.1110E+00  0.1110E+00  0.7000E+03
  12.220  0.1013E+00  0.1013E+00  0.7000E+03
  12.230  0.9203E-01  0.9202E-01  0.7000E+03
  12.240  0.8321E-01  0.8320E-01  0.7000E+03
  12.250  0.7483E-01  0.7483E-01  0.7000E+03
  12.260  0.6690E-01  0.6690E-01  0.7000E+03
  12.270  0.5942E-01  0.5941E-01  0.7000E+03
  12.280  0.5238E-01  0.5237E-01  0.7000E+03
  12.290  0.4578E-01  0.4578E-01  0.7000E+03
  12.300  0.3963E-01  0.3962E-01  0.7000E+03
  12.310  0.3392E-01  0.3392E-01  0.7000E+03
  12.320  0.2866E-01  0.2865E-01  0.7000E+03
  12.330  0.2384E-01  0.2384E-01  0.7000E+03
  12.340  0.1946E-01  0.1946E-01  0.7000E+03
  12.350  0.1553E-01  0.1553E-01  0.7000E+03
  12.360  0.1205E-01  0.1205E-01  0.7000E+03
  12.370  0.9007E-02  0.9006E-02  0.7000E+03
  12.380  0.6411E-02  0.6409E-02  0.7000E+03
  12.390  0.4259E-02  0.4258E-02  0.7000E+03
  12.400  0.2552E-02  0.2551E-02  0.7000E+03
  12.410  0.1289E-02  0.1288E-02  0.7000E+03
  12.420  0.4700E-03  0.4696E-03  0.7000E+03
  12.430  0.9178E-04  0.9164E-04  0.7000E+03
  12.440  0.1344E-06  0.1335E-06  0.7000E+03
  12.450  0.0000E+00  0.0000E+00  0.7000E+03
  12.460  0.0000E+00  0.0000E+00  0.7000E+03
  12.470  0.0000E+00  0.0000E+00  0.7000E+03
  12.480  0.0000E+00  0.0000E+00  0.7000E+03
  12.490  0.0000E+00  0.0000E+00  0.7000E+03
  12.500  0.0000E+00  0.0000E+00  0.7000E+03
  12.510  0.0000E+00  0.0000E+00  0.7000E+03
  12.520  0.0000E+00  0.0000E+00  0.7000E+03
  12.530  0.0000E+00  0.0000E+00  0.7000E+03
  12.540  0.0000E+00  0.0000E+00  0.7000E+03
  12.550  0.0000E+00  0.0000E+00  0.7000E+03
  12.560  0.0000E+00  0.0000E+00  0.7000E+03
  12.570  0.0000E+00  0.0000E+00  0.7000E+03
  12.580  0.0000E+00  0.0000E+00  0.7000E+03
  12.590  0.0000E+00  0.0000E+00  0.7000E+03
  12.600  0.0000E+00  0.0000E+00  0.7000E+03
  12.610  0.0000E+00  0.0000E+00  0.7000E+03
  12.620  0.0000E+00  0.0000E+00  0.7000E+03
  12.630  0.0000E+00  0.0000E+00  0.7000E+03
  12.640  0.0000E+00  0.0000E+00  0.7000E+03
  12.650  0.0000E+00  0.0000E+00  0.7000E+03
  12.660  0.0000E+00  0.0000E+00  0.7000E+03
  12.670  0.0000E+00  0.0000E+00  0.7000E+03
  12.680  0.0000E+00  0.0000E+00  0.7000E+03
  12.690  0.0000E+00  0.0000E+00  0.7000E+03
  12.700  0.0000E+00  0.0000E+00  0.7000E+03
  12.710  0.0000E+00  0.0000E+00  0.7000E+03
  12.720  0.0000E+00  0.0000E+00  0.7000E+03
  12.730  0.0000E+00  0.0000E+00  0.7000E+03
  12.740  0.0000E+00  0.0000E+00  0.7000E+03
  12.750  0.0000E+00  0.0000E+00  0.7000E+03
  12.760  0.0000E+00  0.0000E+00  0.7000E+03
  12.770  0.0000E+00  0.0000E+00  0.7000E+03
  12.780  0.0000E+00  0.0000E+00  0.7000E+03
  12.790  0.0000E+00  0.0000E+00  0.7000E+03
  12.800  0.0000E+00  0.0000E+00  0.7000E+03
  12.810  0.0000E+00  0.0000E+00  0.7000E+03
  12.820  0.0000E+00  0.0000E+00  0.7000E+03
  12.830  0.0000E+00  0.0000E+00  0.7000E+03
  12.840  0.0000E+00  0.0000E+00  0.7000E+03
  12.850  0.0000E+00  0.0000E+00  0.7000E+03
  12.860  0.0000E+00  0.0000E+00  0.7000E+03
  12.870  0.0000E+00  0.0000E+00  0.7000E+03
  12.880  0.0000E+00  0.0000E+00  0.7000E+03
  12.890  0.0000E+00  0.0000E+00  0.7000E+03
  12.900  0.0000E+00  0.0000E+00  0.7000E+03
  12.910  0.0000E+00  0.0000E+00  0.7000E+03
  12.920  0.0000E+00  0.0000E+00  0.7000E+03
  12.930  0.0000E+00  0.0000E+00  0.7000E+03
  12.940  0.0000E+00  0.0000E+00  0.7000E+03
  12.950  0.0000E+00  0.0000E+00  0.7000E+03
  12.960  0.0000E+00  0.0000E+00  0.7000E+03
  12.970  0.0000E+00  0.0000E+00  0.7000E+03
  12.980  0.0000E+00  0.0000E+00  0.7000E+03
  12.990  0.0000E+00  0.0000E+00  0.7000E+03
  13.000  0.0000E+00  0.0000E+00  0.7000E+03
  13.010  0.0000E+00  0.0000E+00  0.7000E+03
  13.020  0.0000E+00  0.0000E+00  0.7000E+03
  13.030  0.0000E+00  0.0000E+00  0.7000E+03
  13.040  0.0000E+00  0.0000E+00  0.7000E+03
  13.050  0.0000E+00  0.0000E+00  0.7000E+03
  13.060  0.0000E+00  0.0000E+00  0.7000E+03
  13.070  0.0000E+00  0.0000E+00  0.7000E+03
  13.080  0.0000E+00  0.0000E+00  0.7000E+03
  13.090  0.0000E+00  0.0000E+00  0.7000E+03
  13.100  0.0000E+00  0.0000E+00  0.7000E+03
  13.110  0.0000E+00  0.0000E+00  0.7000E+03
  13.120  0.0000E+00  0.0000E+00  0.7000E+03
  13.130  0.0000E+00  0.0000E+00  0.7000E+03
  13.140  0.0000E+00  0.0000E+00  0.7000E+03
  13.150  0.0000E+00  0.0000E+00  0.7000E+03
  13.160  0.0000E+00  0.0000E+00  0.7000E+03
  13.170  0.0000E+00  0.0000E+00  0.7000E+03
  13.180  0.0000E+00  0.0000E+00  0.7000E+03
  13.190  0.0000E+00  0.0000E+00  0.7000E+03
  13.200  0.0000E+00  0.0000E+00  0.7000E+03
  13.210  0.0000E+00  0.0000E+00  0.7000E+03
  13.220  0.0000E+00  0.0000E+00  0.7000E+03
  13.230  0.0000E+00  0.0000E+00  0.7000E+03
  13.240  0.0000E+00  0.0000E+00  0.7000E+03
  13.250  0.0000E+00  0.0000E+00  0.7000E+03
  13.260  0.0000E+00  0.0000E+00  0.7000E+03
  13.270  0.0000E+00  0.0000E+00  0.7000E+03
  13.280  0.0000E+00  0.0000E+00  0.7000E+03
  13.290  0.0000E+00  0.0000E+00  0.7000E+03
  13.300  0.0000E+00  0.0000E+00  0.7000E+03
  13.310  0.0000E+00  0.0000E+00  0.7000E+03
  13.320  0.0000E+00  0.0000E+00  0.7000E+03
  13.330  0.0000E+00  0.0000E+00  0.7000E+03
  13.340  0.0000E+00  0.0000E+00  0.7000E+03
  13.350  0.0000E+00  0.0000E+00  0.7000E+03
  13.360  0.0000E+00  0.0000E+00  0.7000E+03
  13.370  0.0000E+00  0.0000E+00  0.7000E+03
  13.380  0.0000E+00  0.0000E+00  0.7000E+03
  13.390  0.0000E+00  0.0000E+00  0.7000E+03
  13.400  0.0000E+00  0.0000E+00  0.7000E+03
  13.410  0.0000E+00  0.0000E+00  0.7000E+03
  13.420  0.0000E+00  0.0000E+00  0.7000E+03
  13.430  0.0000E+00  0.0000E+00  0.7000E+03
  13.440  0.0000E+00  0.0000E+00  0.7000E+03
  13.450  0.0000E+00  0.0000E+00  0.7000E+03
  13.460  0.0000E+00  0.0000E+00  0.7000E+03
  13.470  0.0000E+00  0.0000E+00  0.7000E+03
  13.480  0.0000E+00  0.0000E+00  0.7000E+03
  13.490  0.0000E+00  0.0000E+00  0.7000E+03
  13.500  0.0000E+00  0.0000E+00  0.7000E+03
  13.510  0.0000E+00  0.0000E+00  0.7000E+03
  13.520  0.0000E+00  0.0000E+00  0.7000E+03
  13.530  0.0000E+00  0.0000E+00  0.7000E+03
  13.540  0.0000E+00  0.0000E+00  0.7000E+03
  13.550  0.0000E+00  0.0000E+00  0.7000E+03
  13.560  0.0000E+00  0.0000E+00  0.7000E+03
  13.570  0.0000E+00  0.0000E+00  0.7000E+03
  13.580  0.0000E+00  0.0000E+00  0.7000E+03
  13.590  0.0000E+00  0.0000E+00  0.7000E+03
  13.600  0.0000E+00  0.0000E+00  0.7000E+03
  13.610  0.0000E+00  0.0000E+00  0.7000E+03
  13.620  0.0000E+00  0.0000E+00  0.7000E+03
  13.630  0.0000E+00  0.0000E+00  0.7000E+03
  13.640  0.0000E+00  0.0000E+00  0.7000E+03
  13.650  0.0000E+00  0.0000E+00  0.7000E+03
  13.660  0.0000E+00  0.0000E+00  0.7000E+03
  13.670  0.0000E+00  0.0000E+00  0.7000E+03
  13.680  0.0000E+00  0.0000E+00  0.7000E+03
  13.690  0.0000E+00  0.0000E+00  0.7000E+03
  13.700  0.0000E+00  0.0000E+00  0.7000E+03
  13.710  0.0000E+00  0.0000E+00  0.7000E+03
  13.720  0.0000E+00  0.0000E+00  0.7000E+03
  13.730  0.0000E+00  0.0000E+00  0.7000E+03
  13.740  0.0000E+00  0.0000E+00  0.7000E+03
  13.750  0.0000E+00  0.0000E+00  0.7000E+03
  13.760  0.0000E+00  0.0000E+00  0.7000E+03
  13.770  0.0000E+00  0.0000E+00  0.7000E+03
  13.780  0.0000E+00  0.0000E+00  0.7000E+03
  13.790  0.0000E+00  0.0000E+00  0.7000E+03
  13.800  0.0000E+00  0.0000E+00  0.7000E+03
  13.810  0.0000E+00  0.0000E+00  0.7000E+03
  13.820  0.0000E+00  0.0000E+00  0.7000E+03
  13.830  0.0000E+00  0.0000E+00  0.7000E+03
  13.840  0.0000E+00  0.0000E+00  0.7000E+03
  13.850  0.0000E+00  0.0000E+00  0.7000E+03
  13.860  0.0000E+00  0.0000E+00  0.7000E+03
  13.870  0.0000E+00  0.0000E+00  0.7000E+03
  13.880  0.0000E+00  0.0000E+00  0.7000E+03
  13.890  0.0000E+00  0.0000E+00  0.7000E+03
  13.900  0.0000E+00  0.0000E+00  0.7000E+03
  13.910  0.0000E+00  0.0000E+00  0.7000E+03
  13.920  0.0000E+00  0.0000E+00  0.7000E+03
  13.930  0.0000E+00  0.0000E+00  0.7000E+03
  13.940  0.0000E+00  0.0000E+00  0.7000E+03
  13.950  0.0000E+00  0.0000E+00  0.7000E+03
  13.960  0.0000E+00  0.0000E+00  0.7000E+03
  13.970  0.0000E+00  0.0000E+00  0.7000E+03
  13.980  0.0000E+00  0.0000E+00  0.7000E+03
  13.990  0.0000E+00  0.0000E+00  0.7000E+03
  14.000  0.0000E+00  0.0000E+00  0.7000E+03
  14.010  0.0000E+00  0.0000E+00  0.7000E+03
  14.020  0.0000E+00  0.0000E+00  0.7000E+03
  14.030  0.0000E+00  0.0000E+00  0.7000E+03
  14.040  0.0000E+00  0.0000E+00  0.7000E+03
  14.050  0.0000E+00  0.0000E+00  0.7000E+03
  14.060  0.0000E+00  0.0000E+00  0.7000E+03
  14.070  0.0000E+00  0.0000E+00  0.7000E+03
  14.080  0.0000E+00  0.0000E+00  0.7000E+03
  14.090  0.0000E+00  0.0000E+00  0.7000E+03
  14.100  0.0000E+00  0.0000E+00  0.7000E+03
  14.110  0.0000E+00  0.0000E+00  0.7000E+03
  14.120  0.0000E+00  0.0000E+00  0.7000E+03
  14.130  0.0000E+00  0.0000E+00  0.7000E+03
  14.140  0.0000E+00  0.0000E+00  0.7000E+03
  14.150  0.0000E+00  0.0000E+00  0.7000E+03
  14.160  0.0000E+00  0.0000E+00  0.7000E+03
  14.170  0.0000E+00  0.0000E+00  0.7000E+03
  14.180  0.0000E+00  0.0000E+00  0.7000E+03
  14.190  0.0000E+00  0.0000E+00  0.7000E+03
  14.200  0.0000E+00  0.0000E+00  0.7000E+03
  14.210  0.0000E+00  0.0000E+00  0.7000E+03
  14.220  0.0000E+00  0.0000E+00  0.7000E+03
  14.230  0.0000E+00  0.0000E+00  0.7000E+03
  14.240  0.0000E+00  0.0000E+00  0.7000E+03
  14.250  0.0000E+00  0.0000E+00  0.7000E+03
  14.260  0.0000E+00  0.0000E+00  0.7000E+03
  14.270  0.0000E+00  0.0000E+00  0.7000E+03
  14.280  0.0000E+00  0.0000E+00  0.7000E+03
  14.290  0.0000E+00  0.0000E+00  0.7000E+03
  14.300  0.0000E+00  0.0000E+00  0.7000E+03
  14.310  0.0000E+00  0.0000E+00  0.7000E+03
  14.320  0.0000E+00  0.0000E+00  0.7000E+03
  14.330  0.0000E+00  0.0000E+00  0.7000E+03
  14.340  0.0000E+00  0.0000E+00  0.7000E+03
  14.350  0.0000E+00  0.0000E+00  0.7000E+03
  14.360  0.0000E+00  0.0000E+00  0.7000E+03
  14.370  0.0000E+00  0.0000E+00  0.7000E+03
  14.380  0.0000E+00  0.0000E+00  0.7000E+03
  14.390  0.0000E+00  0.0000E+00  0.7000E+03
  14.400  0.0000E+00  0.0000E+00  0.7000E+03
  14.410  0.0000E+00  0.0000E+00  0.7000E+03
  14.420  0.0000E+00  0.0000E+00  0.7000E+03
  14.430  0.0000E+00  0.0000E+00  0.7000E+03
  14.440  0.0000E+00  0.0000E+00  0.7000E+03
  14.450  0.0000E+00  0.0000E+00  0.7000E+03
  14.460  0.0000E+00  0.0000E+00  0.7000E+03
  14.470  0.0000E+00  0.0000E+00  0.7000E+03
  14.480  0.0000E+00  0.0000E+00  0.7000E+03
  14.490  0.0000E+00  0.0000E+00  0.7000E+03
  14.500  0.0000E+00  0.0000E+00  0.7000E+03
  14.510  0.0000E+00  0.0000E+00  0.7000E+03
  14.520  0.0000E+00  0.0000E+00  0.7000E+03
  14.530  0.0000E+00  0.0000E+00  0.7000E+03
  14.540  0.0000E+00  0.0000E+00  0.7000E+03
  14.550  0.0000E+00  0.0000E+00  0.7000E+03
  14.560  0.0000E+00  0.0000E+00  0.7000E+03
  14.570  0.0000E+00  0.0000E+00  0.7000E+03
  14.580  0.0000E+00  0.0000E+00  0.7000E+03
  14.590  0.0000E+00  0.0000E+00  0.7000E+03
  14.600  0.0000E+00  0.0000E+00  0.7000E+03
  14.610  0.0000E+00  0.0000E+00  0.7000E+03
  14.620  0.0000E+00  0.0000E+00  0.7000E+03
  14.630  0.0000E+00  0.0000E+00  0.7000E+03
  14.640  0.0000E+00  0.0000E+00  0.7000E+03
  14.650  0.0000E+00  0.0000E+00  0.7000E+03
  14.660  0.0000E+00  0.0000E+00  0.7000E+03
  14.670  0.0000E+00  0.0000E+00  0.7000E+03
  14.680  0.0000E+00  0.0000E+00  0.7000E+03
  14.690  0.0000E+00  0.0000E+00  0.7000E+03
  14.700  0.0000E+00  0.0000E+00  0.7000E+03
  14.710  0.0000E+00  0.0000E+00  0.7000E+03
  14.720  0.0000E+00  0.0000E+00  0.7000E+03
  14.730  0.0000E+00  0.0000E+00  0.7000E+03
  14.740  0.0000E+00  0.0000E+00  0.7000E+03
  14.750  0.0000E+00  0.0000E+00  0.7000E+03
  14.760  0.0000E+00  0.0000E+00  0.7000E+03
  14.770  0.0000E+00  0.0000E+00  0.7000E+03
  14.780  0.0000E+00  0.0000E+00  0.7000E+03
  14.790  0.0000E+00  0.0000E+00  0.7000E+03
  14.800  0.0000E+00  0.0000E+00  0.7000E+03
  14.810  0.0000E+00  0.0000E+00  0.7000E+03
  14.820  0.0000E+00  0.0000E+00  0.7000E+03
  14.830  0.0000E+00  0.0000E+00  0.7000E+03
  14.840  0.0000E+00  0.0000E+00  0.7000E+03
  14.850  0.0000E+00  0.0000E+00  0.7000E+03
  14.860  0.0000E+00  0.0000E+00  0.7000E+03
  14.870  0.0000E+00  0.0000E+00  0.7000E+03
  14.880  0.0000E+00  0.0000E+00  0.7000E+03
  14.890  0.0000E+00  0.0000E+00  0.7000E+03
  14.900  0.0000E+00  0.0000E+00  0.7000E+03
  14.910  0.0000E+00  0.0000E+00  0.7000E+03
  14.920  0.0000E+00  0.0000E+00  0.7000E+03
  14.930  0.0000E+00  0.0000E+00  0.7000E+03
  14.940  0.0000E+00  0.0000E+00  0.7000E+03
  14.950  0.0000E+00  0.0000E+00  0.7000E+03
  14.960  0.0000E+00  0.0000E+00  0.7000E+03
  14.970  0.0000E+00  0.0000E+00  0.7000E+03
  14.980  0.0000E+00  0.0000E+00  0.7000E+03
  14.990  0.0000E+00  0.0000E+00  0.7000E+03
  15.000  0.0000E+00  0.0000E+00  0.7000E+03
