# E (eV) pdos(E) 
 -7.455 -0.412E-04
 -7.445  0.607E-03
 -7.435  0.251E-02
 -7.425  0.517E-02
 -7.415  0.789E-02
 -7.405  0.102E-01
 -7.395  0.124E-01
 -7.385  0.150E-01
 -7.375  0.178E-01
 -7.365  0.216E-01
 -7.355  0.271E-01
 -7.345  0.334E-01
 -7.335  0.406E-01
 -7.325  0.502E-01
 -7.315  0.614E-01
 -7.305  0.719E-01
 -7.295  0.803E-01
 -7.285  0.901E-01
 -7.275  0.104E+00
 -7.265  0.124E+00
 -7.255  0.139E+00
 -7.245  0.148E+00
 -7.235  0.157E+00
 -7.225  0.165E+00
 -7.215  0.172E+00
 -7.205  0.177E+00
 -7.195  0.180E+00
 -7.185  0.185E+00
 -7.175  0.192E+00
 -7.165  0.208E+00
 -7.155  0.231E+00
 -7.145  0.253E+00
 -7.135  0.277E+00
 -7.125  0.346E+00
 -7.115  0.389E+00
 -7.105  0.399E+00
 -7.095  0.385E+00
 -7.085  0.370E+00
 -7.075  0.389E+00
 -7.065  0.411E+00
 -7.055  0.439E+00
 -7.045  0.470E+00
 -7.035  0.493E+00
 -7.025  0.515E+00
 -7.015  0.509E+00
 -7.005  0.529E+00
 -6.995  0.548E+00
 -6.985  0.591E+00
 -6.975  0.629E+00
 -6.965  0.657E+00
 -6.955  0.672E+00
 -6.945  0.726E+00
 -6.935  0.887E+00
 -6.925  0.115E+01
 -6.915  0.129E+01
 -6.905  0.140E+01
 -6.895  0.152E+01
 -6.885  0.137E+01
 -6.875  0.136E+01
 -6.865  0.134E+01
 -6.855  0.132E+01
 -6.845  0.138E+01
 -6.835  0.155E+01
 -6.825  0.153E+01
 -6.815  0.136E+01
 -6.805  0.122E+01
 -6.795  0.112E+01
 -6.785  0.107E+01
 -6.775  0.107E+01
 -6.765  0.132E+01
 -6.755  0.178E+01
 -6.745  0.226E+01
 -6.735  0.214E+01
 -6.725  0.258E+01
 -6.715  0.369E+01
 -6.705  0.339E+01
 -6.695  0.302E+01
 -6.685  0.276E+01
 -6.675  0.376E+01
 -6.665  0.409E+01
 -6.655  0.430E+01
 -6.645  0.487E+01
 -6.635  0.517E+01
 -6.625  0.497E+01
 -6.615  0.499E+01
 -6.605  0.501E+01
 -6.595  0.589E+01
 -6.585  0.572E+01
 -6.575  0.568E+01
 -6.565  0.578E+01
 -6.555  0.609E+01
 -6.545  0.673E+01
 -6.535  0.872E+01
 -6.525  0.893E+01
 -6.515  0.792E+01
 -6.505  0.690E+01
 -6.495  0.757E+01
 -6.485  0.102E+02
 -6.475  0.116E+02
 -6.465  0.766E+01
 -6.455  0.722E+01
 -6.445  0.635E+01
 -6.435  0.700E+01
 -6.425  0.781E+01
 -6.415  0.808E+01
 -6.405  0.106E+02
 -6.395  0.171E+02
 -6.385  0.161E+02
 -6.375  0.134E+02
 -6.365  0.122E+02
 -6.355  0.106E+02
 -6.345  0.621E+00
 -6.335  0.000E+00
 -6.325  0.000E+00
 -6.315  0.000E+00
 -6.305  0.000E+00
 -6.295  0.000E+00
 -6.285  0.000E+00
 -6.275  0.000E+00
 -6.265  0.000E+00
 -6.255  0.000E+00
 -6.245  0.000E+00
 -6.235  0.000E+00
 -6.225  0.000E+00
 -6.215  0.000E+00
 -6.205  0.000E+00
 -6.195  0.000E+00
 -6.185  0.000E+00
 -6.175  0.000E+00
 -6.165  0.000E+00
 -6.155  0.000E+00
 -6.145  0.000E+00
 -6.135  0.000E+00
 -6.125  0.000E+00
 -6.115  0.000E+00
 -6.105  0.000E+00
 -6.095  0.000E+00
 -6.085  0.000E+00
 -6.075  0.000E+00
 -6.065  0.000E+00
 -6.055  0.000E+00
 -6.045  0.000E+00
 -6.035  0.000E+00
 -6.025  0.000E+00
 -6.015  0.000E+00
 -6.005  0.000E+00
 -5.995  0.000E+00
 -5.985  0.000E+00
 -5.975  0.000E+00
 -5.965  0.000E+00
 -5.955  0.000E+00
 -5.945  0.000E+00
 -5.935  0.000E+00
 -5.925  0.000E+00
 -5.915  0.000E+00
 -5.905  0.000E+00
 -5.895  0.000E+00
 -5.885  0.000E+00
 -5.875  0.000E+00
 -5.865  0.000E+00
 -5.855  0.000E+00
 -5.845  0.000E+00
 -5.835  0.000E+00
 -5.825  0.000E+00
 -5.815  0.000E+00
 -5.805  0.000E+00
 -5.795  0.000E+00
 -5.785  0.000E+00
 -5.775  0.000E+00
 -5.765  0.000E+00
 -5.755  0.000E+00
 -5.745  0.000E+00
 -5.735  0.000E+00
 -5.725  0.000E+00
 -5.715  0.000E+00
 -5.705  0.000E+00
 -5.695  0.000E+00
 -5.685  0.000E+00
 -5.675  0.000E+00
 -5.665  0.000E+00
 -5.655  0.000E+00
 -5.645  0.000E+00
 -5.635  0.000E+00
 -5.625  0.000E+00
 -5.615  0.000E+00
 -5.605  0.000E+00
 -5.595  0.000E+00
 -5.585  0.000E+00
 -5.575  0.000E+00
 -5.565  0.000E+00
 -5.555  0.000E+00
 -5.545  0.000E+00
 -5.535  0.000E+00
 -5.525  0.000E+00
 -5.515  0.000E+00
 -5.505  0.000E+00
 -5.495  0.000E+00
 -5.485  0.000E+00
 -5.475  0.000E+00
 -5.465  0.000E+00
 -5.455  0.000E+00
 -5.445  0.000E+00
 -5.435  0.000E+00
 -5.425  0.000E+00
 -5.415  0.000E+00
 -5.405  0.000E+00
 -5.395  0.000E+00
 -5.385  0.000E+00
 -5.375  0.000E+00
 -5.365  0.000E+00
 -5.355  0.000E+00
 -5.345  0.000E+00
 -5.335  0.000E+00
 -5.325  0.000E+00
 -5.315  0.000E+00
 -5.305  0.000E+00
 -5.295  0.000E+00
 -5.285  0.000E+00
 -5.275  0.000E+00
 -5.265  0.000E+00
 -5.255  0.000E+00
 -5.245  0.000E+00
 -5.235  0.000E+00
 -5.225  0.000E+00
 -5.215  0.000E+00
 -5.205  0.000E+00
 -5.195  0.000E+00
 -5.185  0.000E+00
 -5.175  0.000E+00
 -5.165  0.000E+00
 -5.155  0.000E+00
 -5.145  0.000E+00
 -5.135  0.000E+00
 -5.125  0.000E+00
 -5.115  0.000E+00
 -5.105  0.000E+00
 -5.095  0.000E+00
 -5.085  0.000E+00
 -5.075  0.000E+00
 -5.065  0.000E+00
 -5.055  0.000E+00
 -5.045  0.000E+00
 -5.035  0.000E+00
 -5.025  0.000E+00
 -5.015  0.000E+00
 -5.005  0.000E+00
 -4.995  0.000E+00
 -4.985  0.000E+00
 -4.975  0.000E+00
 -4.965  0.000E+00
 -4.955  0.000E+00
 -4.945  0.000E+00
 -4.935  0.000E+00
 -4.925  0.000E+00
 -4.915  0.000E+00
 -4.905  0.000E+00
 -4.895  0.000E+00
 -4.885  0.000E+00
 -4.875  0.000E+00
 -4.865  0.000E+00
 -4.855  0.000E+00
 -4.845  0.000E+00
 -4.835  0.000E+00
 -4.825  0.000E+00
 -4.815  0.000E+00
 -4.805  0.000E+00
 -4.795  0.000E+00
 -4.785  0.000E+00
 -4.775  0.000E+00
 -4.765  0.000E+00
 -4.755  0.000E+00
 -4.745  0.000E+00
 -4.735  0.000E+00
 -4.725  0.000E+00
 -4.715  0.000E+00
 -4.705  0.000E+00
 -4.695  0.000E+00
 -4.685  0.000E+00
 -4.675  0.000E+00
 -4.665  0.000E+00
 -4.655  0.000E+00
 -4.645  0.000E+00
 -4.635  0.000E+00
 -4.625  0.000E+00
 -4.615  0.000E+00
 -4.605  0.000E+00
 -4.595  0.000E+00
 -4.585  0.000E+00
 -4.575  0.000E+00
 -4.565  0.000E+00
 -4.555  0.000E+00
 -4.545  0.000E+00
 -4.535  0.000E+00
 -4.525  0.000E+00
 -4.515  0.000E+00
 -4.505  0.000E+00
 -4.495  0.000E+00
 -4.485  0.000E+00
 -4.475  0.000E+00
 -4.465  0.000E+00
 -4.455  0.000E+00
 -4.445  0.000E+00
 -4.435  0.000E+00
 -4.425  0.000E+00
 -4.415  0.000E+00
 -4.405  0.000E+00
 -4.395  0.000E+00
 -4.385  0.000E+00
 -4.375  0.000E+00
 -4.365  0.000E+00
 -4.355  0.000E+00
 -4.345  0.000E+00
 -4.335  0.000E+00
 -4.325  0.000E+00
 -4.315  0.000E+00
 -4.305  0.000E+00
 -4.295  0.000E+00
 -4.285  0.000E+00
 -4.275  0.000E+00
 -4.265  0.000E+00
 -4.255  0.000E+00
 -4.245  0.000E+00
 -4.235  0.000E+00
 -4.225  0.000E+00
 -4.215  0.000E+00
 -4.205  0.000E+00
 -4.195  0.000E+00
 -4.185  0.000E+00
 -4.175  0.000E+00
 -4.165  0.000E+00
 -4.155  0.000E+00
 -4.145  0.000E+00
 -4.135  0.000E+00
 -4.125  0.000E+00
 -4.115  0.000E+00
 -4.105  0.000E+00
 -4.095  0.000E+00
 -4.085  0.000E+00
 -4.075  0.000E+00
 -4.065  0.000E+00
 -4.055  0.000E+00
 -4.045  0.000E+00
 -4.035  0.000E+00
 -4.025  0.000E+00
 -4.015  0.000E+00
 -4.005  0.000E+00
 -3.995  0.000E+00
 -3.985  0.000E+00
 -3.975  0.000E+00
 -3.965  0.000E+00
 -3.955  0.000E+00
 -3.945  0.000E+00
 -3.935  0.000E+00
 -3.925  0.000E+00
 -3.915  0.000E+00
 -3.905  0.000E+00
 -3.895  0.000E+00
 -3.885  0.000E+00
 -3.875  0.000E+00
 -3.865  0.000E+00
 -3.855  0.000E+00
 -3.845  0.000E+00
 -3.835  0.000E+00
 -3.825  0.000E+00
 -3.815  0.000E+00
 -3.805  0.000E+00
 -3.795  0.000E+00
 -3.785  0.000E+00
 -3.775  0.000E+00
 -3.765  0.000E+00
 -3.755  0.000E+00
 -3.745  0.000E+00
 -3.735  0.000E+00
 -3.725  0.000E+00
 -3.715  0.000E+00
 -3.705  0.000E+00
 -3.695  0.000E+00
 -3.685  0.000E+00
 -3.675  0.000E+00
 -3.665  0.000E+00
 -3.655  0.000E+00
 -3.645  0.000E+00
 -3.635  0.000E+00
 -3.625  0.000E+00
 -3.615  0.000E+00
 -3.605  0.000E+00
 -3.595  0.000E+00
 -3.585  0.000E+00
 -3.575  0.000E+00
 -3.565  0.000E+00
 -3.555  0.000E+00
 -3.545  0.000E+00
 -3.535  0.000E+00
 -3.525  0.000E+00
 -3.515  0.000E+00
 -3.505  0.000E+00
 -3.495  0.000E+00
 -3.485  0.000E+00
 -3.475  0.000E+00
 -3.465  0.000E+00
 -3.455  0.000E+00
 -3.445  0.000E+00
 -3.435  0.000E+00
 -3.425  0.000E+00
 -3.415  0.000E+00
 -3.405  0.000E+00
 -3.395  0.000E+00
 -3.385  0.000E+00
 -3.375  0.000E+00
 -3.365  0.000E+00
 -3.355  0.000E+00
 -3.345  0.000E+00
 -3.335  0.000E+00
 -3.325  0.000E+00
 -3.315  0.000E+00
 -3.305  0.000E+00
 -3.295  0.000E+00
 -3.285  0.000E+00
 -3.275  0.000E+00
 -3.265  0.000E+00
 -3.255  0.000E+00
 -3.245  0.000E+00
 -3.235  0.000E+00
 -3.225  0.000E+00
 -3.215  0.000E+00
 -3.205  0.000E+00
 -3.195  0.000E+00
 -3.185  0.000E+00
 -3.175  0.000E+00
 -3.165  0.000E+00
 -3.155  0.000E+00
 -3.145  0.000E+00
 -3.135  0.000E+00
 -3.125  0.000E+00
 -3.115  0.000E+00
 -3.105  0.000E+00
 -3.095  0.000E+00
 -3.085  0.000E+00
 -3.075  0.000E+00
 -3.065  0.000E+00
 -3.055  0.000E+00
 -3.045  0.000E+00
 -3.035  0.000E+00
 -3.025  0.000E+00
 -3.015  0.000E+00
 -3.005  0.000E+00
 -2.995  0.000E+00
 -2.985  0.000E+00
 -2.975  0.000E+00
 -2.965  0.000E+00
 -2.955  0.000E+00
 -2.945  0.000E+00
 -2.935  0.000E+00
 -2.925  0.000E+00
 -2.915  0.000E+00
 -2.905  0.000E+00
 -2.895  0.000E+00
 -2.885  0.000E+00
 -2.875  0.000E+00
 -2.865  0.000E+00
 -2.855  0.000E+00
 -2.845  0.000E+00
 -2.835  0.000E+00
 -2.825  0.000E+00
 -2.815  0.000E+00
 -2.805  0.000E+00
 -2.795  0.000E+00
 -2.785  0.000E+00
 -2.775  0.000E+00
 -2.765  0.000E+00
 -2.755  0.000E+00
 -2.745  0.000E+00
 -2.735  0.000E+00
 -2.725  0.000E+00
 -2.715  0.000E+00
 -2.705  0.000E+00
 -2.695  0.000E+00
 -2.685  0.000E+00
 -2.675  0.000E+00
 -2.665  0.000E+00
 -2.655  0.000E+00
 -2.645  0.000E+00
 -2.635  0.000E+00
 -2.625  0.000E+00
 -2.615  0.000E+00
 -2.605  0.000E+00
 -2.595  0.000E+00
 -2.585  0.000E+00
 -2.575  0.000E+00
 -2.565  0.000E+00
 -2.555  0.000E+00
 -2.545  0.000E+00
 -2.535  0.000E+00
 -2.525  0.000E+00
 -2.515  0.000E+00
 -2.505  0.000E+00
 -2.495  0.000E+00
 -2.485  0.000E+00
 -2.475  0.000E+00
 -2.465  0.000E+00
 -2.455  0.000E+00
 -2.445  0.000E+00
 -2.435  0.000E+00
 -2.425  0.000E+00
 -2.415  0.000E+00
 -2.405  0.000E+00
 -2.395  0.000E+00
 -2.385  0.000E+00
 -2.375  0.000E+00
 -2.365  0.000E+00
 -2.355  0.000E+00
 -2.345  0.000E+00
 -2.335  0.000E+00
 -2.325  0.000E+00
 -2.315  0.000E+00
 -2.305  0.000E+00
 -2.295  0.000E+00
 -2.285  0.000E+00
 -2.275  0.000E+00
 -2.265  0.000E+00
 -2.255  0.000E+00
 -2.245  0.000E+00
 -2.235  0.000E+00
 -2.225  0.000E+00
 -2.215  0.000E+00
 -2.205  0.000E+00
 -2.195  0.000E+00
 -2.185  0.000E+00
 -2.175  0.000E+00
 -2.165  0.000E+00
 -2.155  0.000E+00
 -2.145  0.000E+00
 -2.135  0.000E+00
 -2.125  0.000E+00
 -2.115  0.000E+00
 -2.105  0.000E+00
 -2.095  0.000E+00
 -2.085  0.000E+00
 -2.075  0.000E+00
 -2.065  0.000E+00
 -2.055  0.000E+00
 -2.045  0.000E+00
 -2.035  0.000E+00
 -2.025  0.000E+00
 -2.015  0.000E+00
 -2.005  0.000E+00
 -1.995  0.000E+00
 -1.985  0.000E+00
 -1.975  0.000E+00
 -1.965  0.000E+00
 -1.955  0.000E+00
 -1.945  0.000E+00
 -1.935  0.000E+00
 -1.925  0.000E+00
 -1.915  0.235E+02
 -1.905  0.176E+03
 -1.895  0.148E+03
 -1.885  0.170E+03
 -1.875  0.383E+03
 -1.865  0.248E+03
 -1.855  0.315E+03
 -1.845  0.429E+03
 -1.835  0.114E+04
 -1.825  0.677E+03
 -1.815  0.156E+04
 -1.805  0.182E+04
 -1.795  0.154E+04
 -1.785  0.113E+04
 -1.775  0.625E+03
 -1.765  0.454E+03
 -1.755  0.471E+03
 -1.745  0.537E+03
 -1.735  0.282E+03
 -1.725  0.737E+03
 -1.715  0.330E+03
 -1.705  0.377E+03
 -1.695  0.322E+03
 -1.685  0.210E+03
 -1.675  0.347E+03
 -1.665  0.319E+03
 -1.655  0.289E+03
 -1.645  0.269E+03
 -1.635  0.497E+03
 -1.625  0.332E+03
 -1.615  0.279E+03
 -1.605  0.338E+03
 -1.595  0.523E+03
 -1.585  0.742E+03
 -1.575  0.410E+03
 -1.565  0.444E+03
 -1.555  0.718E+03
 -1.545  0.755E+03
 -1.535  0.122E+04
 -1.525  0.190E+04
 -1.515  0.141E+04
 -1.505  0.117E+04
 -1.495  0.365E+03
 -1.485  0.262E+03
 -1.475  0.187E+03
 -1.465  0.141E+03
 -1.455  0.856E+02
 -1.445  0.715E+02
 -1.435  0.619E+02
 -1.425  0.569E+02
 -1.415  0.641E+02
 -1.405  0.125E+03
 -1.395  0.119E+03
 -1.385  0.878E+02
 -1.375  0.745E+02
 -1.365  0.672E+02
 -1.355  0.664E+02
 -1.345  0.704E+02
 -1.335  0.805E+02
 -1.325  0.836E+02
 -1.315  0.810E+02
 -1.305  0.966E+02
 -1.295  0.133E+03
 -1.285  0.151E+03
 -1.275  0.134E+03
 -1.265  0.129E+03
 -1.255  0.139E+03
 -1.245  0.105E+03
 -1.235  0.985E+02
 -1.225  0.105E+03
 -1.215  0.144E+03
 -1.205  0.161E+03
 -1.195  0.198E+03
 -1.185  0.167E+03
 -1.175  0.712E+02
 -1.165  0.609E+02
 -1.155  0.101E+03
 -1.145  0.189E+03
 -1.135  0.197E+03
 -1.125  0.141E+03
 -1.115  0.830E+02
 -1.105  0.567E+02
 -1.095  0.739E+02
 -1.085  0.153E+02
 -1.075  0.234E+01
 -1.065  0.625E-02
 -1.055  0.000E+00
 -1.045  0.000E+00
 -1.035  0.000E+00
 -1.025  0.000E+00
 -1.015  0.000E+00
 -1.005  0.000E+00
 -0.995  0.000E+00
 -0.985  0.000E+00
 -0.975  0.000E+00
 -0.965  0.000E+00
 -0.955  0.000E+00
 -0.945  0.000E+00
 -0.935  0.000E+00
 -0.925  0.000E+00
 -0.915  0.000E+00
 -0.905  0.000E+00
 -0.895  0.000E+00
 -0.885  0.000E+00
 -0.875  0.000E+00
 -0.865  0.000E+00
 -0.855  0.000E+00
 -0.845  0.000E+00
 -0.835  0.000E+00
 -0.825  0.000E+00
 -0.815  0.000E+00
 -0.805  0.000E+00
 -0.795  0.000E+00
 -0.785  0.000E+00
 -0.775  0.000E+00
 -0.765  0.000E+00
 -0.755  0.000E+00
 -0.745  0.000E+00
 -0.735  0.000E+00
 -0.725  0.000E+00
 -0.715  0.000E+00
 -0.705  0.000E+00
 -0.695  0.000E+00
 -0.685  0.000E+00
 -0.675  0.000E+00
 -0.665  0.000E+00
 -0.655  0.000E+00
 -0.645  0.000E+00
 -0.635  0.000E+00
 -0.625  0.000E+00
 -0.615  0.000E+00
 -0.605  0.000E+00
 -0.595  0.000E+00
 -0.585  0.000E+00
 -0.575  0.000E+00
 -0.565  0.000E+00
 -0.555  0.000E+00
 -0.545  0.000E+00
 -0.535  0.000E+00
 -0.525  0.000E+00
 -0.515  0.000E+00
 -0.505  0.000E+00
 -0.495  0.000E+00
 -0.485  0.000E+00
 -0.475  0.000E+00
 -0.465  0.000E+00
 -0.455  0.000E+00
 -0.445  0.000E+00
 -0.435  0.000E+00
 -0.425  0.000E+00
 -0.415  0.000E+00
 -0.405  0.000E+00
 -0.395  0.000E+00
 -0.385  0.000E+00
 -0.375  0.000E+00
 -0.365  0.000E+00
 -0.355  0.000E+00
 -0.345  0.000E+00
 -0.335  0.000E+00
 -0.325  0.000E+00
 -0.315  0.000E+00
 -0.305  0.000E+00
 -0.295  0.000E+00
 -0.285  0.000E+00
 -0.275  0.000E+00
 -0.265  0.000E+00
 -0.255  0.000E+00
 -0.245  0.000E+00
 -0.235  0.000E+00
 -0.225  0.000E+00
 -0.215  0.000E+00
 -0.205  0.000E+00
 -0.195  0.000E+00
 -0.185  0.000E+00
 -0.175  0.000E+00
 -0.165  0.000E+00
 -0.155  0.000E+00
 -0.145  0.000E+00
 -0.135  0.000E+00
 -0.125  0.000E+00
 -0.115  0.000E+00
 -0.105  0.000E+00
 -0.095  0.000E+00
 -0.085  0.000E+00
 -0.075  0.000E+00
 -0.065  0.000E+00
 -0.055  0.000E+00
 -0.045  0.000E+00
 -0.035  0.000E+00
 -0.025  0.000E+00
 -0.015  0.000E+00
 -0.005  0.000E+00
  0.005  0.000E+00
  0.015  0.000E+00
  0.025  0.000E+00
  0.035  0.000E+00
  0.045  0.000E+00
  0.055  0.000E+00
  0.065  0.000E+00
  0.075  0.000E+00
  0.085  0.000E+00
  0.095  0.000E+00
  0.105  0.000E+00
  0.115  0.000E+00
  0.125  0.000E+00
  0.135  0.000E+00
  0.145  0.000E+00
  0.155  0.000E+00
  0.165  0.000E+00
  0.175  0.000E+00
  0.185  0.000E+00
  0.195  0.000E+00
  0.205  0.000E+00
  0.215  0.000E+00
  0.225  0.000E+00
  0.235  0.000E+00
  0.245  0.000E+00
  0.255  0.000E+00
  0.265  0.000E+00
  0.275  0.000E+00
  0.285  0.000E+00
  0.295  0.000E+00
  0.305  0.000E+00
  0.315  0.000E+00
  0.325  0.000E+00
  0.335  0.000E+00
  0.345 -0.147E-05
  0.355 -0.312E-04
  0.365 -0.879E-04
  0.375  0.254E-05
  0.385  0.509E-03
  0.395  0.170E-02
  0.405  0.385E-02
  0.415  0.722E-02
  0.425  0.121E-01
  0.435  0.187E-01
  0.445  0.274E-01
  0.455  0.387E-01
  0.465  0.680E-01
  0.475  0.133E+00
  0.485  0.157E+00
  0.495  0.107E+00
  0.505  0.994E-01
  0.515  0.110E+00
  0.525  0.121E+00
  0.535  0.134E+00
  0.545  0.148E+00
  0.555  0.164E+00
  0.565  0.182E+00
  0.575  0.202E+00
  0.585  0.224E+00
  0.595  0.248E+00
  0.605  0.274E+00
  0.615  0.303E+00
  0.625  0.340E+00
  0.635  0.386E+00
  0.645  0.440E+00
  0.655  0.501E+00
  0.665  0.562E+00
  0.675  0.615E+00
  0.685  0.621E+00
  0.695  0.678E+00
  0.705  0.749E+00
  0.715  0.778E+00
  0.725  0.780E+00
  0.735  0.782E+00
  0.745  0.785E+00
  0.755  0.776E+00
  0.765  0.757E+00
  0.775  0.736E+00
  0.785  0.703E+00
  0.795  0.661E+00
  0.805  0.623E+00
  0.815  0.631E+00
  0.825  0.678E+00
  0.835  0.734E+00
  0.845  0.821E+00
  0.855  0.980E+00
  0.865  0.121E+01
  0.875  0.156E+01
  0.885  0.291E+01
  0.895  0.370E+01
  0.905  0.361E+01
  0.915  0.361E+01
  0.925  0.377E+01
  0.935  0.408E+01
  0.945  0.405E+01
  0.955  0.378E+01
  0.965  0.350E+01
  0.975  0.343E+01
  0.985  0.355E+01
  0.995  0.412E+01
  1.005  0.414E+01
  1.015  0.444E+01
  1.025  0.606E+01
  1.035  0.651E+01
  1.045  0.419E+01
  1.055  0.253E+01
  1.065  0.253E+01
  1.075  0.309E+01
  1.085  0.364E+01
  1.095  0.403E+01
  1.105  0.425E+01
  1.115  0.431E+01
  1.125  0.427E+01
  1.135  0.417E+01
  1.145  0.400E+01
  1.155  0.374E+01
  1.165  0.340E+01
  1.175  0.318E+01
  1.185  0.300E+01
  1.195  0.283E+01
  1.205  0.269E+01
  1.215  0.256E+01
  1.225  0.246E+01
  1.235  0.236E+01
  1.245  0.229E+01
  1.255  0.223E+01
  1.265  0.218E+01
  1.275  0.221E+01
  1.285  0.232E+01
  1.295  0.245E+01
  1.305  0.255E+01
  1.315  0.262E+01
  1.325  0.266E+01
  1.335  0.267E+01
  1.345  0.264E+01
  1.355  0.258E+01
  1.365  0.248E+01
  1.375  0.234E+01
  1.385  0.219E+01
  1.395  0.203E+01
  1.405  0.187E+01
  1.415  0.175E+01
  1.425  0.172E+01
  1.435  0.172E+01
  1.445  0.173E+01
  1.455  0.176E+01
  1.465  0.178E+01
  1.475  0.183E+01
  1.485  0.194E+01
  1.495  0.211E+01
  1.505  0.214E+01
  1.515  0.211E+01
  1.525  0.205E+01
  1.535  0.196E+01
  1.545  0.185E+01
  1.555  0.173E+01
  1.565  0.159E+01
  1.575  0.143E+01
  1.585  0.127E+01
  1.595  0.113E+01
  1.605  0.104E+01
  1.615  0.100E+01
  1.625  0.106E+01
  1.635  0.115E+01
  1.645  0.127E+01
  1.655  0.139E+01
  1.665  0.149E+01
  1.675  0.158E+01
  1.685  0.166E+01
  1.695  0.172E+01
  1.705  0.177E+01
  1.715  0.180E+01
  1.725  0.181E+01
  1.735  0.180E+01
  1.745  0.178E+01
  1.755  0.174E+01
  1.765  0.169E+01
  1.775  0.162E+01
  1.785  0.156E+01
  1.795  0.151E+01
  1.805  0.147E+01
  1.815  0.143E+01
  1.825  0.138E+01
  1.835  0.135E+01
  1.845  0.132E+01
  1.855  0.129E+01
  1.865  0.127E+01
  1.875  0.125E+01
  1.885  0.123E+01
  1.895  0.122E+01
  1.905  0.121E+01
  1.915  0.121E+01
  1.925  0.121E+01
  1.935  0.122E+01
  1.945  0.123E+01
  1.955  0.124E+01
  1.965  0.125E+01
  1.975  0.126E+01
  1.985  0.127E+01
  1.995  0.128E+01
  2.005  0.129E+01
  2.015  0.129E+01
  2.025  0.129E+01
  2.035  0.130E+01
  2.045  0.129E+01
  2.055  0.129E+01
  2.065  0.151E+01
  2.075  0.198E+01
  2.085  0.164E+01
  2.095  0.142E+01
  2.105  0.133E+01
  2.115  0.121E+01
  2.125  0.110E+01
  2.135  0.105E+01
  2.145  0.104E+01
  2.155  0.102E+01
  2.165  0.101E+01
  2.175  0.998E+00
  2.185  0.984E+00
  2.195  0.971E+00
  2.205  0.957E+00
  2.215  0.943E+00
  2.225  0.931E+00
  2.235  0.918E+00
  2.245  0.904E+00
  2.255  0.891E+00
  2.265  0.879E+00
  2.275  0.868E+00
  2.285  0.861E+00
  2.295  0.860E+00
  2.305  0.861E+00
  2.315  0.863E+00
  2.325  0.868E+00
  2.335  0.880E+00
  2.345  0.892E+00
  2.355  0.905E+00
  2.365  0.919E+00
  2.375  0.933E+00
  2.385  0.943E+00
  2.395  0.967E+00
  2.405  0.101E+01
  2.415  0.106E+01
  2.425  0.114E+01
  2.435  0.126E+01
  2.445  0.140E+01
  2.455  0.148E+01
  2.465  0.150E+01
  2.475  0.151E+01
  2.485  0.151E+01
  2.495  0.151E+01
  2.505  0.150E+01
  2.515  0.148E+01
  2.525  0.146E+01
  2.535  0.144E+01
  2.545  0.147E+01
  2.555  0.156E+01
  2.565  0.171E+01
  2.575  0.187E+01
  2.585  0.205E+01
  2.595  0.222E+01
  2.605  0.252E+01
  2.615  0.291E+01
  2.625  0.435E+01
  2.635  0.563E+01
  2.645  0.613E+01
  2.655  0.501E+01
  2.665  0.395E+01
  2.675  0.294E+01
  2.685  0.231E+01
  2.695  0.187E+01
  2.705  0.158E+01
  2.715  0.142E+01
  2.725  0.144E+01
  2.735  0.156E+01
  2.745  0.178E+01
  2.755  0.194E+01
  2.765  0.229E+01
  2.775  0.271E+01
  2.785  0.203E+01
  2.795  0.166E+01
  2.805  0.140E+01
  2.815  0.123E+01
  2.825  0.130E+01
  2.835  0.131E+01
  2.845  0.136E+01
  2.855  0.148E+01
  2.865  0.165E+01
  2.875  0.172E+01
  2.885  0.177E+01
  2.895  0.182E+01
  2.905  0.186E+01
  2.915  0.189E+01
  2.925  0.192E+01
  2.935  0.194E+01
  2.945  0.200E+01
  2.955  0.209E+01
  2.965  0.218E+01
  2.975  0.228E+01
  2.985  0.239E+01
  2.995  0.249E+01
  3.005  0.260E+01
  3.015  0.272E+01
  3.025  0.280E+01
  3.035  0.285E+01
  3.045  0.288E+01
  3.055  0.292E+01
  3.065  0.289E+01
  3.075  0.260E+01
  3.085  0.232E+01
  3.095  0.201E+01
  3.105  0.196E+01
  3.115  0.198E+01
  3.125  0.200E+01
  3.135  0.202E+01
  3.145  0.203E+01
  3.155  0.191E+01
  3.165  0.179E+01
  3.175  0.165E+01
  3.185  0.161E+01
  3.195  0.163E+01
  3.205  0.173E+01
  3.215  0.193E+01
  3.225  0.221E+01
  3.235  0.241E+01
  3.245  0.250E+01
  3.255  0.258E+01
  3.265  0.269E+01
  3.275  0.281E+01
  3.285  0.304E+01
  3.295  0.310E+01
  3.305  0.330E+01
  3.315  0.310E+01
  3.325  0.293E+01
  3.335  0.282E+01
  3.345  0.269E+01
  3.355  0.258E+01
  3.365  0.256E+01
  3.375  0.257E+01
  3.385  0.259E+01
  3.395  0.264E+01
  3.405  0.289E+01
  3.415  0.277E+01
  3.425  0.264E+01
  3.435  0.261E+01
  3.445  0.262E+01
  3.455  0.268E+01
  3.465  0.275E+01
  3.475  0.275E+01
  3.485  0.274E+01
  3.495  0.277E+01
  3.505  0.280E+01
  3.515  0.277E+01
  3.525  0.268E+01
  3.535  0.261E+01
  3.545  0.259E+01
  3.555  0.260E+01
  3.565  0.256E+01
  3.575  0.255E+01
  3.585  0.272E+01
  3.595  0.272E+01
  3.605  0.235E+01
  3.615  0.216E+01
  3.625  0.221E+01
  3.635  0.224E+01
  3.645  0.223E+01
  3.655  0.224E+01
  3.665  0.228E+01
  3.675  0.234E+01
  3.685  0.241E+01
  3.695  0.281E+01
  3.705  0.282E+01
  3.715  0.366E+01
  3.725  0.371E+01
  3.735  0.435E+01
  3.745  0.430E+01
  3.755  0.433E+01
  3.765  0.418E+01
  3.775  0.335E+01
  3.785  0.324E+01
  3.795  0.317E+01
  3.805  0.311E+01
  3.815  0.309E+01
  3.825  0.319E+01
  3.835  0.317E+01
  3.845  0.295E+01
  3.855  0.262E+01
  3.865  0.227E+01
  3.875  0.205E+01
  3.885  0.193E+01
  3.895  0.188E+01
  3.905  0.186E+01
  3.915  0.188E+01
  3.925  0.192E+01
  3.935  0.199E+01
  3.945  0.207E+01
  3.955  0.219E+01
  3.965  0.233E+01
  3.975  0.251E+01
  3.985  0.275E+01
  3.995  0.299E+01
  4.005  0.319E+01
  4.015  0.332E+01
  4.025  0.332E+01
  4.035  0.339E+01
  4.045  0.350E+01
  4.055  0.357E+01
  4.065  0.359E+01
  4.075  0.386E+01
  4.085  0.364E+01
  4.095  0.331E+01
  4.105  0.321E+01
  4.115  0.306E+01
  4.125  0.296E+01
  4.135  0.295E+01
  4.145  0.302E+01
  4.155  0.277E+01
  4.165  0.268E+01
  4.175  0.271E+01
  4.185  0.276E+01
  4.195  0.287E+01
  4.205  0.300E+01
  4.215  0.321E+01
  4.225  0.346E+01
  4.235  0.392E+01
  4.245  0.442E+01
  4.255  0.469E+01
  4.265  0.482E+01
  4.275  0.473E+01
  4.285  0.502E+01
  4.295  0.351E+01
  4.305  0.294E+01
  4.315  0.268E+01
  4.325  0.263E+01
  4.335  0.265E+01
  4.345  0.264E+01
  4.355  0.231E+01
  4.365  0.210E+01
  4.375  0.205E+01
  4.385  0.205E+01
  4.395  0.208E+01
  4.405  0.216E+01
  4.415  0.225E+01
  4.425  0.230E+01
  4.435  0.228E+01
  4.445  0.230E+01
  4.455  0.239E+01
  4.465  0.248E+01
  4.475  0.256E+01
  4.485  0.264E+01
  4.495  0.272E+01
  4.505  0.283E+01
  4.515  0.328E+01
  4.525  0.349E+01
  4.535  0.376E+01
  4.545  0.372E+01
  4.555  0.383E+01
  4.565  0.400E+01
  4.575  0.401E+01
  4.585  0.384E+01
  4.595  0.361E+01
  4.605  0.318E+01
  4.615  0.317E+01
  4.625  0.331E+01
  4.635  0.341E+01
  4.645  0.404E+01
  4.655  0.512E+01
  4.665  0.526E+01
  4.675  0.443E+01
  4.685  0.352E+01
  4.695  0.296E+01
  4.705  0.261E+01
  4.715  0.239E+01
  4.725  0.225E+01
  4.735  0.215E+01
  4.745  0.209E+01
  4.755  0.204E+01
  4.765  0.201E+01
  4.775  0.198E+01
  4.785  0.195E+01
  4.795  0.192E+01
  4.805  0.188E+01
  4.815  0.185E+01
  4.825  0.182E+01
  4.835  0.182E+01
  4.845  0.189E+01
  4.855  0.208E+01
  4.865  0.219E+01
  4.875  0.217E+01
  4.885  0.201E+01
  4.895  0.186E+01
  4.905  0.185E+01
  4.915  0.183E+01
  4.925  0.180E+01
  4.935  0.176E+01
  4.945  0.172E+01
  4.955  0.172E+01
  4.965  0.169E+01
  4.975  0.141E+01
  4.985  0.134E+01
  4.995  0.166E+01
  5.005  0.181E+01
  5.015  0.172E+01
  5.025  0.159E+01
  5.035  0.144E+01
  5.045  0.128E+01
  5.055  0.105E+01
  5.065  0.866E+00
  5.075  0.784E+00
  5.085  0.765E+00
  5.095  0.768E+00
  5.105  0.771E+00
  5.115  0.776E+00
  5.125  0.784E+00
  5.135  0.835E+00
  5.145  0.984E+00
  5.155  0.127E+01
  5.165  0.155E+01
  5.175  0.168E+01
  5.185  0.173E+01
  5.195  0.200E+01
  5.205  0.208E+01
  5.215  0.195E+01
  5.225  0.168E+01
  5.235  0.158E+01
  5.245  0.139E+01
  5.255  0.121E+01
  5.265  0.104E+01
  5.275  0.894E+00
  5.285  0.770E+00
  5.295  0.671E+00
  5.305  0.595E+00
  5.315  0.533E+00
  5.325  0.472E+00
  5.335  0.423E+00
  5.345  0.389E+00
  5.355  0.398E+00
  5.365  0.435E+00
  5.375  0.446E+00
  5.385  0.430E+00
  5.395  0.390E+00
  5.405  0.324E+00
  5.415  0.232E+00
  5.425  0.120E+00
  5.435  0.517E-01
  5.445  0.257E-01
  5.455  0.968E-02
  5.465  0.163E-02
  5.475  0.907E-04
  5.485  0.187E-04
  5.495  0.000E+00
  5.505  0.000E+00
  5.515  0.000E+00
  5.525  0.000E+00
  5.535  0.000E+00
  5.545  0.000E+00
  5.555  0.000E+00
  5.565  0.000E+00
  5.575  0.000E+00
  5.585  0.000E+00
  5.595  0.000E+00
  5.605  0.000E+00
  5.615  0.000E+00
  5.625  0.000E+00
  5.635  0.000E+00
  5.645  0.000E+00
  5.655  0.000E+00
  5.665  0.000E+00
  5.675  0.000E+00
  5.685  0.000E+00
  5.695  0.000E+00
  5.705  0.000E+00
  5.715  0.000E+00
  5.725  0.000E+00
  5.735  0.000E+00
  5.745  0.000E+00
  5.755  0.000E+00
  5.765  0.000E+00
  5.775  0.000E+00
  5.785  0.000E+00
  5.795  0.000E+00
  5.805  0.000E+00
  5.815  0.000E+00
  5.825  0.000E+00
  5.835  0.000E+00
  5.845  0.000E+00
  5.855  0.000E+00
  5.865  0.000E+00
  5.875  0.000E+00
  5.885  0.000E+00
  5.895  0.000E+00
  5.905  0.000E+00
  5.915  0.000E+00
  5.925  0.000E+00
  5.935  0.000E+00
  5.945  0.000E+00
  5.955  0.000E+00
  5.965  0.000E+00
  5.975  0.000E+00
  5.985  0.000E+00
  5.995  0.000E+00
  6.005  0.000E+00
  6.015  0.000E+00
  6.025  0.000E+00
  6.035  0.000E+00
  6.045  0.000E+00
  6.055  0.000E+00
  6.065  0.000E+00
  6.075  0.000E+00
  6.085  0.000E+00
  6.095  0.000E+00
  6.105  0.000E+00
  6.115  0.000E+00
  6.125  0.000E+00
  6.135  0.000E+00
  6.145  0.000E+00
  6.155  0.000E+00
  6.165  0.000E+00
  6.175  0.000E+00
  6.185  0.000E+00
  6.195  0.000E+00
  6.205  0.000E+00
  6.215  0.000E+00
  6.225  0.000E+00
  6.235  0.000E+00
  6.245  0.000E+00
  6.255  0.000E+00
  6.265  0.000E+00
  6.275  0.000E+00
  6.285  0.000E+00
  6.295  0.000E+00
  6.305  0.000E+00
  6.315  0.000E+00
  6.325  0.000E+00
  6.335  0.000E+00
  6.345  0.000E+00
  6.355  0.000E+00
  6.365  0.000E+00
  6.375  0.000E+00
  6.385  0.000E+00
  6.395  0.000E+00
  6.405  0.000E+00
  6.415  0.000E+00
  6.425  0.000E+00
  6.435  0.000E+00
  6.445  0.000E+00
  6.455  0.000E+00
  6.465  0.000E+00
  6.475  0.000E+00
  6.485  0.000E+00
  6.495  0.000E+00
  6.505  0.000E+00
  6.515  0.000E+00
  6.525  0.000E+00
  6.535  0.000E+00
  6.545  0.000E+00
  6.555  0.000E+00
  6.565  0.000E+00
  6.575  0.000E+00
  6.585  0.000E+00
  6.595  0.000E+00
  6.605  0.000E+00
  6.615  0.000E+00
  6.625  0.000E+00
  6.635  0.000E+00
  6.645  0.000E+00
  6.655  0.000E+00
  6.665  0.000E+00
  6.675  0.000E+00
  6.685  0.000E+00
  6.695  0.000E+00
  6.705  0.000E+00
  6.715  0.000E+00
  6.725  0.000E+00
  6.735  0.000E+00
  6.745  0.000E+00
  6.755  0.000E+00
  6.765  0.000E+00
  6.775  0.000E+00
  6.785  0.000E+00
  6.795  0.000E+00
  6.805  0.000E+00
  6.815  0.000E+00
  6.825  0.000E+00
  6.835  0.000E+00
  6.845  0.000E+00
  6.855  0.000E+00
  6.865  0.000E+00
  6.875  0.000E+00
  6.885  0.000E+00
  6.895  0.000E+00
  6.905  0.000E+00
  6.915  0.000E+00
  6.925  0.000E+00
  6.935  0.000E+00
  6.945  0.000E+00
  6.955  0.000E+00
  6.965  0.000E+00
  6.975  0.000E+00
  6.985  0.000E+00
  6.995  0.000E+00
  7.005  0.000E+00
  7.015  0.000E+00
  7.025  0.000E+00
  7.035  0.000E+00
  7.045  0.000E+00
  7.055  0.000E+00
  7.065  0.000E+00
  7.075  0.000E+00
  7.085  0.000E+00
  7.095  0.000E+00
  7.105  0.000E+00
  7.115  0.000E+00
  7.125  0.000E+00
  7.135  0.000E+00
  7.145  0.000E+00
  7.155  0.000E+00
  7.165  0.000E+00
  7.175  0.000E+00
  7.185  0.000E+00
  7.195  0.000E+00
  7.205  0.000E+00
  7.215  0.000E+00
  7.225  0.000E+00
  7.235  0.000E+00
  7.245  0.000E+00
  7.255  0.000E+00
  7.265  0.000E+00
  7.275  0.000E+00
  7.285  0.000E+00
  7.295  0.000E+00
  7.305  0.000E+00
  7.315  0.000E+00
  7.325  0.000E+00
  7.335  0.000E+00
  7.345  0.000E+00
  7.355  0.000E+00
  7.365  0.000E+00
  7.375  0.000E+00
  7.385  0.000E+00
  7.395  0.000E+00
  7.405  0.000E+00
  7.415  0.000E+00
  7.425  0.000E+00
  7.435 -0.136E-09
  7.445 -0.211E-07
  7.455 -0.640E-07
  7.465 -0.109E-06
  7.475 -0.198E-06
  7.485 -0.335E-06
  7.495 -0.408E-06
  7.505 -0.306E-06
  7.515  0.827E-07
  7.525  0.870E-06
  7.535  0.217E-05
  7.545  0.409E-05
  7.555  0.675E-05
  7.565  0.103E-04
  7.575  0.147E-04
  7.585  0.202E-04
  7.595  0.269E-04
  7.605  0.349E-04
  7.615  0.443E-04
  7.625  0.552E-04
  7.635  0.678E-04
  7.645  0.821E-04
  7.655  0.984E-04
  7.665  0.116E-03
  7.675  0.137E-03
  7.685  0.159E-03
  7.695  0.184E-03
  7.705  0.211E-03
  7.715  0.240E-03
  7.725  0.273E-03
  7.735  0.307E-03
  7.745  0.346E-03
  7.755  0.386E-03
  7.765  0.430E-03
  7.775  0.477E-03
  7.785  0.528E-03
  7.795  0.581E-03
  7.805  0.638E-03
  7.815  0.700E-03
  7.825  0.765E-03
  7.835  0.831E-03
  7.845  0.896E-03
  7.855  0.968E-03
  7.865  0.105E-02
  7.875  0.114E-02
  7.885  0.124E-02
  7.895  0.134E-02
  7.905  0.143E-02
  7.915  0.151E-02
  7.925  0.160E-02
  7.935  0.168E-02
  7.945  0.175E-02
  7.955  0.182E-02
  7.965  0.189E-02
  7.975  0.196E-02
  7.985  0.202E-02
  7.995  0.209E-02
  8.005  0.215E-02
  8.015  0.220E-02
  8.025  0.226E-02
  8.035  0.232E-02
  8.045  0.237E-02
  8.055  0.242E-02
  8.065  0.246E-02
  8.075  0.251E-02
  8.085  0.255E-02
  8.095  0.259E-02
  8.105  0.263E-02
  8.115  0.267E-02
  8.125  0.269E-02
  8.135  0.271E-02
  8.145  0.271E-02
  8.155  0.270E-02
  8.165  0.269E-02
  8.175  0.269E-02
  8.185  0.270E-02
  8.195  0.272E-02
  8.205  0.273E-02
  8.215  0.275E-02
  8.225  0.276E-02
  8.235  0.277E-02
  8.245  0.279E-02
  8.255  0.281E-02
  8.265  0.283E-02
  8.275  0.286E-02
  8.285  0.289E-02
  8.295  0.293E-02
  8.305  0.297E-02
  8.315  0.302E-02
  8.325  0.309E-02
  8.335  0.315E-02
  8.345  0.320E-02
  8.355  0.328E-02
  8.365  0.334E-02
  8.375  0.339E-02
  8.385  0.347E-02
  8.395  0.354E-02
  8.405  0.360E-02
  8.415  0.366E-02
  8.425  0.374E-02
  8.435  0.379E-02
  8.445  0.387E-02
  8.455  0.393E-02
  8.465  0.400E-02
  8.475  0.408E-02
  8.485  0.416E-02
  8.495  0.422E-02
  8.505  0.430E-02
  8.515  0.438E-02
  8.525  0.446E-02
  8.535  0.455E-02
  8.545  0.463E-02
  8.555  0.471E-02
  8.565  0.480E-02
  8.575  0.488E-02
  8.585  0.497E-02
  8.595  0.506E-02
  8.605  0.516E-02
  8.615  0.525E-02
  8.625  0.536E-02
  8.635  0.545E-02
  8.645  0.555E-02
  8.655  0.565E-02
  8.665  0.576E-02
  8.675  0.585E-02
  8.685  0.597E-02
  8.695  0.608E-02
  8.705  0.619E-02
  8.715  0.630E-02
  8.725  0.655E-02
  8.735  0.691E-02
  8.745  0.739E-02
  8.755  0.799E-02
  8.765  0.868E-02
  8.775  0.947E-02
  8.785  0.103E-01
  8.795  0.113E-01
  8.805  0.123E-01
  8.815  0.135E-01
  8.825  0.158E-01
  8.835  0.198E-01
  8.845  0.276E-01
  8.855  0.265E-01
  8.865  0.262E-01
  8.875  0.265E-01
  8.885  0.280E-01
  8.895  0.295E-01
  8.905  0.309E-01
  8.915  0.319E-01
  8.925  0.325E-01
  8.935  0.332E-01
  8.945  0.339E-01
  8.955  0.347E-01
  8.965  0.358E-01
  8.975  0.371E-01
  8.985  0.392E-01
  8.995  0.451E-01
  9.005  0.484E-01
  9.015  0.484E-01
  9.025  0.461E-01
  9.035  0.451E-01
  9.045  0.462E-01
  9.055  0.552E-01
  9.065  0.578E-01
  9.075  0.469E-01
  9.085  0.474E-01
  9.095  0.511E-01
  9.105  0.549E-01
  9.115  0.590E-01
  9.125  0.633E-01
  9.135  0.674E-01
  9.145  0.717E-01
  9.155  0.763E-01
  9.165  0.809E-01
  9.175  0.853E-01
  9.185  0.902E-01
  9.195  0.955E-01
  9.205  0.101E+00
  9.215  0.106E+00
  9.225  0.111E+00
  9.235  0.116E+00
  9.245  0.122E+00
  9.255  0.127E+00
  9.265  0.133E+00
  9.275  0.138E+00
  9.285  0.143E+00
  9.295  0.150E+00
  9.305  0.156E+00
  9.315  0.161E+00
  9.325  0.167E+00
  9.335  0.170E+00
  9.345  0.170E+00
  9.355  0.168E+00
  9.365  0.162E+00
  9.375  0.154E+00
  9.385  0.148E+00
  9.395  0.142E+00
  9.405  0.137E+00
  9.415  0.133E+00
  9.425  0.130E+00
  9.435  0.128E+00
  9.445  0.126E+00
  9.455  0.123E+00
  9.465  0.117E+00
  9.475  0.113E+00
  9.485  0.114E+00
  9.495  0.128E+00
  9.505  0.140E+00
  9.515  0.149E+00
  9.525  0.149E+00
  9.535  0.157E+00
  9.545  0.170E+00
  9.555  0.166E+00
  9.565  0.171E+00
  9.575  0.192E+00
  9.585  0.206E+00
  9.595  0.216E+00
  9.605  0.223E+00
  9.615  0.225E+00
  9.625  0.218E+00
  9.635  0.200E+00
  9.645  0.182E+00
  9.655  0.163E+00
  9.665  0.154E+00
  9.675  0.159E+00
  9.685  0.170E+00
  9.695  0.187E+00
  9.705  0.208E+00
  9.715  0.228E+00
  9.725  0.276E+00
  9.735  0.265E+00
  9.745  0.219E+00
  9.755  0.213E+00
  9.765  0.211E+00
  9.775  0.208E+00
  9.785  0.207E+00
  9.795  0.205E+00
  9.805  0.205E+00
  9.815  0.207E+00
  9.825  0.209E+00
  9.835  0.215E+00
  9.845  0.264E+00
  9.855  0.623E+00
  9.865  0.562E+00
  9.875  0.499E+00
  9.885  0.451E+00
  9.895  0.360E+00
  9.905  0.319E+00
  9.915  0.327E+00
  9.925  0.307E+00
  9.935  0.308E+00
  9.945  0.309E+00
  9.955  0.310E+00
  9.965  0.311E+00
  9.975  0.312E+00
  9.985  0.312E+00
  9.995  0.311E+00
 10.005  0.315E+00
 10.015  0.320E+00
 10.025  0.324E+00
 10.035  0.330E+00
 10.045  0.335E+00
 10.055  0.339E+00
 10.065  0.343E+00
 10.075  0.494E+00
 10.085  0.424E+00
 10.095  0.450E+00
 10.105  0.445E+00
 10.115  0.364E+00
 10.125  0.332E+00
 10.135  0.299E+00
 10.145  0.270E+00
 10.155  0.243E+00
 10.165  0.217E+00
 10.175  0.199E+00
 10.185  0.189E+00
 10.195  0.181E+00
 10.205  0.174E+00
 10.215  0.169E+00
 10.225  0.165E+00
 10.235  0.161E+00
 10.245  0.159E+00
 10.255  0.157E+00
 10.265  0.155E+00
 10.275  0.154E+00
 10.285  0.154E+00
 10.295  0.154E+00
 10.305  0.173E+00
 10.315  0.299E+00
 10.325  0.327E+00
 10.335  0.338E+00
 10.345  0.361E+00
 10.355  0.354E+00
 10.365  0.327E+00
 10.375  0.290E+00
 10.385  0.257E+00
 10.395  0.227E+00
 10.405  0.199E+00
 10.415  0.179E+00
 10.425  0.166E+00
 10.435  0.156E+00
 10.445  0.156E+00
 10.455  0.158E+00
 10.465  0.158E+00
 10.475  0.158E+00
 10.485  0.158E+00
 10.495  0.157E+00
 10.505  0.157E+00
 10.515  0.157E+00
 10.525  0.154E+00
 10.535  0.150E+00
 10.545  0.152E+00
 10.555  0.155E+00
 10.565  0.157E+00
 10.575  0.160E+00
 10.585  0.162E+00
 10.595  0.165E+00
 10.605  0.168E+00
 10.615  0.172E+00
 10.625  0.176E+00
 10.635  0.182E+00
 10.645  0.191E+00
 10.655  0.208E+00
 10.665  0.239E+00
 10.675  0.265E+00
 10.685  0.269E+00
 10.695  0.266E+00
 10.705  0.256E+00
 10.715  0.241E+00
 10.725  0.225E+00
 10.735  0.211E+00
 10.745  0.198E+00
 10.755  0.184E+00
 10.765  0.173E+00
 10.775  0.171E+00
 10.785  0.151E+00
 10.795  0.147E+00
 10.805  0.126E+00
 10.815  0.107E+00
 10.825  0.102E+00
 10.835  0.978E-01
 10.845  0.917E-01
 10.855  0.878E-01
 10.865  0.854E-01
 10.875  0.836E-01
 10.885  0.832E-01
 10.895  0.840E-01
 10.905  0.861E-01
 10.915  0.909E-01
 10.925  0.103E+00
 10.935  0.116E+00
 10.945  0.132E+00
 10.955  0.146E+00
 10.965  0.161E+00
 10.975  0.179E+00
 10.985  0.194E+00
 10.995  0.205E+00
 11.005  0.213E+00
 11.015  0.218E+00
 11.025  0.231E+00
 11.035  0.219E+00
 11.045  0.189E+00
 11.055  0.226E+00
 11.065  0.169E+00
 11.075  0.125E+00
 11.085  0.107E+00
 11.095  0.922E-01
 11.105  0.818E-01
 11.115  0.762E-01
 11.125  0.734E-01
 11.135  0.709E-01
 11.145  0.687E-01
 11.155  0.665E-01
 11.165  0.645E-01
 11.175  0.627E-01
 11.185  0.610E-01
 11.195  0.595E-01
 11.205  0.582E-01
 11.215  0.571E-01
 11.225  0.562E-01
 11.235  0.555E-01
 11.245  0.553E-01
 11.255  0.553E-01
 11.265  0.555E-01
 11.275  0.562E-01
 11.285  0.572E-01
 11.295  0.599E-01
 11.305  0.647E-01
 11.315  0.712E-01
 11.325  0.784E-01
 11.335  0.873E-01
 11.345  0.985E-01
 11.355  0.113E+00
 11.365  0.130E+00
 11.375  0.150E+00
 11.385  0.173E+00
 11.395  0.199E+00
 11.405  0.221E+00
 11.415  0.244E+00
 11.425  0.267E+00
 11.435  0.277E+00
 11.445  0.297E+00
 11.455  0.310E+00
 11.465  0.317E+00
 11.475  0.291E+00
 11.485  0.238E+00
 11.495  0.223E+00
 11.505  0.213E+00
 11.515  0.209E+00
 11.525  0.211E+00
 11.535  0.215E+00
 11.545  0.204E+00
 11.555  0.200E+00
 11.565  0.199E+00
 11.575  0.191E+00
 11.585  0.187E+00
 11.595  0.193E+00
 11.605  0.201E+00
 11.615  0.208E+00
 11.625  0.215E+00
 11.635  0.225E+00
 11.645  0.238E+00
 11.655  0.248E+00
 11.665  0.269E+00
 11.675  0.251E+00
 11.685  0.236E+00
 11.695  0.215E+00
 11.705  0.196E+00
 11.715  0.179E+00
 11.725  0.169E+00
 11.735  0.165E+00
 11.745  0.169E+00
 11.755  0.180E+00
 11.765  0.182E+00
 11.775  0.186E+00
 11.785  0.189E+00
 11.795  0.184E+00
 11.805  0.171E+00
 11.815  0.155E+00
 11.825  0.152E+00
 11.835  0.159E+00
 11.845  0.142E+00
 11.855  0.117E+00
 11.865  0.111E+00
 11.875  0.102E+00
 11.885  0.925E-01
 11.895  0.835E-01
 11.905  0.746E-01
 11.915  0.675E-01
 11.925  0.641E-01
 11.935  0.599E-01
 11.945  0.623E-01
 11.955  0.609E-01
 11.965  0.565E-01
 11.975  0.520E-01
 11.985  0.475E-01
 11.995  0.432E-01
 12.005  0.388E-01
 12.015  0.345E-01
 12.025  0.304E-01
 12.035  0.264E-01
 12.045  0.226E-01
 12.055  0.192E-01
 12.065  0.167E-01
 12.075  0.145E-01
 12.085  0.123E-01
 12.095  0.105E-01
 12.105  0.885E-02
 12.115  0.739E-02
 12.125  0.608E-02
 12.135  0.493E-02
 12.145  0.392E-02
 12.155  0.305E-02
 12.165  0.232E-02
 12.175  0.171E-02
 12.185  0.123E-02
 12.195  0.865E-03
 12.205  0.613E-03
 12.215  0.458E-03
 12.225  0.376E-03
 12.235  0.330E-03
 12.245  0.300E-03
 12.255  0.274E-03
 12.265  0.250E-03
 12.275  0.227E-03
 12.285  0.206E-03
 12.295  0.185E-03
 12.305  0.166E-03
 12.315  0.147E-03
 12.325  0.130E-03
 12.335  0.114E-03
 12.345  0.991E-04
 12.355  0.851E-04
 12.365  0.723E-04
 12.375  0.605E-04
 12.385  0.497E-04
 12.395  0.402E-04
 12.405  0.317E-04
 12.415  0.241E-04
 12.425  0.177E-04
