#  E (eV)   dosup(E)     dosdw(E)   Int dos(E) EFermi =    6.277 eV
 -15.000  0.0000E+00  0.0000E+00  0.8000E+01
 -14.990  0.0000E+00  0.0000E+00  0.8000E+01
 -14.980  0.0000E+00  0.0000E+00  0.8000E+01
 -14.970  0.0000E+00  0.0000E+00  0.8000E+01
 -14.960  0.0000E+00  0.0000E+00  0.8000E+01
 -14.950  0.0000E+00  0.0000E+00  0.8000E+01
 -14.940  0.0000E+00  0.0000E+00  0.8000E+01
 -14.930  0.0000E+00  0.0000E+00  0.8000E+01
 -14.920  0.0000E+00  0.0000E+00  0.8000E+01
 -14.910  0.0000E+00  0.0000E+00  0.8000E+01
 -14.900  0.0000E+00  0.0000E+00  0.8000E+01
 -14.890  0.0000E+00  0.0000E+00  0.8000E+01
 -14.880  0.0000E+00  0.0000E+00  0.8000E+01
 -14.870  0.0000E+00  0.0000E+00  0.8000E+01
 -14.860  0.0000E+00  0.0000E+00  0.8000E+01
 -14.850  0.0000E+00  0.0000E+00  0.8000E+01
 -14.840  0.0000E+00  0.0000E+00  0.8000E+01
 -14.830  0.0000E+00  0.0000E+00  0.8000E+01
 -14.820  0.0000E+00  0.0000E+00  0.8000E+01
 -14.810  0.0000E+00  0.0000E+00  0.8000E+01
 -14.800  0.0000E+00  0.0000E+00  0.8000E+01
 -14.790  0.0000E+00  0.0000E+00  0.8000E+01
 -14.780  0.0000E+00  0.0000E+00  0.8000E+01
 -14.770  0.0000E+00  0.0000E+00  0.8000E+01
 -14.760  0.0000E+00  0.0000E+00  0.8000E+01
 -14.750  0.0000E+00  0.0000E+00  0.8000E+01
 -14.740  0.0000E+00  0.0000E+00  0.8000E+01
 -14.730  0.0000E+00  0.0000E+00  0.8000E+01
 -14.720  0.0000E+00  0.0000E+00  0.8000E+01
 -14.710  0.0000E+00  0.0000E+00  0.8000E+01
 -14.700  0.0000E+00  0.0000E+00  0.8000E+01
 -14.690  0.0000E+00  0.0000E+00  0.8000E+01
 -14.680  0.0000E+00  0.0000E+00  0.8000E+01
 -14.670  0.0000E+00  0.0000E+00  0.8000E+01
 -14.660  0.0000E+00  0.0000E+00  0.8000E+01
 -14.650  0.0000E+00  0.0000E+00  0.8000E+01
 -14.640  0.0000E+00  0.0000E+00  0.8000E+01
 -14.630  0.0000E+00  0.0000E+00  0.8000E+01
 -14.620  0.0000E+00  0.0000E+00  0.8000E+01
 -14.610  0.0000E+00  0.0000E+00  0.8000E+01
 -14.600  0.0000E+00  0.0000E+00  0.8000E+01
 -14.590  0.0000E+00  0.0000E+00  0.8000E+01
 -14.580  0.0000E+00  0.0000E+00  0.8000E+01
 -14.570  0.0000E+00  0.0000E+00  0.8000E+01
 -14.560  0.0000E+00  0.0000E+00  0.8000E+01
 -14.550  0.0000E+00  0.0000E+00  0.8000E+01
 -14.540  0.0000E+00  0.0000E+00  0.8000E+01
 -14.530  0.0000E+00  0.0000E+00  0.8000E+01
 -14.520  0.0000E+00  0.0000E+00  0.8000E+01
 -14.510  0.0000E+00  0.0000E+00  0.8000E+01
 -14.500  0.0000E+00  0.0000E+00  0.8000E+01
 -14.490  0.0000E+00  0.0000E+00  0.8000E+01
 -14.480  0.0000E+00  0.0000E+00  0.8000E+01
 -14.470  0.0000E+00  0.0000E+00  0.8000E+01
 -14.460  0.0000E+00  0.0000E+00  0.8000E+01
 -14.450  0.0000E+00  0.0000E+00  0.8000E+01
 -14.440  0.0000E+00  0.0000E+00  0.8000E+01
 -14.430  0.0000E+00  0.0000E+00  0.8000E+01
 -14.420  0.0000E+00  0.0000E+00  0.8000E+01
 -14.410  0.0000E+00  0.0000E+00  0.8000E+01
 -14.400  0.0000E+00  0.0000E+00  0.8000E+01
 -14.390  0.0000E+00  0.0000E+00  0.8000E+01
 -14.380  0.0000E+00  0.0000E+00  0.8000E+01
 -14.370  0.0000E+00  0.0000E+00  0.8000E+01
 -14.360  0.0000E+00  0.0000E+00  0.8000E+01
 -14.350  0.0000E+00  0.0000E+00  0.8000E+01
 -14.340  0.0000E+00  0.0000E+00  0.8000E+01
 -14.330  0.0000E+00  0.0000E+00  0.8000E+01
 -14.320  0.0000E+00  0.0000E+00  0.8000E+01
 -14.310  0.0000E+00  0.0000E+00  0.8000E+01
 -14.300  0.0000E+00  0.0000E+00  0.8000E+01
 -14.290  0.0000E+00  0.0000E+00  0.8000E+01
 -14.280  0.0000E+00  0.0000E+00  0.8000E+01
 -14.270  0.0000E+00  0.0000E+00  0.8000E+01
 -14.260  0.0000E+00  0.0000E+00  0.8000E+01
 -14.250  0.0000E+00  0.0000E+00  0.8000E+01
 -14.240  0.0000E+00  0.0000E+00  0.8000E+01
 -14.230  0.0000E+00  0.0000E+00  0.8000E+01
 -14.220  0.0000E+00  0.0000E+00  0.8000E+01
 -14.210  0.0000E+00  0.0000E+00  0.8000E+01
 -14.200  0.0000E+00  0.0000E+00  0.8000E+01
 -14.190  0.0000E+00  0.0000E+00  0.8000E+01
 -14.180  0.0000E+00  0.0000E+00  0.8000E+01
 -14.170  0.0000E+00  0.0000E+00  0.8000E+01
 -14.160  0.0000E+00  0.0000E+00  0.8000E+01
 -14.150  0.0000E+00  0.0000E+00  0.8000E+01
 -14.140  0.0000E+00  0.0000E+00  0.8000E+01
 -14.130  0.0000E+00  0.0000E+00  0.8000E+01
 -14.120  0.0000E+00  0.0000E+00  0.8000E+01
 -14.110  0.0000E+00  0.0000E+00  0.8000E+01
 -14.100  0.0000E+00  0.0000E+00  0.8000E+01
 -14.090  0.0000E+00  0.0000E+00  0.8000E+01
 -14.080  0.0000E+00  0.0000E+00  0.8000E+01
 -14.070  0.0000E+00  0.0000E+00  0.8000E+01
 -14.060  0.0000E+00  0.0000E+00  0.8000E+01
 -14.050  0.0000E+00  0.0000E+00  0.8000E+01
 -14.040  0.0000E+00  0.0000E+00  0.8000E+01
 -14.030  0.0000E+00  0.0000E+00  0.8000E+01
 -14.020  0.0000E+00  0.0000E+00  0.8000E+01
 -14.010  0.0000E+00  0.0000E+00  0.8000E+01
 -14.000  0.0000E+00  0.0000E+00  0.8000E+01
 -13.990  0.0000E+00  0.0000E+00  0.8000E+01
 -13.980  0.0000E+00  0.0000E+00  0.8000E+01
 -13.970  0.0000E+00  0.0000E+00  0.8000E+01
 -13.960  0.0000E+00  0.0000E+00  0.8000E+01
 -13.950  0.0000E+00  0.0000E+00  0.8000E+01
 -13.940  0.0000E+00  0.0000E+00  0.8000E+01
 -13.930  0.0000E+00  0.0000E+00  0.8000E+01
 -13.920  0.0000E+00  0.0000E+00  0.8000E+01
 -13.910  0.0000E+00  0.0000E+00  0.8000E+01
 -13.900  0.0000E+00  0.0000E+00  0.8000E+01
 -13.890  0.0000E+00  0.0000E+00  0.8000E+01
 -13.880  0.0000E+00  0.0000E+00  0.8000E+01
 -13.870  0.0000E+00  0.0000E+00  0.8000E+01
 -13.860  0.0000E+00  0.0000E+00  0.8000E+01
 -13.850  0.0000E+00  0.0000E+00  0.8000E+01
 -13.840  0.0000E+00  0.0000E+00  0.8000E+01
 -13.830  0.0000E+00  0.0000E+00  0.8000E+01
 -13.820  0.0000E+00  0.0000E+00  0.8000E+01
 -13.810  0.0000E+00  0.0000E+00  0.8000E+01
 -13.800  0.0000E+00  0.0000E+00  0.8000E+01
 -13.790  0.0000E+00  0.0000E+00  0.8000E+01
 -13.780  0.0000E+00  0.0000E+00  0.8000E+01
 -13.770  0.0000E+00  0.0000E+00  0.8000E+01
 -13.760  0.0000E+00  0.0000E+00  0.8000E+01
 -13.750  0.0000E+00  0.0000E+00  0.8000E+01
 -13.740  0.0000E+00  0.0000E+00  0.8000E+01
 -13.730  0.0000E+00  0.0000E+00  0.8000E+01
 -13.720  0.0000E+00  0.0000E+00  0.8000E+01
 -13.710  0.0000E+00  0.0000E+00  0.8000E+01
 -13.700  0.0000E+00  0.0000E+00  0.8000E+01
 -13.690  0.0000E+00  0.0000E+00  0.8000E+01
 -13.680  0.0000E+00  0.0000E+00  0.8000E+01
 -13.670  0.0000E+00  0.0000E+00  0.8000E+01
 -13.660  0.0000E+00  0.0000E+00  0.8000E+01
 -13.650  0.0000E+00  0.0000E+00  0.8000E+01
 -13.640  0.0000E+00  0.0000E+00  0.8000E+01
 -13.630  0.0000E+00  0.0000E+00  0.8000E+01
 -13.620  0.0000E+00  0.0000E+00  0.8000E+01
 -13.610  0.0000E+00  0.0000E+00  0.8000E+01
 -13.600  0.0000E+00  0.0000E+00  0.8000E+01
 -13.590  0.0000E+00  0.0000E+00  0.8000E+01
 -13.580  0.0000E+00  0.0000E+00  0.8000E+01
 -13.570  0.0000E+00  0.0000E+00  0.8000E+01
 -13.560  0.0000E+00  0.0000E+00  0.8000E+01
 -13.550  0.0000E+00  0.0000E+00  0.8000E+01
 -13.540  0.0000E+00  0.0000E+00  0.8000E+01
 -13.530  0.0000E+00  0.0000E+00  0.8000E+01
 -13.520  0.0000E+00  0.0000E+00  0.8000E+01
 -13.510  0.0000E+00  0.0000E+00  0.8000E+01
 -13.500  0.0000E+00  0.0000E+00  0.8000E+01
 -13.490  0.0000E+00  0.0000E+00  0.8000E+01
 -13.480  0.0000E+00  0.0000E+00  0.8000E+01
 -13.470  0.0000E+00  0.0000E+00  0.8000E+01
 -13.460  0.0000E+00  0.0000E+00  0.8000E+01
 -13.450  0.0000E+00  0.0000E+00  0.8000E+01
 -13.440  0.0000E+00  0.0000E+00  0.8000E+01
 -13.430  0.0000E+00  0.0000E+00  0.8000E+01
 -13.420  0.0000E+00  0.0000E+00  0.8000E+01
 -13.410  0.0000E+00  0.0000E+00  0.8000E+01
 -13.400  0.0000E+00  0.0000E+00  0.8000E+01
 -13.390  0.0000E+00  0.0000E+00  0.8000E+01
 -13.380  0.0000E+00  0.0000E+00  0.8000E+01
 -13.370  0.0000E+00  0.0000E+00  0.8000E+01
 -13.360  0.0000E+00  0.0000E+00  0.8000E+01
 -13.350  0.0000E+00  0.0000E+00  0.8000E+01
 -13.340  0.0000E+00  0.0000E+00  0.8000E+01
 -13.330  0.0000E+00  0.0000E+00  0.8000E+01
 -13.320  0.0000E+00  0.0000E+00  0.8000E+01
 -13.310  0.0000E+00  0.0000E+00  0.8000E+01
 -13.300  0.0000E+00  0.0000E+00  0.8000E+01
 -13.290  0.0000E+00  0.0000E+00  0.8000E+01
 -13.280  0.0000E+00  0.0000E+00  0.8000E+01
 -13.270  0.0000E+00  0.0000E+00  0.8000E+01
 -13.260  0.0000E+00  0.0000E+00  0.8000E+01
 -13.250  0.0000E+00  0.0000E+00  0.8000E+01
 -13.240  0.0000E+00  0.0000E+00  0.8000E+01
 -13.230  0.0000E+00  0.0000E+00  0.8000E+01
 -13.220  0.0000E+00  0.0000E+00  0.8000E+01
 -13.210  0.0000E+00  0.0000E+00  0.8000E+01
 -13.200  0.0000E+00  0.0000E+00  0.8000E+01
 -13.190  0.0000E+00  0.0000E+00  0.8000E+01
 -13.180  0.0000E+00  0.0000E+00  0.8000E+01
 -13.170  0.0000E+00  0.0000E+00  0.8000E+01
 -13.160  0.0000E+00  0.0000E+00  0.8000E+01
 -13.150  0.0000E+00  0.0000E+00  0.8000E+01
 -13.140  0.0000E+00  0.0000E+00  0.8000E+01
 -13.130  0.0000E+00  0.0000E+00  0.8000E+01
 -13.120  0.0000E+00  0.0000E+00  0.8000E+01
 -13.110  0.0000E+00  0.0000E+00  0.8000E+01
 -13.100  0.0000E+00  0.0000E+00  0.8000E+01
 -13.090  0.0000E+00  0.0000E+00  0.8000E+01
 -13.080  0.0000E+00  0.0000E+00  0.8000E+01
 -13.070  0.0000E+00  0.0000E+00  0.8000E+01
 -13.060  0.0000E+00  0.0000E+00  0.8000E+01
 -13.050  0.0000E+00  0.0000E+00  0.8000E+01
 -13.040  0.0000E+00  0.0000E+00  0.8000E+01
 -13.030  0.0000E+00  0.0000E+00  0.8000E+01
 -13.020  0.0000E+00  0.0000E+00  0.8000E+01
 -13.010  0.0000E+00  0.0000E+00  0.8000E+01
 -13.000  0.0000E+00  0.0000E+00  0.8000E+01
 -12.990  0.0000E+00  0.0000E+00  0.8000E+01
 -12.980  0.0000E+00  0.0000E+00  0.8000E+01
 -12.970  0.0000E+00  0.0000E+00  0.8000E+01
 -12.960  0.0000E+00  0.0000E+00  0.8000E+01
 -12.950  0.0000E+00  0.0000E+00  0.8000E+01
 -12.940  0.0000E+00  0.0000E+00  0.8000E+01
 -12.930  0.0000E+00  0.0000E+00  0.8000E+01
 -12.920  0.0000E+00  0.0000E+00  0.8000E+01
 -12.910  0.0000E+00  0.0000E+00  0.8000E+01
 -12.900  0.0000E+00  0.0000E+00  0.8000E+01
 -12.890  0.0000E+00  0.0000E+00  0.8000E+01
 -12.880  0.0000E+00  0.0000E+00  0.8000E+01
 -12.870  0.0000E+00  0.0000E+00  0.8000E+01
 -12.860  0.0000E+00  0.0000E+00  0.8000E+01
 -12.850  0.0000E+00  0.0000E+00  0.8000E+01
 -12.840  0.0000E+00  0.0000E+00  0.8000E+01
 -12.830  0.0000E+00  0.0000E+00  0.8000E+01
 -12.820  0.0000E+00  0.0000E+00  0.8000E+01
 -12.810  0.0000E+00  0.0000E+00  0.8000E+01
 -12.800  0.0000E+00  0.0000E+00  0.8000E+01
 -12.790  0.0000E+00  0.0000E+00  0.8000E+01
 -12.780  0.0000E+00  0.0000E+00  0.8000E+01
 -12.770  0.0000E+00  0.0000E+00  0.8000E+01
 -12.760  0.0000E+00  0.0000E+00  0.8000E+01
 -12.750  0.0000E+00  0.0000E+00  0.8000E+01
 -12.740  0.0000E+00  0.0000E+00  0.8000E+01
 -12.730  0.0000E+00  0.0000E+00  0.8000E+01
 -12.720  0.0000E+00  0.0000E+00  0.8000E+01
 -12.710  0.0000E+00  0.0000E+00  0.8000E+01
 -12.700  0.0000E+00  0.0000E+00  0.8000E+01
 -12.690  0.0000E+00  0.0000E+00  0.8000E+01
 -12.680  0.0000E+00  0.0000E+00  0.8000E+01
 -12.670  0.0000E+00  0.0000E+00  0.8000E+01
 -12.660  0.0000E+00  0.0000E+00  0.8000E+01
 -12.650  0.0000E+00  0.0000E+00  0.8000E+01
 -12.640  0.0000E+00  0.0000E+00  0.8000E+01
 -12.630  0.0000E+00  0.0000E+00  0.8000E+01
 -12.620  0.0000E+00  0.0000E+00  0.8000E+01
 -12.610  0.0000E+00  0.0000E+00  0.8000E+01
 -12.600  0.0000E+00  0.0000E+00  0.8000E+01
 -12.590  0.0000E+00  0.0000E+00  0.8000E+01
 -12.580  0.0000E+00  0.0000E+00  0.8000E+01
 -12.570  0.0000E+00  0.0000E+00  0.8000E+01
 -12.560  0.0000E+00  0.0000E+00  0.8000E+01
 -12.550  0.0000E+00  0.0000E+00  0.8000E+01
 -12.540  0.0000E+00  0.0000E+00  0.8000E+01
 -12.530  0.0000E+00  0.0000E+00  0.8000E+01
 -12.520  0.0000E+00  0.0000E+00  0.8000E+01
 -12.510  0.0000E+00  0.0000E+00  0.8000E+01
 -12.500  0.0000E+00  0.0000E+00  0.8000E+01
 -12.490  0.0000E+00  0.0000E+00  0.8000E+01
 -12.480  0.0000E+00  0.0000E+00  0.8000E+01
 -12.470  0.0000E+00  0.0000E+00  0.8000E+01
 -12.460  0.0000E+00  0.0000E+00  0.8000E+01
 -12.450  0.0000E+00  0.0000E+00  0.8000E+01
 -12.440  0.0000E+00  0.0000E+00  0.8000E+01
 -12.430  0.0000E+00  0.0000E+00  0.8000E+01
 -12.420  0.0000E+00  0.0000E+00  0.8000E+01
 -12.410  0.0000E+00  0.0000E+00  0.8000E+01
 -12.400  0.0000E+00  0.0000E+00  0.8000E+01
 -12.390  0.0000E+00  0.0000E+00  0.8000E+01
 -12.380  0.0000E+00  0.0000E+00  0.8000E+01
 -12.370  0.0000E+00  0.0000E+00  0.8000E+01
 -12.360  0.0000E+00  0.0000E+00  0.8000E+01
 -12.350  0.0000E+00  0.0000E+00  0.8000E+01
 -12.340  0.0000E+00  0.0000E+00  0.8000E+01
 -12.330  0.0000E+00  0.0000E+00  0.8000E+01
 -12.320  0.0000E+00  0.0000E+00  0.8000E+01
 -12.310  0.0000E+00  0.0000E+00  0.8000E+01
 -12.300  0.0000E+00  0.0000E+00  0.8000E+01
 -12.290  0.0000E+00  0.0000E+00  0.8000E+01
 -12.280  0.0000E+00  0.0000E+00  0.8000E+01
 -12.270  0.0000E+00  0.0000E+00  0.8000E+01
 -12.260  0.0000E+00  0.0000E+00  0.8000E+01
 -12.250  0.0000E+00  0.0000E+00  0.8000E+01
 -12.240  0.0000E+00  0.0000E+00  0.8000E+01
 -12.230  0.0000E+00  0.0000E+00  0.8000E+01
 -12.220  0.0000E+00  0.0000E+00  0.8000E+01
 -12.210  0.0000E+00  0.0000E+00  0.8000E+01
 -12.200  0.0000E+00  0.0000E+00  0.8000E+01
 -12.190  0.0000E+00  0.0000E+00  0.8000E+01
 -12.180  0.0000E+00  0.0000E+00  0.8000E+01
 -12.170  0.0000E+00  0.0000E+00  0.8000E+01
 -12.160  0.0000E+00  0.0000E+00  0.8000E+01
 -12.150  0.0000E+00  0.0000E+00  0.8000E+01
 -12.140  0.0000E+00  0.0000E+00  0.8000E+01
 -12.130  0.0000E+00  0.0000E+00  0.8000E+01
 -12.120  0.0000E+00  0.0000E+00  0.8000E+01
 -12.110  0.0000E+00  0.0000E+00  0.8000E+01
 -12.100  0.0000E+00  0.0000E+00  0.8000E+01
 -12.090  0.0000E+00  0.0000E+00  0.8000E+01
 -12.080  0.0000E+00  0.0000E+00  0.8000E+01
 -12.070  0.0000E+00  0.0000E+00  0.8000E+01
 -12.060  0.0000E+00  0.0000E+00  0.8000E+01
 -12.050  0.0000E+00  0.0000E+00  0.8000E+01
 -12.040  0.0000E+00  0.0000E+00  0.8000E+01
 -12.030  0.0000E+00  0.0000E+00  0.8000E+01
 -12.020  0.0000E+00  0.0000E+00  0.8000E+01
 -12.010  0.0000E+00  0.0000E+00  0.8000E+01
 -12.000  0.0000E+00  0.0000E+00  0.8000E+01
 -11.990  0.0000E+00  0.0000E+00  0.8000E+01
 -11.980  0.0000E+00  0.0000E+00  0.8000E+01
 -11.970  0.0000E+00  0.0000E+00  0.8000E+01
 -11.960  0.0000E+00  0.0000E+00  0.8000E+01
 -11.950  0.0000E+00  0.0000E+00  0.8000E+01
 -11.940  0.0000E+00  0.0000E+00  0.8000E+01
 -11.930  0.0000E+00  0.0000E+00  0.8000E+01
 -11.920  0.0000E+00  0.0000E+00  0.8000E+01
 -11.910  0.0000E+00  0.0000E+00  0.8000E+01
 -11.900  0.0000E+00  0.0000E+00  0.8000E+01
 -11.890  0.0000E+00  0.0000E+00  0.8000E+01
 -11.880  0.0000E+00  0.0000E+00  0.8000E+01
 -11.870  0.0000E+00  0.0000E+00  0.8000E+01
 -11.860  0.0000E+00  0.0000E+00  0.8000E+01
 -11.850  0.0000E+00  0.0000E+00  0.8000E+01
 -11.840  0.0000E+00  0.0000E+00  0.8000E+01
 -11.830  0.0000E+00  0.0000E+00  0.8000E+01
 -11.820  0.0000E+00  0.0000E+00  0.8000E+01
 -11.810  0.0000E+00  0.0000E+00  0.8000E+01
 -11.800  0.0000E+00  0.0000E+00  0.8000E+01
 -11.790  0.0000E+00  0.0000E+00  0.8000E+01
 -11.780  0.0000E+00  0.0000E+00  0.8000E+01
 -11.770  0.0000E+00  0.0000E+00  0.8000E+01
 -11.760  0.0000E+00  0.0000E+00  0.8000E+01
 -11.750  0.0000E+00  0.0000E+00  0.8000E+01
 -11.740  0.0000E+00  0.0000E+00  0.8000E+01
 -11.730  0.0000E+00  0.0000E+00  0.8000E+01
 -11.720  0.0000E+00  0.0000E+00  0.8000E+01
 -11.710  0.0000E+00  0.0000E+00  0.8000E+01
 -11.700  0.0000E+00  0.0000E+00  0.8000E+01
 -11.690  0.0000E+00  0.0000E+00  0.8000E+01
 -11.680  0.0000E+00  0.0000E+00  0.8000E+01
 -11.670  0.0000E+00  0.0000E+00  0.8000E+01
 -11.660  0.0000E+00  0.0000E+00  0.8000E+01
 -11.650  0.0000E+00  0.0000E+00  0.8000E+01
 -11.640  0.0000E+00  0.0000E+00  0.8000E+01
 -11.630  0.0000E+00  0.0000E+00  0.8000E+01
 -11.620  0.0000E+00  0.0000E+00  0.8000E+01
 -11.610  0.0000E+00  0.0000E+00  0.8000E+01
 -11.600  0.0000E+00  0.0000E+00  0.8000E+01
 -11.590  0.0000E+00  0.0000E+00  0.8000E+01
 -11.580  0.0000E+00  0.0000E+00  0.8000E+01
 -11.570  0.0000E+00  0.0000E+00  0.8000E+01
 -11.560  0.0000E+00  0.0000E+00  0.8000E+01
 -11.550  0.0000E+00  0.0000E+00  0.8000E+01
 -11.540  0.0000E+00  0.0000E+00  0.8000E+01
 -11.530  0.0000E+00  0.0000E+00  0.8000E+01
 -11.520  0.0000E+00  0.0000E+00  0.8000E+01
 -11.510  0.0000E+00  0.0000E+00  0.8000E+01
 -11.500  0.0000E+00  0.0000E+00  0.8000E+01
 -11.490  0.0000E+00  0.0000E+00  0.8000E+01
 -11.480  0.0000E+00  0.0000E+00  0.8000E+01
 -11.470  0.0000E+00  0.0000E+00  0.8000E+01
 -11.460  0.0000E+00  0.0000E+00  0.8000E+01
 -11.450  0.0000E+00  0.0000E+00  0.8000E+01
 -11.440  0.0000E+00  0.0000E+00  0.8000E+01
 -11.430  0.0000E+00  0.0000E+00  0.8000E+01
 -11.420  0.0000E+00  0.0000E+00  0.8000E+01
 -11.410  0.0000E+00  0.0000E+00  0.8000E+01
 -11.400  0.0000E+00  0.0000E+00  0.8000E+01
 -11.390  0.0000E+00  0.0000E+00  0.8000E+01
 -11.380  0.0000E+00  0.0000E+00  0.8000E+01
 -11.370  0.0000E+00  0.0000E+00  0.8000E+01
 -11.360  0.0000E+00  0.0000E+00  0.8000E+01
 -11.350  0.0000E+00  0.0000E+00  0.8000E+01
 -11.340  0.0000E+00  0.0000E+00  0.8000E+01
 -11.330  0.0000E+00  0.0000E+00  0.8000E+01
 -11.320  0.0000E+00  0.0000E+00  0.8000E+01
 -11.310  0.0000E+00  0.0000E+00  0.8000E+01
 -11.300  0.0000E+00  0.0000E+00  0.8000E+01
 -11.290  0.0000E+00  0.0000E+00  0.8000E+01
 -11.280  0.0000E+00  0.0000E+00  0.8000E+01
 -11.270  0.0000E+00  0.0000E+00  0.8000E+01
 -11.260  0.0000E+00  0.0000E+00  0.8000E+01
 -11.250  0.0000E+00  0.0000E+00  0.8000E+01
 -11.240  0.0000E+00  0.0000E+00  0.8000E+01
 -11.230  0.0000E+00  0.0000E+00  0.8000E+01
 -11.220  0.0000E+00  0.0000E+00  0.8000E+01
 -11.210  0.0000E+00  0.0000E+00  0.8000E+01
 -11.200  0.0000E+00  0.0000E+00  0.8000E+01
 -11.190  0.0000E+00  0.0000E+00  0.8000E+01
 -11.180  0.0000E+00  0.0000E+00  0.8000E+01
 -11.170  0.0000E+00  0.0000E+00  0.8000E+01
 -11.160  0.0000E+00  0.0000E+00  0.8000E+01
 -11.150  0.0000E+00  0.0000E+00  0.8000E+01
 -11.140  0.0000E+00  0.0000E+00  0.8000E+01
 -11.130  0.0000E+00  0.0000E+00  0.8000E+01
 -11.120  0.0000E+00  0.0000E+00  0.8000E+01
 -11.110  0.0000E+00  0.0000E+00  0.8000E+01
 -11.100  0.0000E+00  0.0000E+00  0.8000E+01
 -11.090  0.0000E+00  0.0000E+00  0.8000E+01
 -11.080  0.0000E+00  0.0000E+00  0.8000E+01
 -11.070  0.0000E+00  0.0000E+00  0.8000E+01
 -11.060  0.0000E+00  0.0000E+00  0.8000E+01
 -11.050  0.0000E+00  0.0000E+00  0.8000E+01
 -11.040  0.0000E+00  0.0000E+00  0.8000E+01
 -11.030  0.0000E+00  0.0000E+00  0.8000E+01
 -11.020  0.0000E+00  0.0000E+00  0.8000E+01
 -11.010  0.0000E+00  0.0000E+00  0.8000E+01
 -11.000  0.0000E+00  0.0000E+00  0.8000E+01
 -10.990  0.0000E+00  0.0000E+00  0.8000E+01
 -10.980  0.0000E+00  0.0000E+00  0.8000E+01
 -10.970  0.0000E+00  0.0000E+00  0.8000E+01
 -10.960  0.0000E+00  0.0000E+00  0.8000E+01
 -10.950  0.0000E+00  0.0000E+00  0.8000E+01
 -10.940  0.0000E+00  0.0000E+00  0.8000E+01
 -10.930  0.0000E+00  0.0000E+00  0.8000E+01
 -10.920  0.0000E+00  0.0000E+00  0.8000E+01
 -10.910  0.0000E+00  0.0000E+00  0.8000E+01
 -10.900  0.0000E+00  0.0000E+00  0.8000E+01
 -10.890  0.0000E+00  0.0000E+00  0.8000E+01
 -10.880  0.0000E+00  0.0000E+00  0.8000E+01
 -10.870  0.0000E+00  0.0000E+00  0.8000E+01
 -10.860  0.0000E+00  0.0000E+00  0.8000E+01
 -10.850  0.0000E+00  0.0000E+00  0.8000E+01
 -10.840  0.0000E+00  0.0000E+00  0.8000E+01
 -10.830  0.0000E+00  0.0000E+00  0.8000E+01
 -10.820  0.0000E+00  0.0000E+00  0.8000E+01
 -10.810  0.0000E+00  0.0000E+00  0.8000E+01
 -10.800  0.0000E+00  0.0000E+00  0.8000E+01
 -10.790  0.0000E+00  0.0000E+00  0.8000E+01
 -10.780  0.0000E+00  0.0000E+00  0.8000E+01
 -10.770  0.0000E+00  0.0000E+00  0.8000E+01
 -10.760  0.0000E+00  0.0000E+00  0.8000E+01
 -10.750  0.0000E+00  0.0000E+00  0.8000E+01
 -10.740  0.0000E+00  0.0000E+00  0.8000E+01
 -10.730  0.0000E+00  0.0000E+00  0.8000E+01
 -10.720  0.0000E+00  0.0000E+00  0.8000E+01
 -10.710  0.0000E+00  0.0000E+00  0.8000E+01
 -10.700  0.0000E+00  0.0000E+00  0.8000E+01
 -10.690  0.0000E+00  0.0000E+00  0.8000E+01
 -10.680  0.0000E+00  0.0000E+00  0.8000E+01
 -10.670  0.0000E+00  0.0000E+00  0.8000E+01
 -10.660  0.0000E+00  0.0000E+00  0.8000E+01
 -10.650  0.0000E+00  0.0000E+00  0.8000E+01
 -10.640  0.0000E+00  0.0000E+00  0.8000E+01
 -10.630  0.0000E+00  0.0000E+00  0.8000E+01
 -10.620  0.0000E+00  0.0000E+00  0.8000E+01
 -10.610  0.0000E+00  0.0000E+00  0.8000E+01
 -10.600  0.0000E+00  0.0000E+00  0.8000E+01
 -10.590  0.0000E+00  0.0000E+00  0.8000E+01
 -10.580  0.0000E+00  0.0000E+00  0.8000E+01
 -10.570  0.0000E+00  0.0000E+00  0.8000E+01
 -10.560  0.0000E+00  0.0000E+00  0.8000E+01
 -10.550  0.0000E+00  0.0000E+00  0.8000E+01
 -10.540  0.0000E+00  0.0000E+00  0.8000E+01
 -10.530  0.0000E+00  0.0000E+00  0.8000E+01
 -10.520  0.0000E+00  0.0000E+00  0.8000E+01
 -10.510  0.0000E+00  0.0000E+00  0.8000E+01
 -10.500  0.0000E+00  0.0000E+00  0.8000E+01
 -10.490  0.0000E+00  0.0000E+00  0.8000E+01
 -10.480  0.0000E+00  0.0000E+00  0.8000E+01
 -10.470  0.0000E+00  0.0000E+00  0.8000E+01
 -10.460  0.0000E+00  0.0000E+00  0.8000E+01
 -10.450  0.0000E+00  0.0000E+00  0.8000E+01
 -10.440  0.0000E+00  0.0000E+00  0.8000E+01
 -10.430  0.0000E+00  0.0000E+00  0.8000E+01
 -10.420  0.0000E+00  0.0000E+00  0.8000E+01
 -10.410  0.0000E+00  0.0000E+00  0.8000E+01
 -10.400  0.0000E+00  0.0000E+00  0.8000E+01
 -10.390  0.0000E+00  0.0000E+00  0.8000E+01
 -10.380  0.0000E+00  0.0000E+00  0.8000E+01
 -10.370  0.0000E+00  0.0000E+00  0.8000E+01
 -10.360  0.0000E+00  0.0000E+00  0.8000E+01
 -10.350  0.0000E+00  0.0000E+00  0.8000E+01
 -10.340  0.0000E+00  0.0000E+00  0.8000E+01
 -10.330  0.0000E+00  0.0000E+00  0.8000E+01
 -10.320  0.0000E+00  0.0000E+00  0.8000E+01
 -10.310  0.0000E+00  0.0000E+00  0.8000E+01
 -10.300  0.0000E+00  0.0000E+00  0.8000E+01
 -10.290  0.0000E+00  0.0000E+00  0.8000E+01
 -10.280  0.0000E+00  0.0000E+00  0.8000E+01
 -10.270  0.0000E+00  0.0000E+00  0.8000E+01
 -10.260  0.0000E+00  0.0000E+00  0.8000E+01
 -10.250  0.0000E+00  0.0000E+00  0.8000E+01
 -10.240  0.0000E+00  0.0000E+00  0.8000E+01
 -10.230  0.0000E+00  0.0000E+00  0.8000E+01
 -10.220  0.0000E+00  0.0000E+00  0.8000E+01
 -10.210  0.0000E+00  0.0000E+00  0.8000E+01
 -10.200  0.0000E+00  0.0000E+00  0.8000E+01
 -10.190  0.0000E+00  0.0000E+00  0.8000E+01
 -10.180  0.0000E+00  0.0000E+00  0.8000E+01
 -10.170  0.0000E+00  0.0000E+00  0.8000E+01
 -10.160  0.0000E+00  0.0000E+00  0.8000E+01
 -10.150  0.0000E+00  0.0000E+00  0.8000E+01
 -10.140  0.0000E+00  0.0000E+00  0.8000E+01
 -10.130  0.0000E+00  0.0000E+00  0.8000E+01
 -10.120  0.0000E+00  0.0000E+00  0.8000E+01
 -10.110  0.0000E+00  0.0000E+00  0.8000E+01
 -10.100  0.0000E+00  0.0000E+00  0.8000E+01
 -10.090  0.0000E+00  0.0000E+00  0.8000E+01
 -10.080  0.0000E+00  0.0000E+00  0.8000E+01
 -10.070  0.0000E+00  0.0000E+00  0.8000E+01
 -10.060  0.0000E+00  0.0000E+00  0.8000E+01
 -10.050  0.0000E+00  0.0000E+00  0.8000E+01
 -10.040  0.0000E+00  0.0000E+00  0.8000E+01
 -10.030  0.0000E+00  0.0000E+00  0.8000E+01
 -10.020  0.0000E+00  0.0000E+00  0.8000E+01
 -10.010  0.0000E+00  0.0000E+00  0.8000E+01
 -10.000  0.0000E+00  0.0000E+00  0.8000E+01
  -9.990  0.0000E+00  0.0000E+00  0.8000E+01
  -9.980  0.0000E+00  0.0000E+00  0.8000E+01
  -9.970  0.0000E+00  0.0000E+00  0.8000E+01
  -9.960  0.0000E+00  0.0000E+00  0.8000E+01
  -9.950  0.0000E+00  0.0000E+00  0.8000E+01
  -9.940  0.0000E+00  0.0000E+00  0.8000E+01
  -9.930  0.0000E+00  0.0000E+00  0.8000E+01
  -9.920  0.0000E+00  0.0000E+00  0.8000E+01
  -9.910  0.0000E+00  0.0000E+00  0.8000E+01
  -9.900  0.0000E+00  0.0000E+00  0.8000E+01
  -9.890  0.0000E+00  0.0000E+00  0.8000E+01
  -9.880  0.0000E+00  0.0000E+00  0.8000E+01
  -9.870  0.0000E+00  0.0000E+00  0.8000E+01
  -9.860  0.0000E+00  0.0000E+00  0.8000E+01
  -9.850  0.0000E+00  0.0000E+00  0.8000E+01
  -9.840  0.0000E+00  0.0000E+00  0.8000E+01
  -9.830  0.0000E+00  0.0000E+00  0.8000E+01
  -9.820  0.0000E+00  0.0000E+00  0.8000E+01
  -9.810  0.0000E+00  0.0000E+00  0.8000E+01
  -9.800  0.0000E+00  0.0000E+00  0.8000E+01
  -9.790  0.0000E+00  0.0000E+00  0.8000E+01
  -9.780  0.0000E+00  0.0000E+00  0.8000E+01
  -9.770  0.0000E+00  0.0000E+00  0.8000E+01
  -9.760  0.0000E+00  0.0000E+00  0.8000E+01
  -9.750  0.0000E+00  0.0000E+00  0.8000E+01
  -9.740  0.0000E+00  0.0000E+00  0.8000E+01
  -9.730  0.0000E+00  0.0000E+00  0.8000E+01
  -9.720  0.0000E+00  0.0000E+00  0.8000E+01
  -9.710  0.0000E+00  0.0000E+00  0.8000E+01
  -9.700  0.0000E+00  0.0000E+00  0.8000E+01
  -9.690  0.0000E+00  0.0000E+00  0.8000E+01
  -9.680  0.0000E+00  0.0000E+00  0.8000E+01
  -9.670  0.0000E+00  0.0000E+00  0.8000E+01
  -9.660  0.0000E+00  0.0000E+00  0.8000E+01
  -9.650  0.0000E+00  0.0000E+00  0.8000E+01
  -9.640  0.0000E+00  0.0000E+00  0.8000E+01
  -9.630  0.0000E+00  0.0000E+00  0.8000E+01
  -9.620  0.0000E+00  0.0000E+00  0.8000E+01
  -9.610  0.0000E+00  0.0000E+00  0.8000E+01
  -9.600  0.0000E+00  0.0000E+00  0.8000E+01
  -9.590  0.0000E+00  0.0000E+00  0.8000E+01
  -9.580  0.0000E+00  0.0000E+00  0.8000E+01
  -9.570  0.0000E+00  0.0000E+00  0.8000E+01
  -9.560  0.0000E+00  0.0000E+00  0.8000E+01
  -9.550  0.0000E+00  0.0000E+00  0.8000E+01
  -9.540  0.0000E+00  0.0000E+00  0.8000E+01
  -9.530  0.0000E+00  0.0000E+00  0.8000E+01
  -9.520  0.0000E+00  0.0000E+00  0.8000E+01
  -9.510  0.0000E+00  0.0000E+00  0.8000E+01
  -9.500  0.0000E+00  0.0000E+00  0.8000E+01
  -9.490  0.0000E+00  0.0000E+00  0.8000E+01
  -9.480  0.0000E+00  0.0000E+00  0.8000E+01
  -9.470  0.0000E+00  0.0000E+00  0.8000E+01
  -9.460  0.0000E+00  0.0000E+00  0.8000E+01
  -9.450  0.0000E+00  0.0000E+00  0.8000E+01
  -9.440  0.0000E+00  0.0000E+00  0.8000E+01
  -9.430  0.0000E+00  0.0000E+00  0.8000E+01
  -9.420  0.0000E+00  0.0000E+00  0.8000E+01
  -9.410  0.0000E+00  0.0000E+00  0.8000E+01
  -9.400  0.0000E+00  0.0000E+00  0.8000E+01
  -9.390  0.0000E+00  0.0000E+00  0.8000E+01
  -9.380  0.0000E+00  0.0000E+00  0.8000E+01
  -9.370  0.0000E+00  0.0000E+00  0.8000E+01
  -9.360  0.0000E+00  0.0000E+00  0.8000E+01
  -9.350  0.0000E+00  0.0000E+00  0.8000E+01
  -9.340  0.0000E+00  0.0000E+00  0.8000E+01
  -9.330  0.0000E+00  0.0000E+00  0.8000E+01
  -9.320  0.0000E+00  0.0000E+00  0.8000E+01
  -9.310  0.0000E+00  0.0000E+00  0.8000E+01
  -9.300  0.0000E+00  0.0000E+00  0.8000E+01
  -9.290  0.0000E+00  0.0000E+00  0.8000E+01
  -9.280  0.0000E+00  0.0000E+00  0.8000E+01
  -9.270  0.0000E+00  0.0000E+00  0.8000E+01
  -9.260  0.0000E+00  0.0000E+00  0.8000E+01
  -9.250  0.0000E+00  0.0000E+00  0.8000E+01
  -9.240  0.0000E+00  0.0000E+00  0.8000E+01
  -9.230  0.0000E+00  0.0000E+00  0.8000E+01
  -9.220  0.0000E+00  0.0000E+00  0.8000E+01
  -9.210  0.0000E+00  0.0000E+00  0.8000E+01
  -9.200  0.0000E+00  0.0000E+00  0.8000E+01
  -9.190  0.0000E+00  0.0000E+00  0.8000E+01
  -9.180  0.0000E+00  0.0000E+00  0.8000E+01
  -9.170  0.0000E+00  0.0000E+00  0.8000E+01
  -9.160  0.0000E+00  0.0000E+00  0.8000E+01
  -9.150  0.0000E+00  0.0000E+00  0.8000E+01
  -9.140  0.0000E+00  0.0000E+00  0.8000E+01
  -9.130  0.0000E+00  0.0000E+00  0.8000E+01
  -9.120  0.0000E+00  0.0000E+00  0.8000E+01
  -9.110  0.0000E+00  0.0000E+00  0.8000E+01
  -9.100  0.0000E+00  0.0000E+00  0.8000E+01
  -9.090  0.0000E+00  0.0000E+00  0.8000E+01
  -9.080  0.0000E+00  0.0000E+00  0.8000E+01
  -9.070  0.0000E+00  0.0000E+00  0.8000E+01
  -9.060  0.0000E+00  0.0000E+00  0.8000E+01
  -9.050  0.0000E+00  0.0000E+00  0.8000E+01
  -9.040  0.0000E+00  0.0000E+00  0.8000E+01
  -9.030  0.0000E+00  0.0000E+00  0.8000E+01
  -9.020  0.0000E+00  0.0000E+00  0.8000E+01
  -9.010  0.0000E+00  0.0000E+00  0.8000E+01
  -9.000  0.0000E+00  0.0000E+00  0.8000E+01
  -8.990  0.0000E+00  0.0000E+00  0.8000E+01
  -8.980  0.0000E+00  0.0000E+00  0.8000E+01
  -8.970  0.0000E+00  0.0000E+00  0.8000E+01
  -8.960  0.0000E+00  0.0000E+00  0.8000E+01
  -8.950  0.0000E+00  0.0000E+00  0.8000E+01
  -8.940  0.0000E+00  0.0000E+00  0.8000E+01
  -8.930  0.0000E+00  0.0000E+00  0.8000E+01
  -8.920  0.0000E+00  0.0000E+00  0.8000E+01
  -8.910  0.0000E+00  0.0000E+00  0.8000E+01
  -8.900  0.0000E+00  0.0000E+00  0.8000E+01
  -8.890  0.0000E+00  0.0000E+00  0.8000E+01
  -8.880  0.0000E+00  0.0000E+00  0.8000E+01
  -8.870  0.0000E+00  0.0000E+00  0.8000E+01
  -8.860  0.0000E+00  0.0000E+00  0.8000E+01
  -8.850  0.0000E+00  0.0000E+00  0.8000E+01
  -8.840  0.0000E+00  0.0000E+00  0.8000E+01
  -8.830  0.0000E+00  0.0000E+00  0.8000E+01
  -8.820  0.0000E+00  0.0000E+00  0.8000E+01
  -8.810  0.0000E+00  0.0000E+00  0.8000E+01
  -8.800  0.0000E+00  0.0000E+00  0.8000E+01
  -8.790  0.0000E+00  0.0000E+00  0.8000E+01
  -8.780  0.0000E+00  0.0000E+00  0.8000E+01
  -8.770  0.0000E+00  0.0000E+00  0.8000E+01
  -8.760  0.0000E+00  0.0000E+00  0.8000E+01
  -8.750  0.0000E+00  0.0000E+00  0.8000E+01
  -8.740  0.0000E+00  0.0000E+00  0.8000E+01
  -8.730  0.0000E+00  0.0000E+00  0.8000E+01
  -8.720  0.0000E+00  0.0000E+00  0.8000E+01
  -8.710  0.0000E+00  0.0000E+00  0.8000E+01
  -8.700  0.0000E+00  0.0000E+00  0.8000E+01
  -8.690  0.0000E+00  0.0000E+00  0.8000E+01
  -8.680  0.0000E+00  0.0000E+00  0.8000E+01
  -8.670  0.0000E+00  0.0000E+00  0.8000E+01
  -8.660  0.0000E+00  0.0000E+00  0.8000E+01
  -8.650  0.0000E+00  0.0000E+00  0.8000E+01
  -8.640  0.0000E+00  0.0000E+00  0.8000E+01
  -8.630  0.0000E+00  0.0000E+00  0.8000E+01
  -8.620  0.0000E+00  0.0000E+00  0.8000E+01
  -8.610  0.0000E+00  0.0000E+00  0.8000E+01
  -8.600  0.0000E+00  0.0000E+00  0.8000E+01
  -8.590  0.0000E+00  0.0000E+00  0.8000E+01
  -8.580  0.0000E+00  0.0000E+00  0.8000E+01
  -8.570  0.0000E+00  0.0000E+00  0.8000E+01
  -8.560  0.0000E+00  0.0000E+00  0.8000E+01
  -8.550  0.0000E+00  0.0000E+00  0.8000E+01
  -8.540  0.0000E+00  0.0000E+00  0.8000E+01
  -8.530  0.0000E+00  0.0000E+00  0.8000E+01
  -8.520  0.0000E+00  0.0000E+00  0.8000E+01
  -8.510  0.0000E+00  0.0000E+00  0.8000E+01
  -8.500  0.0000E+00  0.0000E+00  0.8000E+01
  -8.490  0.0000E+00  0.0000E+00  0.8000E+01
  -8.480  0.0000E+00  0.0000E+00  0.8000E+01
  -8.470  0.0000E+00  0.0000E+00  0.8000E+01
  -8.460  0.0000E+00  0.0000E+00  0.8000E+01
  -8.450  0.0000E+00  0.0000E+00  0.8000E+01
  -8.440  0.0000E+00  0.0000E+00  0.8000E+01
  -8.430  0.0000E+00  0.0000E+00  0.8000E+01
  -8.420  0.0000E+00  0.0000E+00  0.8000E+01
  -8.410  0.0000E+00  0.0000E+00  0.8000E+01
  -8.400  0.0000E+00  0.0000E+00  0.8000E+01
  -8.390  0.0000E+00  0.0000E+00  0.8000E+01
  -8.380  0.0000E+00  0.0000E+00  0.8000E+01
  -8.370  0.0000E+00  0.0000E+00  0.8000E+01
  -8.360  0.0000E+00  0.0000E+00  0.8000E+01
  -8.350  0.0000E+00  0.0000E+00  0.8000E+01
  -8.340  0.0000E+00  0.0000E+00  0.8000E+01
  -8.330  0.0000E+00  0.0000E+00  0.8000E+01
  -8.320  0.0000E+00  0.0000E+00  0.8000E+01
  -8.310  0.0000E+00  0.0000E+00  0.8000E+01
  -8.300  0.0000E+00  0.0000E+00  0.8000E+01
  -8.290  0.0000E+00  0.0000E+00  0.8000E+01
  -8.280  0.0000E+00  0.0000E+00  0.8000E+01
  -8.270  0.0000E+00  0.0000E+00  0.8000E+01
  -8.260  0.0000E+00  0.0000E+00  0.8000E+01
  -8.250  0.0000E+00  0.0000E+00  0.8000E+01
  -8.240  0.0000E+00  0.0000E+00  0.8000E+01
  -8.230  0.0000E+00  0.0000E+00  0.8000E+01
  -8.220  0.0000E+00  0.0000E+00  0.8000E+01
  -8.210  0.0000E+00  0.0000E+00  0.8000E+01
  -8.200  0.0000E+00  0.0000E+00  0.8000E+01
  -8.190  0.0000E+00  0.0000E+00  0.8000E+01
  -8.180  0.0000E+00  0.0000E+00  0.8000E+01
  -8.170  0.0000E+00  0.0000E+00  0.8000E+01
  -8.160  0.0000E+00  0.0000E+00  0.8000E+01
  -8.150  0.0000E+00  0.0000E+00  0.8000E+01
  -8.140  0.0000E+00  0.0000E+00  0.8000E+01
  -8.130  0.0000E+00  0.0000E+00  0.8000E+01
  -8.120  0.0000E+00  0.0000E+00  0.8000E+01
  -8.110  0.0000E+00  0.0000E+00  0.8000E+01
  -8.100  0.0000E+00  0.0000E+00  0.8000E+01
  -8.090  0.0000E+00  0.0000E+00  0.8000E+01
  -8.080  0.0000E+00  0.0000E+00  0.8000E+01
  -8.070  0.0000E+00  0.0000E+00  0.8000E+01
  -8.060  0.0000E+00  0.0000E+00  0.8000E+01
  -8.050  0.0000E+00  0.0000E+00  0.8000E+01
  -8.040  0.0000E+00  0.0000E+00  0.8000E+01
  -8.030  0.0000E+00  0.0000E+00  0.8000E+01
  -8.020  0.0000E+00  0.0000E+00  0.8000E+01
  -8.010  0.0000E+00  0.0000E+00  0.8000E+01
  -8.000  0.0000E+00  0.0000E+00  0.8000E+01
  -7.990  0.0000E+00  0.0000E+00  0.8000E+01
  -7.980  0.0000E+00  0.0000E+00  0.8000E+01
  -7.970  0.0000E+00  0.0000E+00  0.8000E+01
  -7.960  0.0000E+00  0.0000E+00  0.8000E+01
  -7.950  0.0000E+00  0.0000E+00  0.8000E+01
  -7.940  0.0000E+00  0.0000E+00  0.8000E+01
  -7.930  0.0000E+00  0.0000E+00  0.8000E+01
  -7.920  0.0000E+00  0.0000E+00  0.8000E+01
  -7.910  0.0000E+00  0.0000E+00  0.8000E+01
  -7.900  0.0000E+00  0.0000E+00  0.8000E+01
  -7.890  0.0000E+00  0.0000E+00  0.8000E+01
  -7.880  0.0000E+00  0.0000E+00  0.8000E+01
  -7.870  0.0000E+00  0.0000E+00  0.8000E+01
  -7.860  0.0000E+00  0.0000E+00  0.8000E+01
  -7.850  0.0000E+00  0.0000E+00  0.8000E+01
  -7.840  0.0000E+00  0.0000E+00  0.8000E+01
  -7.830  0.0000E+00  0.0000E+00  0.8000E+01
  -7.820  0.0000E+00  0.0000E+00  0.8000E+01
  -7.810  0.0000E+00  0.0000E+00  0.8000E+01
  -7.800  0.0000E+00  0.0000E+00  0.8000E+01
  -7.790  0.0000E+00  0.0000E+00  0.8000E+01
  -7.780  0.0000E+00  0.0000E+00  0.8000E+01
  -7.770  0.0000E+00  0.0000E+00  0.8000E+01
  -7.760  0.0000E+00  0.0000E+00  0.8000E+01
  -7.750  0.0000E+00  0.0000E+00  0.8000E+01
  -7.740  0.0000E+00  0.0000E+00  0.8000E+01
  -7.730  0.0000E+00  0.0000E+00  0.8000E+01
  -7.720  0.0000E+00  0.0000E+00  0.8000E+01
  -7.710  0.0000E+00  0.0000E+00  0.8000E+01
  -7.700  0.0000E+00  0.0000E+00  0.8000E+01
  -7.690  0.0000E+00  0.0000E+00  0.8000E+01
  -7.680  0.0000E+00  0.0000E+00  0.8000E+01
  -7.670  0.0000E+00  0.0000E+00  0.8000E+01
  -7.660  0.0000E+00  0.0000E+00  0.8000E+01
  -7.650  0.0000E+00  0.0000E+00  0.8000E+01
  -7.640  0.0000E+00  0.0000E+00  0.8000E+01
  -7.630  0.0000E+00  0.0000E+00  0.8000E+01
  -7.620  0.0000E+00  0.0000E+00  0.8000E+01
  -7.610  0.0000E+00  0.0000E+00  0.8000E+01
  -7.600  0.0000E+00  0.0000E+00  0.8000E+01
  -7.590  0.0000E+00  0.0000E+00  0.8000E+01
  -7.580  0.0000E+00  0.0000E+00  0.8000E+01
  -7.570  0.0000E+00  0.0000E+00  0.8000E+01
  -7.560  0.0000E+00  0.0000E+00  0.8000E+01
  -7.550  0.0000E+00  0.0000E+00  0.8000E+01
  -7.540  0.0000E+00  0.0000E+00  0.8000E+01
  -7.530  0.0000E+00  0.0000E+00  0.8000E+01
  -7.520  0.6970E-02  0.0000E+00  0.8000E+01
  -7.510  0.1052E+00  0.1910E-02  0.8000E+01
  -7.500  0.5122E+00  0.5290E-01  0.8003E+01
  -7.490  0.1251E+01  0.3713E+00  0.8014E+01
  -7.480  0.2079E+01  0.1020E+01  0.8037E+01
  -7.470  0.2609E+01  0.1879E+01  0.8076E+01
  -7.460  0.2892E+01  0.2498E+01  0.8125E+01
  -7.450  0.3011E+01  0.2835E+01  0.8182E+01
  -7.440  0.3162E+01  0.2991E+01  0.8242E+01
  -7.430  0.3327E+01  0.3129E+01  0.8305E+01
  -7.420  0.3551E+01  0.3316E+01  0.8372E+01
  -7.410  0.3976E+01  0.3505E+01  0.8443E+01
  -7.400  0.4589E+01  0.3874E+01  0.8523E+01
  -7.390  0.5232E+01  0.4490E+01  0.8613E+01
  -7.380  0.5928E+01  0.5078E+01  0.8717E+01
  -7.370  0.6144E+01  0.5849E+01  0.8833E+01
  -7.360  0.5844E+01  0.6160E+01  0.8953E+01
  -7.350  0.5235E+01  0.5944E+01  0.9070E+01
  -7.340  0.4828E+01  0.5345E+01  0.9176E+01
  -7.330  0.4872E+01  0.4834E+01  0.9275E+01
  -7.320  0.5452E+01  0.4749E+01  0.9374E+01
  -7.310  0.6381E+01  0.5099E+01  0.9482E+01
  -7.300  0.7577E+01  0.5848E+01  0.9606E+01
  -7.290  0.8811E+01  0.6947E+01  0.9751E+01
  -7.280  0.9121E+01  0.8183E+01  0.9918E+01
  -7.270  0.9069E+01  0.8940E+01  0.1010E+02
  -7.260  0.8859E+01  0.8971E+01  0.1027E+02
  -7.250  0.8559E+01  0.8814E+01  0.1045E+02
  -7.240  0.8381E+01  0.8530E+01  0.1062E+02
  -7.230  0.8290E+01  0.8319E+01  0.1079E+02
  -7.220  0.8267E+01  0.8224E+01  0.1096E+02
  -7.210  0.8344E+01  0.8212E+01  0.1112E+02
  -7.200  0.8372E+01  0.8319E+01  0.1129E+02
  -7.190  0.8146E+01  0.8347E+01  0.1145E+02
  -7.180  0.8171E+01  0.8186E+01  0.1162E+02
  -7.170  0.1048E+02  0.7963E+01  0.1179E+02
  -7.160  0.1086E+02  0.9586E+01  0.1198E+02
  -7.150  0.1105E+02  0.1088E+02  0.1220E+02
  -7.140  0.1183E+02  0.1161E+02  0.1242E+02
  -7.130  0.1268E+02  0.1156E+02  0.1266E+02
  -7.120  0.1285E+02  0.1230E+02  0.1291E+02
  -7.110  0.1313E+02  0.1263E+02  0.1316E+02
  -7.100  0.1347E+02  0.1291E+02  0.1342E+02
  -7.090  0.1292E+02  0.1329E+02  0.1368E+02
  -7.080  0.1165E+02  0.1290E+02  0.1394E+02
  -7.070  0.1004E+02  0.1235E+02  0.1418E+02
  -7.060  0.9038E+01  0.1086E+02  0.1439E+02
  -7.050  0.1047E+02  0.9595E+01  0.1458E+02
  -7.040  0.1146E+02  0.9954E+01  0.1479E+02
  -7.030  0.1185E+02  0.1114E+02  0.1501E+02
  -7.020  0.1201E+02  0.1138E+02  0.1525E+02
  -7.010  0.1236E+02  0.1129E+02  0.1548E+02
  -7.000  0.1431E+02  0.1169E+02  0.1572E+02
  -6.990  0.1319E+02  0.1475E+02  0.1600E+02
  -6.980  0.1402E+02  0.1301E+02  0.1628E+02
  -6.970  0.1558E+02  0.1360E+02  0.1655E+02
  -6.960  0.1849E+02  0.1545E+02  0.1687E+02
  -6.950  0.2269E+02  0.1871E+02  0.1726E+02
  -6.940  0.2491E+02  0.2246E+02  0.1769E+02
  -6.930  0.2393E+02  0.2383E+02  0.1818E+02
  -6.920  0.2440E+02  0.2390E+02  0.1866E+02
  -6.910  0.2382E+02  0.2428E+02  0.1915E+02
  -6.900  0.2179E+02  0.2297E+02  0.1962E+02
  -6.890  0.2108E+02  0.2103E+02  0.2005E+02
  -6.880  0.1785E+02  0.1996E+02  0.2045E+02
  -6.870  0.1733E+02  0.1729E+02  0.2081E+02
  -6.860  0.1628E+02  0.1625E+02  0.2114E+02
  -6.850  0.1552E+02  0.1596E+02  0.2147E+02
  -6.840  0.1689E+02  0.1659E+02  0.2178E+02
  -6.830  0.2156E+02  0.1741E+02  0.2217E+02
  -6.820  0.1865E+02  0.2206E+02  0.2257E+02
  -6.810  0.1589E+02  0.2001E+02  0.2296E+02
  -6.800  0.1491E+02  0.1740E+02  0.2330E+02
  -6.790  0.1670E+02  0.1591E+02  0.2363E+02
  -6.780  0.3695E+02  0.1568E+02  0.2399E+02
  -6.770  0.2742E+02  0.2795E+02  0.2450E+02
  -6.760  0.2913E+02  0.1839E+02  0.2505E+02
  -6.750  0.3275E+02  0.2880E+02  0.2558E+02
  -6.740  0.3408E+02  0.3196E+02  0.2622E+02
  -6.730  0.3389E+02  0.3385E+02  0.2689E+02
  -6.720  0.3822E+02  0.3641E+02  0.2760E+02
  -6.710  0.3461E+02  0.3666E+02  0.2834E+02
  -6.700  0.4048E+02  0.3609E+02  0.2905E+02
  -6.690  0.4931E+02  0.3628E+02  0.2987E+02
  -6.680  0.3517E+02  0.3976E+02  0.3071E+02
  -6.670  0.5015E+02  0.3836E+02  0.3151E+02
  -6.660  0.3927E+02  0.4257E+02  0.3233E+02
  -6.650  0.4526E+02  0.4972E+02  0.3334E+02
  -6.640  0.4354E+02  0.4523E+02  0.3424E+02
  -6.630  0.4244E+02  0.4635E+02  0.3514E+02
  -6.620  0.4295E+02  0.3950E+02  0.3599E+02
  -6.610  0.4458E+02  0.4075E+02  0.3682E+02
  -6.600  0.4638E+02  0.4222E+02  0.3769E+02
  -6.590  0.4514E+02  0.4502E+02  0.3859E+02
  -6.580  0.4963E+02  0.4387E+02  0.3950E+02
  -6.570  0.5687E+02  0.4674E+02  0.4049E+02
  -6.560  0.5857E+02  0.5415E+02  0.4157E+02
  -6.550  0.5508E+02  0.5927E+02  0.4272E+02
  -6.540  0.6071E+02  0.6104E+02  0.4393E+02
  -6.530  0.5321E+02  0.6381E+02  0.4514E+02
  -6.520  0.4890E+02  0.5912E+02  0.4626E+02
  -6.510  0.5635E+02  0.5295E+02  0.4733E+02
  -6.500  0.5983E+02  0.6495E+02  0.4858E+02
  -6.490  0.4719E+02  0.3916E+02  0.4966E+02
  -6.480  0.6251E+02  0.6445E+02  0.5075E+02
  -6.470  0.3631E+02  0.5632E+02  0.5185E+02
  -6.460  0.3644E+02  0.4405E+02  0.5271E+02
  -6.450  0.7024E+02  0.4474E+02  0.5366E+02
  -6.440  0.6090E+02  0.6825E+02  0.5492E+02
  -6.430  0.4828E+02  0.4241E+02  0.5605E+02
  -6.420  0.6208E+02  0.4471E+02  0.5703E+02
  -6.410  0.6691E+02  0.6063E+02  0.5821E+02
  -6.400  0.6068E+02  0.6356E+02  0.5952E+02
  -6.390  0.7660E+02  0.5779E+02  0.6088E+02
  -6.380  0.5734E+02  0.7540E+02  0.6218E+02
  -6.370  0.6603E+02  0.6252E+02  0.6344E+02
  -6.360  0.5598E+02  0.6376E+02  0.6464E+02
  -6.350  0.5367E+02  0.6917E+02  0.6589E+02
  -6.340  0.5046E+02  0.6348E+02  0.6704E+02
  -6.330  0.4318E+02  0.5650E+02  0.6813E+02
  -6.320  0.3103E+02  0.3939E+02  0.6900E+02
  -6.310  0.2012E+02  0.2836E+02  0.6962E+02
  -6.300  0.6115E+01  0.1065E+02  0.6993E+02
  -6.290  0.9971E-03  0.3730E+00  0.7000E+02
  -6.280  0.0000E+00  0.0000E+00  0.7000E+02
  -6.270  0.0000E+00  0.0000E+00  0.7000E+02
  -6.260  0.0000E+00  0.0000E+00  0.7000E+02
  -6.250  0.0000E+00  0.0000E+00  0.7000E+02
  -6.240  0.0000E+00  0.0000E+00  0.7000E+02
  -6.230  0.0000E+00  0.0000E+00  0.7000E+02
  -6.220  0.0000E+00  0.0000E+00  0.7000E+02
  -6.210  0.0000E+00  0.0000E+00  0.7000E+02
  -6.200  0.0000E+00  0.0000E+00  0.7000E+02
  -6.190  0.0000E+00  0.0000E+00  0.7000E+02
  -6.180  0.0000E+00  0.0000E+00  0.7000E+02
  -6.170  0.0000E+00  0.0000E+00  0.7000E+02
  -6.160  0.0000E+00  0.0000E+00  0.7000E+02
  -6.150  0.0000E+00  0.0000E+00  0.7000E+02
  -6.140  0.0000E+00  0.0000E+00  0.7000E+02
  -6.130  0.0000E+00  0.0000E+00  0.7000E+02
  -6.120  0.0000E+00  0.0000E+00  0.7000E+02
  -6.110  0.0000E+00  0.0000E+00  0.7000E+02
  -6.100  0.0000E+00  0.0000E+00  0.7000E+02
  -6.090  0.0000E+00  0.0000E+00  0.7000E+02
  -6.080  0.0000E+00  0.0000E+00  0.7000E+02
  -6.070  0.0000E+00  0.0000E+00  0.7000E+02
  -6.060  0.0000E+00  0.0000E+00  0.7000E+02
  -6.050  0.0000E+00  0.0000E+00  0.7000E+02
  -6.040  0.0000E+00  0.0000E+00  0.7000E+02
  -6.030  0.0000E+00  0.0000E+00  0.7000E+02
  -6.020  0.0000E+00  0.0000E+00  0.7000E+02
  -6.010  0.0000E+00  0.0000E+00  0.7000E+02
  -6.000  0.0000E+00  0.0000E+00  0.7000E+02
  -5.990  0.0000E+00  0.0000E+00  0.7000E+02
  -5.980  0.0000E+00  0.0000E+00  0.7000E+02
  -5.970  0.0000E+00  0.0000E+00  0.7000E+02
  -5.960  0.0000E+00  0.0000E+00  0.7000E+02
  -5.950  0.0000E+00  0.0000E+00  0.7000E+02
  -5.940  0.0000E+00  0.0000E+00  0.7000E+02
  -5.930  0.0000E+00  0.0000E+00  0.7000E+02
  -5.920  0.0000E+00  0.0000E+00  0.7000E+02
  -5.910  0.0000E+00  0.0000E+00  0.7000E+02
  -5.900  0.0000E+00  0.0000E+00  0.7000E+02
  -5.890  0.0000E+00  0.0000E+00  0.7000E+02
  -5.880  0.0000E+00  0.0000E+00  0.7000E+02
  -5.870  0.0000E+00  0.0000E+00  0.7000E+02
  -5.860  0.0000E+00  0.0000E+00  0.7000E+02
  -5.850  0.0000E+00  0.0000E+00  0.7000E+02
  -5.840  0.0000E+00  0.0000E+00  0.7000E+02
  -5.830  0.0000E+00  0.0000E+00  0.7000E+02
  -5.820  0.0000E+00  0.0000E+00  0.7000E+02
  -5.810  0.0000E+00  0.0000E+00  0.7000E+02
  -5.800  0.0000E+00  0.0000E+00  0.7000E+02
  -5.790  0.0000E+00  0.0000E+00  0.7000E+02
  -5.780  0.0000E+00  0.0000E+00  0.7000E+02
  -5.770  0.0000E+00  0.0000E+00  0.7000E+02
  -5.760  0.0000E+00  0.0000E+00  0.7000E+02
  -5.750  0.0000E+00  0.0000E+00  0.7000E+02
  -5.740  0.0000E+00  0.0000E+00  0.7000E+02
  -5.730  0.0000E+00  0.0000E+00  0.7000E+02
  -5.720  0.0000E+00  0.0000E+00  0.7000E+02
  -5.710  0.0000E+00  0.0000E+00  0.7000E+02
  -5.700  0.0000E+00  0.0000E+00  0.7000E+02
  -5.690  0.0000E+00  0.0000E+00  0.7000E+02
  -5.680  0.0000E+00  0.0000E+00  0.7000E+02
  -5.670  0.0000E+00  0.0000E+00  0.7000E+02
  -5.660  0.0000E+00  0.0000E+00  0.7000E+02
  -5.650  0.0000E+00  0.0000E+00  0.7000E+02
  -5.640  0.0000E+00  0.0000E+00  0.7000E+02
  -5.630  0.0000E+00  0.0000E+00  0.7000E+02
  -5.620  0.0000E+00  0.0000E+00  0.7000E+02
  -5.610  0.0000E+00  0.0000E+00  0.7000E+02
  -5.600  0.0000E+00  0.0000E+00  0.7000E+02
  -5.590  0.0000E+00  0.0000E+00  0.7000E+02
  -5.580  0.0000E+00  0.0000E+00  0.7000E+02
  -5.570  0.0000E+00  0.0000E+00  0.7000E+02
  -5.560  0.0000E+00  0.0000E+00  0.7000E+02
  -5.550  0.0000E+00  0.0000E+00  0.7000E+02
  -5.540  0.0000E+00  0.0000E+00  0.7000E+02
  -5.530  0.0000E+00  0.0000E+00  0.7000E+02
  -5.520  0.0000E+00  0.0000E+00  0.7000E+02
  -5.510  0.0000E+00  0.0000E+00  0.7000E+02
  -5.500  0.0000E+00  0.0000E+00  0.7000E+02
  -5.490  0.0000E+00  0.0000E+00  0.7000E+02
  -5.480  0.0000E+00  0.0000E+00  0.7000E+02
  -5.470  0.0000E+00  0.0000E+00  0.7000E+02
  -5.460  0.0000E+00  0.0000E+00  0.7000E+02
  -5.450  0.0000E+00  0.0000E+00  0.7000E+02
  -5.440  0.0000E+00  0.0000E+00  0.7000E+02
  -5.430  0.0000E+00  0.0000E+00  0.7000E+02
  -5.420  0.0000E+00  0.0000E+00  0.7000E+02
  -5.410  0.0000E+00  0.0000E+00  0.7000E+02
  -5.400  0.0000E+00  0.0000E+00  0.7000E+02
  -5.390  0.0000E+00  0.0000E+00  0.7000E+02
  -5.380  0.0000E+00  0.0000E+00  0.7000E+02
  -5.370  0.0000E+00  0.0000E+00  0.7000E+02
  -5.360  0.0000E+00  0.0000E+00  0.7000E+02
  -5.350  0.0000E+00  0.0000E+00  0.7000E+02
  -5.340  0.0000E+00  0.0000E+00  0.7000E+02
  -5.330  0.0000E+00  0.0000E+00  0.7000E+02
  -5.320  0.0000E+00  0.0000E+00  0.7000E+02
  -5.310  0.0000E+00  0.0000E+00  0.7000E+02
  -5.300  0.0000E+00  0.0000E+00  0.7000E+02
  -5.290  0.0000E+00  0.0000E+00  0.7000E+02
  -5.280  0.0000E+00  0.0000E+00  0.7000E+02
  -5.270  0.0000E+00  0.0000E+00  0.7000E+02
  -5.260  0.0000E+00  0.0000E+00  0.7000E+02
  -5.250  0.0000E+00  0.0000E+00  0.7000E+02
  -5.240  0.0000E+00  0.0000E+00  0.7000E+02
  -5.230  0.0000E+00  0.0000E+00  0.7000E+02
  -5.220  0.0000E+00  0.0000E+00  0.7000E+02
  -5.210  0.0000E+00  0.0000E+00  0.7000E+02
  -5.200  0.0000E+00  0.0000E+00  0.7000E+02
  -5.190  0.0000E+00  0.0000E+00  0.7000E+02
  -5.180  0.0000E+00  0.0000E+00  0.7000E+02
  -5.170  0.0000E+00  0.0000E+00  0.7000E+02
  -5.160  0.0000E+00  0.0000E+00  0.7000E+02
  -5.150  0.0000E+00  0.0000E+00  0.7000E+02
  -5.140  0.0000E+00  0.0000E+00  0.7000E+02
  -5.130  0.0000E+00  0.0000E+00  0.7000E+02
  -5.120  0.0000E+00  0.0000E+00  0.7000E+02
  -5.110  0.0000E+00  0.0000E+00  0.7000E+02
  -5.100  0.0000E+00  0.0000E+00  0.7000E+02
  -5.090  0.0000E+00  0.0000E+00  0.7000E+02
  -5.080  0.0000E+00  0.0000E+00  0.7000E+02
  -5.070  0.0000E+00  0.0000E+00  0.7000E+02
  -5.060  0.0000E+00  0.0000E+00  0.7000E+02
  -5.050  0.0000E+00  0.0000E+00  0.7000E+02
  -5.040  0.0000E+00  0.0000E+00  0.7000E+02
  -5.030  0.0000E+00  0.0000E+00  0.7000E+02
  -5.020  0.0000E+00  0.0000E+00  0.7000E+02
  -5.010  0.0000E+00  0.0000E+00  0.7000E+02
  -5.000  0.0000E+00  0.0000E+00  0.7000E+02
  -4.990  0.0000E+00  0.0000E+00  0.7000E+02
  -4.980  0.0000E+00  0.0000E+00  0.7000E+02
  -4.970  0.0000E+00  0.0000E+00  0.7000E+02
  -4.960  0.0000E+00  0.0000E+00  0.7000E+02
  -4.950  0.0000E+00  0.0000E+00  0.7000E+02
  -4.940  0.0000E+00  0.0000E+00  0.7000E+02
  -4.930  0.0000E+00  0.0000E+00  0.7000E+02
  -4.920  0.0000E+00  0.0000E+00  0.7000E+02
  -4.910  0.0000E+00  0.0000E+00  0.7000E+02
  -4.900  0.0000E+00  0.0000E+00  0.7000E+02
  -4.890  0.0000E+00  0.0000E+00  0.7000E+02
  -4.880  0.0000E+00  0.0000E+00  0.7000E+02
  -4.870  0.0000E+00  0.0000E+00  0.7000E+02
  -4.860  0.0000E+00  0.0000E+00  0.7000E+02
  -4.850  0.0000E+00  0.0000E+00  0.7000E+02
  -4.840  0.0000E+00  0.0000E+00  0.7000E+02
  -4.830  0.0000E+00  0.0000E+00  0.7000E+02
  -4.820  0.0000E+00  0.0000E+00  0.7000E+02
  -4.810  0.0000E+00  0.0000E+00  0.7000E+02
  -4.800  0.0000E+00  0.0000E+00  0.7000E+02
  -4.790  0.0000E+00  0.0000E+00  0.7000E+02
  -4.780  0.0000E+00  0.0000E+00  0.7000E+02
  -4.770  0.0000E+00  0.0000E+00  0.7000E+02
  -4.760  0.0000E+00  0.0000E+00  0.7000E+02
  -4.750  0.0000E+00  0.0000E+00  0.7000E+02
  -4.740  0.0000E+00  0.0000E+00  0.7000E+02
  -4.730  0.0000E+00  0.0000E+00  0.7000E+02
  -4.720  0.0000E+00  0.0000E+00  0.7000E+02
  -4.710  0.0000E+00  0.0000E+00  0.7000E+02
  -4.700  0.0000E+00  0.0000E+00  0.7000E+02
  -4.690  0.0000E+00  0.0000E+00  0.7000E+02
  -4.680  0.0000E+00  0.0000E+00  0.7000E+02
  -4.670  0.0000E+00  0.0000E+00  0.7000E+02
  -4.660  0.0000E+00  0.0000E+00  0.7000E+02
  -4.650  0.0000E+00  0.0000E+00  0.7000E+02
  -4.640  0.0000E+00  0.0000E+00  0.7000E+02
  -4.630  0.0000E+00  0.0000E+00  0.7000E+02
  -4.620  0.0000E+00  0.0000E+00  0.7000E+02
  -4.610  0.0000E+00  0.0000E+00  0.7000E+02
  -4.600  0.0000E+00  0.0000E+00  0.7000E+02
  -4.590  0.0000E+00  0.0000E+00  0.7000E+02
  -4.580  0.0000E+00  0.0000E+00  0.7000E+02
  -4.570  0.0000E+00  0.0000E+00  0.7000E+02
  -4.560  0.0000E+00  0.0000E+00  0.7000E+02
  -4.550  0.0000E+00  0.0000E+00  0.7000E+02
  -4.540  0.0000E+00  0.0000E+00  0.7000E+02
  -4.530  0.0000E+00  0.0000E+00  0.7000E+02
  -4.520  0.0000E+00  0.0000E+00  0.7000E+02
  -4.510  0.0000E+00  0.0000E+00  0.7000E+02
  -4.500  0.0000E+00  0.0000E+00  0.7000E+02
  -4.490  0.0000E+00  0.0000E+00  0.7000E+02
  -4.480  0.0000E+00  0.0000E+00  0.7000E+02
  -4.470  0.0000E+00  0.0000E+00  0.7000E+02
  -4.460  0.0000E+00  0.0000E+00  0.7000E+02
  -4.450  0.0000E+00  0.0000E+00  0.7000E+02
  -4.440  0.0000E+00  0.0000E+00  0.7000E+02
  -4.430  0.0000E+00  0.0000E+00  0.7000E+02
  -4.420  0.0000E+00  0.0000E+00  0.7000E+02
  -4.410  0.0000E+00  0.0000E+00  0.7000E+02
  -4.400  0.0000E+00  0.0000E+00  0.7000E+02
  -4.390  0.0000E+00  0.0000E+00  0.7000E+02
  -4.380  0.0000E+00  0.0000E+00  0.7000E+02
  -4.370  0.0000E+00  0.0000E+00  0.7000E+02
  -4.360  0.0000E+00  0.0000E+00  0.7000E+02
  -4.350  0.0000E+00  0.0000E+00  0.7000E+02
  -4.340  0.0000E+00  0.0000E+00  0.7000E+02
  -4.330  0.0000E+00  0.0000E+00  0.7000E+02
  -4.320  0.0000E+00  0.0000E+00  0.7000E+02
  -4.310  0.0000E+00  0.0000E+00  0.7000E+02
  -4.300  0.0000E+00  0.0000E+00  0.7000E+02
  -4.290  0.0000E+00  0.0000E+00  0.7000E+02
  -4.280  0.0000E+00  0.0000E+00  0.7000E+02
  -4.270  0.0000E+00  0.0000E+00  0.7000E+02
  -4.260  0.0000E+00  0.0000E+00  0.7000E+02
  -4.250  0.0000E+00  0.0000E+00  0.7000E+02
  -4.240  0.0000E+00  0.0000E+00  0.7000E+02
  -4.230  0.0000E+00  0.0000E+00  0.7000E+02
  -4.220  0.0000E+00  0.0000E+00  0.7000E+02
  -4.210  0.0000E+00  0.0000E+00  0.7000E+02
  -4.200  0.0000E+00  0.0000E+00  0.7000E+02
  -4.190  0.0000E+00  0.0000E+00  0.7000E+02
  -4.180  0.0000E+00  0.0000E+00  0.7000E+02
  -4.170  0.0000E+00  0.0000E+00  0.7000E+02
  -4.160  0.0000E+00  0.0000E+00  0.7000E+02
  -4.150  0.0000E+00  0.0000E+00  0.7000E+02
  -4.140  0.0000E+00  0.0000E+00  0.7000E+02
  -4.130  0.0000E+00  0.0000E+00  0.7000E+02
  -4.120  0.0000E+00  0.0000E+00  0.7000E+02
  -4.110  0.0000E+00  0.0000E+00  0.7000E+02
  -4.100  0.0000E+00  0.0000E+00  0.7000E+02
  -4.090  0.0000E+00  0.0000E+00  0.7000E+02
  -4.080  0.0000E+00  0.0000E+00  0.7000E+02
  -4.070  0.0000E+00  0.0000E+00  0.7000E+02
  -4.060  0.0000E+00  0.0000E+00  0.7000E+02
  -4.050  0.0000E+00  0.0000E+00  0.7000E+02
  -4.040  0.0000E+00  0.0000E+00  0.7000E+02
  -4.030  0.0000E+00  0.0000E+00  0.7000E+02
  -4.020  0.0000E+00  0.0000E+00  0.7000E+02
  -4.010  0.0000E+00  0.0000E+00  0.7000E+02
  -4.000  0.0000E+00  0.0000E+00  0.7000E+02
  -3.990  0.0000E+00  0.0000E+00  0.7000E+02
  -3.980  0.0000E+00  0.0000E+00  0.7000E+02
  -3.970  0.0000E+00  0.0000E+00  0.7000E+02
  -3.960  0.0000E+00  0.0000E+00  0.7000E+02
  -3.950  0.0000E+00  0.0000E+00  0.7000E+02
  -3.940  0.0000E+00  0.0000E+00  0.7000E+02
  -3.930  0.0000E+00  0.0000E+00  0.7000E+02
  -3.920  0.0000E+00  0.0000E+00  0.7000E+02
  -3.910  0.0000E+00  0.0000E+00  0.7000E+02
  -3.900  0.0000E+00  0.0000E+00  0.7000E+02
  -3.890  0.0000E+00  0.0000E+00  0.7000E+02
  -3.880  0.0000E+00  0.0000E+00  0.7000E+02
  -3.870  0.0000E+00  0.0000E+00  0.7000E+02
  -3.860  0.0000E+00  0.0000E+00  0.7000E+02
  -3.850  0.0000E+00  0.0000E+00  0.7000E+02
  -3.840  0.0000E+00  0.0000E+00  0.7000E+02
  -3.830  0.0000E+00  0.0000E+00  0.7000E+02
  -3.820  0.0000E+00  0.0000E+00  0.7000E+02
  -3.810  0.0000E+00  0.0000E+00  0.7000E+02
  -3.800  0.0000E+00  0.0000E+00  0.7000E+02
  -3.790  0.0000E+00  0.0000E+00  0.7000E+02
  -3.780  0.0000E+00  0.0000E+00  0.7000E+02
  -3.770  0.0000E+00  0.0000E+00  0.7000E+02
  -3.760  0.0000E+00  0.0000E+00  0.7000E+02
  -3.750  0.0000E+00  0.0000E+00  0.7000E+02
  -3.740  0.0000E+00  0.0000E+00  0.7000E+02
  -3.730  0.0000E+00  0.0000E+00  0.7000E+02
  -3.720  0.0000E+00  0.0000E+00  0.7000E+02
  -3.710  0.0000E+00  0.0000E+00  0.7000E+02
  -3.700  0.0000E+00  0.0000E+00  0.7000E+02
  -3.690  0.0000E+00  0.0000E+00  0.7000E+02
  -3.680  0.0000E+00  0.0000E+00  0.7000E+02
  -3.670  0.0000E+00  0.0000E+00  0.7000E+02
  -3.660  0.0000E+00  0.0000E+00  0.7000E+02
  -3.650  0.0000E+00  0.0000E+00  0.7000E+02
  -3.640  0.0000E+00  0.0000E+00  0.7000E+02
  -3.630  0.0000E+00  0.0000E+00  0.7000E+02
  -3.620  0.0000E+00  0.0000E+00  0.7000E+02
  -3.610  0.0000E+00  0.0000E+00  0.7000E+02
  -3.600  0.0000E+00  0.0000E+00  0.7000E+02
  -3.590  0.0000E+00  0.0000E+00  0.7000E+02
  -3.580  0.0000E+00  0.0000E+00  0.7000E+02
  -3.570  0.0000E+00  0.0000E+00  0.7000E+02
  -3.560  0.0000E+00  0.0000E+00  0.7000E+02
  -3.550  0.0000E+00  0.0000E+00  0.7000E+02
  -3.540  0.0000E+00  0.0000E+00  0.7000E+02
  -3.530  0.0000E+00  0.0000E+00  0.7000E+02
  -3.520  0.0000E+00  0.0000E+00  0.7000E+02
  -3.510  0.0000E+00  0.0000E+00  0.7000E+02
  -3.500  0.0000E+00  0.0000E+00  0.7000E+02
  -3.490  0.0000E+00  0.0000E+00  0.7000E+02
  -3.480  0.0000E+00  0.0000E+00  0.7000E+02
  -3.470  0.0000E+00  0.0000E+00  0.7000E+02
  -3.460  0.0000E+00  0.0000E+00  0.7000E+02
  -3.450  0.0000E+00  0.0000E+00  0.7000E+02
  -3.440  0.0000E+00  0.0000E+00  0.7000E+02
  -3.430  0.0000E+00  0.0000E+00  0.7000E+02
  -3.420  0.0000E+00  0.0000E+00  0.7000E+02
  -3.410  0.0000E+00  0.0000E+00  0.7000E+02
  -3.400  0.0000E+00  0.0000E+00  0.7000E+02
  -3.390  0.0000E+00  0.0000E+00  0.7000E+02
  -3.380  0.0000E+00  0.0000E+00  0.7000E+02
  -3.370  0.0000E+00  0.0000E+00  0.7000E+02
  -3.360  0.0000E+00  0.0000E+00  0.7000E+02
  -3.350  0.0000E+00  0.0000E+00  0.7000E+02
  -3.340  0.0000E+00  0.0000E+00  0.7000E+02
  -3.330  0.0000E+00  0.0000E+00  0.7000E+02
  -3.320  0.0000E+00  0.0000E+00  0.7000E+02
  -3.310  0.0000E+00  0.0000E+00  0.7000E+02
  -3.300  0.0000E+00  0.0000E+00  0.7000E+02
  -3.290  0.0000E+00  0.0000E+00  0.7000E+02
  -3.280  0.0000E+00  0.0000E+00  0.7000E+02
  -3.270  0.0000E+00  0.0000E+00  0.7000E+02
  -3.260  0.0000E+00  0.0000E+00  0.7000E+02
  -3.250  0.0000E+00  0.0000E+00  0.7000E+02
  -3.240  0.0000E+00  0.0000E+00  0.7000E+02
  -3.230  0.0000E+00  0.0000E+00  0.7000E+02
  -3.220  0.0000E+00  0.0000E+00  0.7000E+02
  -3.210  0.0000E+00  0.0000E+00  0.7000E+02
  -3.200  0.0000E+00  0.0000E+00  0.7000E+02
  -3.190  0.0000E+00  0.0000E+00  0.7000E+02
  -3.180  0.0000E+00  0.0000E+00  0.7000E+02
  -3.170  0.0000E+00  0.0000E+00  0.7000E+02
  -3.160  0.0000E+00  0.0000E+00  0.7000E+02
  -3.150  0.0000E+00  0.0000E+00  0.7000E+02
  -3.140  0.0000E+00  0.0000E+00  0.7000E+02
  -3.130  0.0000E+00  0.0000E+00  0.7000E+02
  -3.120  0.0000E+00  0.0000E+00  0.7000E+02
  -3.110  0.0000E+00  0.0000E+00  0.7000E+02
  -3.100  0.0000E+00  0.0000E+00  0.7000E+02
  -3.090  0.0000E+00  0.0000E+00  0.7000E+02
  -3.080  0.0000E+00  0.0000E+00  0.7000E+02
  -3.070  0.0000E+00  0.0000E+00  0.7000E+02
  -3.060  0.0000E+00  0.0000E+00  0.7000E+02
  -3.050  0.0000E+00  0.0000E+00  0.7000E+02
  -3.040  0.0000E+00  0.0000E+00  0.7000E+02
  -3.030  0.0000E+00  0.0000E+00  0.7000E+02
  -3.020  0.0000E+00  0.0000E+00  0.7000E+02
  -3.010  0.0000E+00  0.0000E+00  0.7000E+02
  -3.000  0.0000E+00  0.0000E+00  0.7000E+02
  -2.990  0.0000E+00  0.0000E+00  0.7000E+02
  -2.980  0.0000E+00  0.0000E+00  0.7000E+02
  -2.970  0.0000E+00  0.0000E+00  0.7000E+02
  -2.960  0.0000E+00  0.0000E+00  0.7000E+02
  -2.950  0.0000E+00  0.0000E+00  0.7000E+02
  -2.940  0.0000E+00  0.0000E+00  0.7000E+02
  -2.930  0.0000E+00  0.0000E+00  0.7000E+02
  -2.920  0.0000E+00  0.0000E+00  0.7000E+02
  -2.910  0.0000E+00  0.0000E+00  0.7000E+02
  -2.900  0.0000E+00  0.0000E+00  0.7000E+02
  -2.890  0.0000E+00  0.0000E+00  0.7000E+02
  -2.880  0.0000E+00  0.0000E+00  0.7000E+02
  -2.870  0.0000E+00  0.0000E+00  0.7000E+02
  -2.860  0.0000E+00  0.0000E+00  0.7000E+02
  -2.850  0.0000E+00  0.0000E+00  0.7000E+02
  -2.840  0.0000E+00  0.0000E+00  0.7000E+02
  -2.830  0.0000E+00  0.0000E+00  0.7000E+02
  -2.820  0.0000E+00  0.0000E+00  0.7000E+02
  -2.810  0.0000E+00  0.0000E+00  0.7000E+02
  -2.800  0.0000E+00  0.0000E+00  0.7000E+02
  -2.790  0.0000E+00  0.0000E+00  0.7000E+02
  -2.780  0.0000E+00  0.0000E+00  0.7000E+02
  -2.770  0.0000E+00  0.0000E+00  0.7000E+02
  -2.760  0.0000E+00  0.0000E+00  0.7000E+02
  -2.750  0.0000E+00  0.0000E+00  0.7000E+02
  -2.740  0.0000E+00  0.0000E+00  0.7000E+02
  -2.730  0.0000E+00  0.0000E+00  0.7000E+02
  -2.720  0.0000E+00  0.0000E+00  0.7000E+02
  -2.710  0.0000E+00  0.0000E+00  0.7000E+02
  -2.700  0.0000E+00  0.0000E+00  0.7000E+02
  -2.690  0.0000E+00  0.0000E+00  0.7000E+02
  -2.680  0.0000E+00  0.0000E+00  0.7000E+02
  -2.670  0.0000E+00  0.0000E+00  0.7000E+02
  -2.660  0.0000E+00  0.0000E+00  0.7000E+02
  -2.650  0.0000E+00  0.0000E+00  0.7000E+02
  -2.640  0.0000E+00  0.0000E+00  0.7000E+02
  -2.630  0.0000E+00  0.0000E+00  0.7000E+02
  -2.620  0.0000E+00  0.0000E+00  0.7000E+02
  -2.610  0.0000E+00  0.0000E+00  0.7000E+02
  -2.600  0.0000E+00  0.0000E+00  0.7000E+02
  -2.590  0.0000E+00  0.0000E+00  0.7000E+02
  -2.580  0.0000E+00  0.0000E+00  0.7000E+02
  -2.570  0.0000E+00  0.0000E+00  0.7000E+02
  -2.560  0.0000E+00  0.0000E+00  0.7000E+02
  -2.550  0.0000E+00  0.0000E+00  0.7000E+02
  -2.540  0.0000E+00  0.0000E+00  0.7000E+02
  -2.530  0.0000E+00  0.0000E+00  0.7000E+02
  -2.520  0.0000E+00  0.0000E+00  0.7000E+02
  -2.510  0.0000E+00  0.0000E+00  0.7000E+02
  -2.500  0.0000E+00  0.0000E+00  0.7000E+02
  -2.490  0.0000E+00  0.0000E+00  0.7000E+02
  -2.480  0.0000E+00  0.0000E+00  0.7000E+02
  -2.470  0.0000E+00  0.0000E+00  0.7000E+02
  -2.460  0.0000E+00  0.0000E+00  0.7000E+02
  -2.450  0.0000E+00  0.0000E+00  0.7000E+02
  -2.440  0.0000E+00  0.0000E+00  0.7000E+02
  -2.430  0.0000E+00  0.0000E+00  0.7000E+02
  -2.420  0.0000E+00  0.0000E+00  0.7000E+02
  -2.410  0.0000E+00  0.0000E+00  0.7000E+02
  -2.400  0.0000E+00  0.0000E+00  0.7000E+02
  -2.390  0.0000E+00  0.0000E+00  0.7000E+02
  -2.380  0.0000E+00  0.0000E+00  0.7000E+02
  -2.370  0.0000E+00  0.0000E+00  0.7000E+02
  -2.360  0.0000E+00  0.0000E+00  0.7000E+02
  -2.350  0.0000E+00  0.0000E+00  0.7000E+02
  -2.340  0.0000E+00  0.0000E+00  0.7000E+02
  -2.330  0.0000E+00  0.0000E+00  0.7000E+02
  -2.320  0.0000E+00  0.0000E+00  0.7000E+02
  -2.310  0.0000E+00  0.0000E+00  0.7000E+02
  -2.300  0.0000E+00  0.0000E+00  0.7000E+02
  -2.290  0.0000E+00  0.0000E+00  0.7000E+02
  -2.280  0.0000E+00  0.0000E+00  0.7000E+02
  -2.270  0.0000E+00  0.0000E+00  0.7000E+02
  -2.260  0.0000E+00  0.0000E+00  0.7000E+02
  -2.250  0.0000E+00  0.0000E+00  0.7000E+02
  -2.240  0.0000E+00  0.0000E+00  0.7000E+02
  -2.230  0.0000E+00  0.0000E+00  0.7000E+02
  -2.220  0.0000E+00  0.0000E+00  0.7000E+02
  -2.210  0.0000E+00  0.0000E+00  0.7000E+02
  -2.200  0.0000E+00  0.0000E+00  0.7000E+02
  -2.190  0.0000E+00  0.0000E+00  0.7000E+02
  -2.180  0.0000E+00  0.0000E+00  0.7000E+02
  -2.170  0.0000E+00  0.0000E+00  0.7000E+02
  -2.160  0.0000E+00  0.0000E+00  0.7000E+02
  -2.150  0.0000E+00  0.0000E+00  0.7000E+02
  -2.140  0.0000E+00  0.0000E+00  0.7000E+02
  -2.130  0.0000E+00  0.0000E+00  0.7000E+02
  -2.120  0.0000E+00  0.0000E+00  0.7000E+02
  -2.110  0.0000E+00  0.0000E+00  0.7000E+02
  -2.100  0.0000E+00  0.0000E+00  0.7000E+02
  -2.090  0.0000E+00  0.0000E+00  0.7000E+02
  -2.080  0.0000E+00  0.0000E+00  0.7000E+02
  -2.070  0.0000E+00  0.0000E+00  0.7000E+02
  -2.060  0.0000E+00  0.0000E+00  0.7000E+02
  -2.050  0.0000E+00  0.0000E+00  0.7000E+02
  -2.040  0.0000E+00  0.0000E+00  0.7000E+02
  -2.030  0.0000E+00  0.0000E+00  0.7000E+02
  -2.020  0.0000E+00  0.0000E+00  0.7000E+02
  -2.010  0.0000E+00  0.0000E+00  0.7000E+02
  -2.000  0.0000E+00  0.0000E+00  0.7000E+02
  -1.990  0.0000E+00  0.0000E+00  0.7000E+02
  -1.980  0.0000E+00  0.0000E+00  0.7000E+02
  -1.970  0.0000E+00  0.0000E+00  0.7000E+02
  -1.960  0.0000E+00  0.0000E+00  0.7000E+02
  -1.950  0.0000E+00  0.0000E+00  0.7000E+02
  -1.940  0.0000E+00  0.0000E+00  0.7000E+02
  -1.930  0.0000E+00  0.0000E+00  0.7000E+02
  -1.920  0.0000E+00  0.0000E+00  0.7000E+02
  -1.910  0.0000E+00  0.0000E+00  0.7000E+02
  -1.900  0.0000E+00  0.0000E+00  0.7000E+02
  -1.890  0.0000E+00  0.0000E+00  0.7000E+02
  -1.880  0.0000E+00  0.0000E+00  0.7000E+02
  -1.870  0.0000E+00  0.0000E+00  0.7000E+02
  -1.860  0.0000E+00  0.0000E+00  0.7000E+02
  -1.850  0.0000E+00  0.0000E+00  0.7000E+02
  -1.840  0.0000E+00  0.0000E+00  0.7000E+02
  -1.830  0.0000E+00  0.0000E+00  0.7000E+02
  -1.820  0.0000E+00  0.0000E+00  0.7000E+02
  -1.810  0.0000E+00  0.0000E+00  0.7000E+02
  -1.800  0.0000E+00  0.0000E+00  0.7000E+02
  -1.790  0.0000E+00  0.0000E+00  0.7000E+02
  -1.780  0.0000E+00  0.0000E+00  0.7000E+02
  -1.770  0.0000E+00  0.0000E+00  0.7000E+02
  -1.760  0.0000E+00  0.0000E+00  0.7000E+02
  -1.750  0.0000E+00  0.0000E+00  0.7000E+02
  -1.740  0.0000E+00  0.0000E+00  0.7000E+02
  -1.730  0.0000E+00  0.0000E+00  0.7000E+02
  -1.720  0.0000E+00  0.0000E+00  0.7000E+02
  -1.710  0.0000E+00  0.0000E+00  0.7000E+02
  -1.700  0.0000E+00  0.0000E+00  0.7000E+02
  -1.690  0.0000E+00  0.0000E+00  0.7000E+02
  -1.680  0.0000E+00  0.0000E+00  0.7000E+02
  -1.670  0.0000E+00  0.0000E+00  0.7000E+02
  -1.660  0.0000E+00  0.0000E+00  0.7000E+02
  -1.650  0.0000E+00  0.0000E+00  0.7000E+02
  -1.640  0.0000E+00  0.0000E+00  0.7000E+02
  -1.630  0.0000E+00  0.0000E+00  0.7000E+02
  -1.620  0.0000E+00  0.0000E+00  0.7000E+02
  -1.610  0.0000E+00  0.0000E+00  0.7000E+02
  -1.600  0.0000E+00  0.0000E+00  0.7000E+02
  -1.590  0.0000E+00  0.0000E+00  0.7000E+02
  -1.580  0.0000E+00  0.0000E+00  0.7000E+02
  -1.570  0.0000E+00  0.0000E+00  0.7000E+02
  -1.560  0.0000E+00  0.0000E+00  0.7000E+02
  -1.550  0.0000E+00  0.0000E+00  0.7000E+02
  -1.540  0.0000E+00  0.0000E+00  0.7000E+02
  -1.530  0.0000E+00  0.0000E+00  0.7000E+02
  -1.520  0.0000E+00  0.0000E+00  0.7000E+02
  -1.510  0.0000E+00  0.0000E+00  0.7000E+02
  -1.500  0.0000E+00  0.0000E+00  0.7000E+02
  -1.490  0.0000E+00  0.0000E+00  0.7000E+02
  -1.480  0.0000E+00  0.0000E+00  0.7000E+02
  -1.470  0.0000E+00  0.0000E+00  0.7000E+02
  -1.460  0.0000E+00  0.0000E+00  0.7000E+02
  -1.450  0.0000E+00  0.0000E+00  0.7000E+02
  -1.440  0.0000E+00  0.0000E+00  0.7000E+02
  -1.430  0.0000E+00  0.0000E+00  0.7000E+02
  -1.420  0.0000E+00  0.0000E+00  0.7000E+02
  -1.410  0.0000E+00  0.0000E+00  0.7000E+02
  -1.400  0.0000E+00  0.0000E+00  0.7000E+02
  -1.390  0.0000E+00  0.0000E+00  0.7000E+02
  -1.380  0.0000E+00  0.0000E+00  0.7000E+02
  -1.370  0.0000E+00  0.0000E+00  0.7000E+02
  -1.360  0.0000E+00  0.0000E+00  0.7000E+02
  -1.350  0.0000E+00  0.0000E+00  0.7000E+02
  -1.340  0.0000E+00  0.0000E+00  0.7000E+02
  -1.330  0.0000E+00  0.0000E+00  0.7000E+02
  -1.320  0.0000E+00  0.0000E+00  0.7000E+02
  -1.310  0.0000E+00  0.0000E+00  0.7000E+02
  -1.300  0.0000E+00  0.0000E+00  0.7000E+02
  -1.290  0.0000E+00  0.0000E+00  0.7000E+02
  -1.280  0.0000E+00  0.0000E+00  0.7000E+02
  -1.270  0.0000E+00  0.0000E+00  0.7000E+02
  -1.260  0.0000E+00  0.0000E+00  0.7000E+02
  -1.250  0.0000E+00  0.0000E+00  0.7000E+02
  -1.240  0.0000E+00  0.0000E+00  0.7000E+02
  -1.230  0.0000E+00  0.0000E+00  0.7000E+02
  -1.220  0.0000E+00  0.0000E+00  0.7000E+02
  -1.210  0.0000E+00  0.0000E+00  0.7000E+02
  -1.200  0.0000E+00  0.0000E+00  0.7000E+02
  -1.190  0.0000E+00  0.0000E+00  0.7000E+02
  -1.180  0.0000E+00  0.0000E+00  0.7000E+02
  -1.170  0.0000E+00  0.0000E+00  0.7000E+02
  -1.160  0.0000E+00  0.0000E+00  0.7000E+02
  -1.150  0.0000E+00  0.0000E+00  0.7000E+02
  -1.140  0.0000E+00  0.0000E+00  0.7000E+02
  -1.130  0.0000E+00  0.0000E+00  0.7000E+02
  -1.120  0.0000E+00  0.0000E+00  0.7000E+02
  -1.110  0.0000E+00  0.0000E+00  0.7000E+02
  -1.100  0.0000E+00  0.0000E+00  0.7000E+02
  -1.090  0.0000E+00  0.0000E+00  0.7000E+02
  -1.080  0.0000E+00  0.0000E+00  0.7000E+02
  -1.070  0.0000E+00  0.0000E+00  0.7000E+02
  -1.060  0.0000E+00  0.0000E+00  0.7000E+02
  -1.050  0.0000E+00  0.0000E+00  0.7000E+02
  -1.040  0.0000E+00  0.0000E+00  0.7000E+02
  -1.030  0.0000E+00  0.0000E+00  0.7000E+02
  -1.020  0.0000E+00  0.0000E+00  0.7000E+02
  -1.010  0.0000E+00  0.0000E+00  0.7000E+02
  -1.000  0.0000E+00  0.0000E+00  0.7000E+02
  -0.990  0.0000E+00  0.0000E+00  0.7000E+02
  -0.980  0.0000E+00  0.0000E+00  0.7000E+02
  -0.970  0.0000E+00  0.0000E+00  0.7000E+02
  -0.960  0.0000E+00  0.0000E+00  0.7000E+02
  -0.950  0.0000E+00  0.0000E+00  0.7000E+02
  -0.940  0.0000E+00  0.0000E+00  0.7000E+02
  -0.930  0.0000E+00  0.0000E+00  0.7000E+02
  -0.920  0.0000E+00  0.0000E+00  0.7000E+02
  -0.910  0.0000E+00  0.0000E+00  0.7000E+02
  -0.900  0.0000E+00  0.0000E+00  0.7000E+02
  -0.890  0.0000E+00  0.0000E+00  0.7000E+02
  -0.880  0.0000E+00  0.0000E+00  0.7000E+02
  -0.870  0.0000E+00  0.0000E+00  0.7000E+02
  -0.860  0.0000E+00  0.0000E+00  0.7000E+02
  -0.850  0.0000E+00  0.0000E+00  0.7000E+02
  -0.840  0.0000E+00  0.0000E+00  0.7000E+02
  -0.830  0.0000E+00  0.0000E+00  0.7000E+02
  -0.820  0.6624E+00  0.2198E-02  0.7000E+02
  -0.810  0.6068E+01  0.2720E+01  0.7004E+02
  -0.800  0.3147E+02  0.2215E+02  0.7030E+02
  -0.790  0.8201E+02  0.7441E+02  0.7131E+02
  -0.780  0.9969E+02  0.1005E+03  0.7316E+02
  -0.770  0.1165E+03  0.1147E+03  0.7532E+02
  -0.760  0.1479E+03  0.1395E+03  0.7785E+02
  -0.750  0.1545E+03  0.1712E+03  0.8090E+02
  -0.740  0.1660E+03  0.1576E+03  0.8409E+02
  -0.730  0.2225E+03  0.1684E+03  0.8759E+02
  -0.720  0.2323E+03  0.2235E+03  0.9178E+02
  -0.710  0.1901E+03  0.2189E+03  0.9625E+02
  -0.700  0.2400E+03  0.2390E+03  0.1004E+03
  -0.690  0.3217E+03  0.3128E+03  0.1064E+03
  -0.680  0.4022E+03  0.4388E+03  0.1142E+03
  -0.670  0.4536E+03  0.4154E+03  0.1222E+03
  -0.660  0.4929E+03  0.5079E+03  0.1320E+03
  -0.650  0.3743E+03  0.3953E+03  0.1407E+03
  -0.640  0.4454E+03  0.4013E+03  0.1479E+03
  -0.630  0.4722E+03  0.5021E+03  0.1557E+03
  -0.620  0.2184E+03  0.1905E+03  0.1617E+03
  -0.610  0.2219E+03  0.2631E+03  0.1667E+03
  -0.600  0.2118E+03  0.2465E+03  0.1715E+03
  -0.590  0.3020E+03  0.2214E+03  0.1758E+03
  -0.580  0.1589E+03  0.1682E+03  0.1801E+03
  -0.570  0.1936E+03  0.2035E+03  0.1840E+03
  -0.560  0.2118E+03  0.1934E+03  0.1878E+03
  -0.550  0.1885E+03  0.1043E+03  0.1918E+03
  -0.540  0.1626E+03  0.2407E+03  0.1957E+03
  -0.530  0.1210E+03  0.2266E+03  0.1994E+03
  -0.520  0.1576E+03  0.1960E+03  0.2034E+03
  -0.510  0.1700E+03  0.1888E+03  0.2069E+03
  -0.500  0.1389E+03  0.1849E+03  0.2104E+03
  -0.490  0.1505E+03  0.1201E+03  0.2131E+03
  -0.480  0.1812E+03  0.1640E+03  0.2159E+03
  -0.470  0.1383E+03  0.1520E+03  0.2191E+03
  -0.460  0.9802E+02  0.1076E+03  0.2217E+03
  -0.450  0.1384E+03  0.1062E+03  0.2238E+03
  -0.440  0.9782E+02  0.9394E+02  0.2259E+03
  -0.430  0.1103E+03  0.1086E+03  0.2280E+03
  -0.420  0.1368E+03  0.1271E+03  0.2304E+03
  -0.410  0.1444E+03  0.1346E+03  0.2331E+03
  -0.400  0.1339E+03  0.1487E+03  0.2359E+03
  -0.390  0.1534E+03  0.1480E+03  0.2389E+03
  -0.380  0.1715E+03  0.1597E+03  0.2421E+03
  -0.370  0.1679E+03  0.1756E+03  0.2457E+03
  -0.360  0.1509E+03  0.1690E+03  0.2493E+03
  -0.350  0.2549E+03  0.2183E+03  0.2524E+03
  -0.340  0.9248E+02  0.2730E+03  0.2578E+03
  -0.330  0.2490E+03  0.2300E+03  0.2632E+03
  -0.320  0.4191E+03  0.3742E+03  0.2707E+03
  -0.310  0.5146E+03  0.4820E+03  0.2796E+03
  -0.300  0.4059E+03  0.4520E+03  0.2895E+03
  -0.290  0.4779E+03  0.5263E+03  0.2991E+03
  -0.280  0.4312E+03  0.4133E+03  0.3084E+03
  -0.270  0.3991E+03  0.4309E+03  0.3174E+03
  -0.260  0.2618E+03  0.2389E+03  0.3230E+03
  -0.250  0.4633E+03  0.3072E+03  0.3284E+03
  -0.240  0.3000E+03  0.2719E+03  0.3357E+03
  -0.230  0.2912E+03  0.2459E+03  0.3409E+03
  -0.220  0.1861E+03  0.2001E+03  0.3458E+03
  -0.210  0.8336E+02  0.8432E+02  0.3485E+03
  -0.200  0.7789E+02  0.6941E+02  0.3500E+03
  -0.190  0.8861E+02  0.9244E+02  0.3517E+03
  -0.180  0.7169E+02  0.7026E+02  0.3533E+03
  -0.170  0.7402E+02  0.7020E+02  0.3548E+03
  -0.160  0.5851E+02  0.6424E+02  0.3561E+03
  -0.150  0.4886E+02  0.5365E+02  0.3572E+03
  -0.140  0.9583E+02  0.5922E+02  0.3583E+03
  -0.130  0.5865E+02  0.5147E+02  0.3598E+03
  -0.120  0.9143E+02  0.8760E+02  0.3613E+03
  -0.110  0.5079E+02  0.5006E+02  0.3627E+03
  -0.100  0.5757E+02  0.5633E+02  0.3638E+03
  -0.090  0.5328E+02  0.6137E+02  0.3649E+03
  -0.080  0.7379E+02  0.7506E+02  0.3662E+03
  -0.070  0.7721E+02  0.7798E+02  0.3677E+03
  -0.060  0.7646E+02  0.7859E+02  0.3693E+03
  -0.050  0.6429E+02  0.7180E+02  0.3708E+03
  -0.040  0.5365E+02  0.4882E+02  0.3720E+03
  -0.030  0.4968E+02  0.5332E+02  0.3730E+03
  -0.020  0.5884E+02  0.5541E+02  0.3740E+03
  -0.010  0.7991E+02  0.7237E+02  0.3753E+03
   0.000  0.7259E+02  0.7814E+02  0.3770E+03
   0.010  0.4682E+02  0.5345E+02  0.3782E+03
   0.020  0.2657E+02  0.3068E+02  0.3790E+03
   0.030  0.1639E+02  0.1810E+02  0.3794E+03
   0.040  0.2005E+02  0.1537E+02  0.3797E+03
   0.050  0.4527E+01  0.5265E+01  0.3799E+03
   0.060  0.1410E+01  0.1807E+01  0.3800E+03
   0.070  0.7855E-01  0.1693E+00  0.3800E+03
   0.080  0.0000E+00  0.0000E+00  0.3800E+03
   0.090  0.0000E+00  0.0000E+00  0.3800E+03
   0.100  0.0000E+00  0.0000E+00  0.3800E+03
   0.110  0.0000E+00  0.0000E+00  0.3800E+03
   0.120  0.0000E+00  0.0000E+00  0.3800E+03
   0.130  0.0000E+00  0.0000E+00  0.3800E+03
   0.140  0.0000E+00  0.0000E+00  0.3800E+03
   0.150  0.0000E+00  0.0000E+00  0.3800E+03
   0.160  0.0000E+00  0.0000E+00  0.3800E+03
   0.170  0.0000E+00  0.0000E+00  0.3800E+03
   0.180  0.0000E+00  0.0000E+00  0.3800E+03
   0.190  0.0000E+00  0.0000E+00  0.3800E+03
   0.200  0.0000E+00  0.0000E+00  0.3800E+03
   0.210  0.0000E+00  0.0000E+00  0.3800E+03
   0.220  0.0000E+00  0.0000E+00  0.3800E+03
   0.230  0.0000E+00  0.0000E+00  0.3800E+03
   0.240  0.0000E+00  0.0000E+00  0.3800E+03
   0.250  0.0000E+00  0.0000E+00  0.3800E+03
   0.260  0.0000E+00  0.0000E+00  0.3800E+03
   0.270  0.0000E+00  0.0000E+00  0.3800E+03
   0.280  0.0000E+00  0.0000E+00  0.3800E+03
   0.290  0.0000E+00  0.0000E+00  0.3800E+03
   0.300  0.0000E+00  0.0000E+00  0.3800E+03
   0.310  0.0000E+00  0.0000E+00  0.3800E+03
   0.320  0.0000E+00  0.0000E+00  0.3800E+03
   0.330  0.2396E-02  0.0000E+00  0.3800E+03
   0.340  0.1682E-01  0.6911E-03  0.3800E+03
   0.350  0.4954E-01  0.1186E-01  0.3800E+03
   0.360  0.1015E+00  0.4140E-01  0.3800E+03
   0.370  0.1733E+00  0.9007E-01  0.3800E+03
   0.380  0.2662E+00  0.1579E+00  0.3800E+03
   0.390  0.3804E+00  0.2459E+00  0.3800E+03
   0.400  0.5160E+00  0.3551E+00  0.3800E+03
   0.410  0.6729E+00  0.4855E+00  0.3800E+03
   0.420  0.8513E+00  0.6370E+00  0.3800E+03
   0.430  0.1052E+01  0.8097E+00  0.3801E+03
   0.440  0.1445E+01  0.1004E+01  0.3801E+03
   0.450  0.2052E+01  0.1300E+01  0.3801E+03
   0.460  0.3044E+01  0.1904E+01  0.3802E+03
   0.470  0.4136E+01  0.2873E+01  0.3802E+03
   0.480  0.5092E+01  0.3884E+01  0.3803E+03
   0.490  0.5315E+01  0.4806E+01  0.3804E+03
   0.500  0.5145E+01  0.5176E+01  0.3805E+03
   0.510  0.5033E+01  0.5029E+01  0.3806E+03
   0.520  0.5060E+01  0.4991E+01  0.3807E+03
   0.530  0.5525E+01  0.4863E+01  0.3808E+03
   0.540  0.6023E+01  0.5218E+01  0.3809E+03
   0.550  0.6556E+01  0.5687E+01  0.3810E+03
   0.560  0.7123E+01  0.6170E+01  0.3811E+03
   0.570  0.7724E+01  0.6692E+01  0.3813E+03
   0.580  0.8348E+01  0.7247E+01  0.3814E+03
   0.590  0.9023E+01  0.7836E+01  0.3816E+03
   0.600  0.1048E+02  0.8434E+01  0.3818E+03
   0.610  0.1255E+02  0.9230E+01  0.3820E+03
   0.620  0.1654E+02  0.1078E+02  0.3822E+03
   0.630  0.1695E+02  0.1292E+02  0.3825E+03
   0.640  0.1629E+02  0.1785E+02  0.3828E+03
   0.650  0.1425E+02  0.1673E+02  0.3832E+03
   0.660  0.1153E+02  0.1560E+02  0.3834E+03
   0.670  0.1227E+02  0.1378E+02  0.3837E+03
   0.680  0.1350E+02  0.1195E+02  0.3840E+03
   0.690  0.1431E+02  0.1236E+02  0.3842E+03
   0.700  0.1775E+02  0.1344E+02  0.3845E+03
   0.710  0.1711E+02  0.1535E+02  0.3848E+03
   0.720  0.1211E+02  0.1748E+02  0.3852E+03
   0.730  0.1203E+02  0.1512E+02  0.3855E+03
   0.740  0.1170E+02  0.1172E+02  0.3857E+03
   0.750  0.1165E+02  0.1166E+02  0.3860E+03
   0.760  0.1177E+02  0.1147E+02  0.3862E+03
   0.770  0.1206E+02  0.1149E+02  0.3864E+03
   0.780  0.1237E+02  0.1165E+02  0.3867E+03
   0.790  0.1248E+02  0.1191E+02  0.3869E+03
   0.800  0.1253E+02  0.1217E+02  0.3871E+03
   0.810  0.1261E+02  0.1227E+02  0.3874E+03
   0.820  0.1297E+02  0.1258E+02  0.3876E+03
   0.830  0.1461E+02  0.1330E+02  0.3879E+03
   0.840  0.1492E+02  0.1450E+02  0.3882E+03
   0.850  0.1646E+02  0.1487E+02  0.3885E+03
   0.860  0.2120E+02  0.1553E+02  0.3888E+03
   0.870  0.2955E+02  0.1713E+02  0.3893E+03
   0.880  0.2317E+02  0.2124E+02  0.3897E+03
   0.890  0.2187E+02  0.3154E+02  0.3902E+03
   0.900  0.2112E+02  0.2368E+02  0.3907E+03
   0.910  0.2408E+02  0.2072E+02  0.3911E+03
   0.920  0.2429E+02  0.2165E+02  0.3916E+03
   0.930  0.2510E+02  0.2547E+02  0.3921E+03
   0.940  0.3385E+02  0.2496E+02  0.3926E+03
   0.950  0.4607E+02  0.2948E+02  0.3933E+03
   0.960  0.5462E+02  0.4256E+02  0.3942E+03
   0.970  0.5844E+02  0.4538E+02  0.3951E+03
   0.980  0.4520E+02  0.5862E+02  0.3962E+03
   0.990  0.4191E+02  0.6069E+02  0.3973E+03
   1.000  0.4914E+02  0.4800E+02  0.3982E+03
   1.010  0.4803E+02  0.5861E+02  0.3993E+03
   1.020  0.5193E+02  0.3764E+02  0.4002E+03
   1.030  0.5149E+02  0.2950E+02  0.4010E+03
   1.040  0.5034E+02  0.5240E+02  0.4020E+03
   1.050  0.3465E+02  0.4725E+02  0.4029E+03
   1.060  0.9680E+01  0.4062E+02  0.4036E+03
   1.070  0.1218E+02  0.3134E+02  0.4040E+03
   1.080  0.2317E+02  0.1385E+02  0.4044E+03
   1.090  0.3319E+02  0.1665E+02  0.4048E+03
   1.100  0.2624E+02  0.2419E+02  0.4053E+03
   1.110  0.2543E+02  0.3061E+02  0.4059E+03
   1.120  0.2733E+02  0.2993E+02  0.4064E+03
   1.130  0.3095E+02  0.2419E+02  0.4070E+03
   1.140  0.2939E+02  0.2447E+02  0.4075E+03
   1.150  0.2669E+02  0.2399E+02  0.4081E+03
   1.160  0.2434E+02  0.2329E+02  0.4086E+03
   1.170  0.2219E+02  0.2263E+02  0.4090E+03
   1.180  0.2138E+02  0.2150E+02  0.4095E+03
   1.190  0.1941E+02  0.2050E+02  0.4099E+03
   1.200  0.1595E+02  0.2003E+02  0.4103E+03
   1.210  0.1538E+02  0.2045E+02  0.4106E+03
   1.220  0.1590E+02  0.1935E+02  0.4110E+03
   1.230  0.1690E+02  0.1761E+02  0.4113E+03
   1.240  0.1622E+02  0.1778E+02  0.4117E+03
   1.250  0.1540E+02  0.1668E+02  0.4120E+03
   1.260  0.1746E+02  0.1525E+02  0.4123E+03
   1.270  0.1942E+02  0.1439E+02  0.4127E+03
   1.280  0.2204E+02  0.1389E+02  0.4130E+03
   1.290  0.2558E+02  0.1672E+02  0.4134E+03
   1.300  0.2599E+02  0.2260E+02  0.4138E+03
   1.310  0.1868E+02  0.2425E+02  0.4143E+03
   1.320  0.1699E+02  0.2465E+02  0.4147E+03
   1.330  0.1568E+02  0.2797E+02  0.4152E+03
   1.340  0.1924E+02  0.1954E+02  0.4156E+03
   1.350  0.1956E+02  0.1798E+02  0.4159E+03
   1.360  0.1978E+02  0.1316E+02  0.4163E+03
   1.370  0.1728E+02  0.1548E+02  0.4166E+03
   1.380  0.1476E+02  0.1723E+02  0.4170E+03
   1.390  0.1380E+02  0.1698E+02  0.4173E+03
   1.400  0.1354E+02  0.1501E+02  0.4176E+03
   1.410  0.1367E+02  0.1252E+02  0.4178E+03
   1.420  0.1409E+02  0.1134E+02  0.4181E+03
   1.430  0.1305E+02  0.1088E+02  0.4183E+03
   1.440  0.1299E+02  0.1093E+02  0.4186E+03
   1.450  0.1238E+02  0.1124E+02  0.4188E+03
   1.460  0.1156E+02  0.1175E+02  0.4191E+03
   1.470  0.1057E+02  0.1221E+02  0.4193E+03
   1.480  0.9176E+01  0.1249E+02  0.4195E+03
   1.490  0.1093E+02  0.1254E+02  0.4197E+03
   1.500  0.1245E+02  0.1229E+02  0.4200E+03
   1.510  0.1316E+02  0.1171E+02  0.4202E+03
   1.520  0.1357E+02  0.1115E+02  0.4205E+03
   1.530  0.1328E+02  0.1278E+02  0.4207E+03
   1.540  0.1250E+02  0.1338E+02  0.4210E+03
   1.550  0.1180E+02  0.1331E+02  0.4212E+03
   1.560  0.1121E+02  0.1297E+02  0.4215E+03
   1.570  0.1062E+02  0.1309E+02  0.4217E+03
   1.580  0.9920E+01  0.1295E+02  0.4220E+03
   1.590  0.9126E+01  0.1222E+02  0.4222E+03
   1.600  0.8345E+01  0.1117E+02  0.4224E+03
   1.610  0.7914E+01  0.9994E+01  0.4226E+03
   1.620  0.8178E+01  0.8827E+01  0.4227E+03
   1.630  0.8616E+01  0.7846E+01  0.4229E+03
   1.640  0.9096E+01  0.7512E+01  0.4231E+03
   1.650  0.9542E+01  0.7899E+01  0.4232E+03
   1.660  0.9869E+01  0.8526E+01  0.4234E+03
   1.670  0.9933E+01  0.9006E+01  0.4236E+03
   1.680  0.9647E+01  0.9563E+01  0.4238E+03
   1.690  0.9007E+01  0.9902E+01  0.4240E+03
   1.700  0.8679E+01  0.9694E+01  0.4242E+03
   1.710  0.8793E+01  0.9336E+01  0.4244E+03
   1.720  0.8710E+01  0.8883E+01  0.4245E+03
   1.730  0.8384E+01  0.8275E+01  0.4247E+03
   1.740  0.8151E+01  0.7935E+01  0.4249E+03
   1.750  0.8082E+01  0.7926E+01  0.4250E+03
   1.760  0.8162E+01  0.7809E+01  0.4252E+03
   1.770  0.8425E+01  0.7523E+01  0.4254E+03
   1.780  0.9068E+01  0.7277E+01  0.4255E+03
   1.790  0.1206E+02  0.7091E+01  0.4257E+03
   1.800  0.1335E+02  0.6963E+01  0.4259E+03
   1.810  0.1625E+02  0.6870E+01  0.4261E+03
   1.820  0.1930E+02  0.6872E+01  0.4264E+03
   1.830  0.1053E+02  0.7332E+01  0.4266E+03
   1.840  0.1006E+02  0.8429E+01  0.4268E+03
   1.850  0.1013E+02  0.9455E+01  0.4270E+03
   1.860  0.9756E+01  0.1025E+02  0.4272E+03
   1.870  0.9502E+01  0.1001E+02  0.4274E+03
   1.880  0.9308E+01  0.1013E+02  0.4275E+03
   1.890  0.9066E+01  0.1013E+02  0.4277E+03
   1.900  0.8536E+01  0.9769E+01  0.4279E+03
   1.910  0.8143E+01  0.9306E+01  0.4281E+03
   1.920  0.7931E+01  0.9395E+01  0.4283E+03
   1.930  0.8024E+01  0.8514E+01  0.4285E+03
   1.940  0.8410E+01  0.7776E+01  0.4286E+03
   1.950  0.9055E+01  0.7399E+01  0.4288E+03
   1.960  0.9679E+01  0.7316E+01  0.4289E+03
   1.970  0.1023E+02  0.7318E+01  0.4291E+03
   1.980  0.1052E+02  0.7354E+01  0.4293E+03
   1.990  0.1061E+02  0.7342E+01  0.4295E+03
   2.000  0.1140E+02  0.7397E+01  0.4297E+03
   2.010  0.7454E+01  0.7478E+01  0.4298E+03
   2.020  0.7325E+01  0.7866E+01  0.4300E+03
   2.030  0.7029E+01  0.8203E+01  0.4301E+03
   2.040  0.6695E+01  0.8506E+01  0.4303E+03
   2.050  0.6419E+01  0.8792E+01  0.4304E+03
   2.060  0.6253E+01  0.9080E+01  0.4306E+03
   2.070  0.6002E+01  0.9115E+01  0.4307E+03
   2.080  0.9291E+01  0.9433E+01  0.4309E+03
   2.090  0.1335E+02  0.8864E+01  0.4311E+03
   2.100  0.1324E+02  0.7708E+01  0.4313E+03
   2.110  0.1283E+02  0.7190E+01  0.4315E+03
   2.120  0.1056E+02  0.6839E+01  0.4317E+03
   2.130  0.8205E+01  0.6627E+01  0.4319E+03
   2.140  0.7755E+01  0.6559E+01  0.4320E+03
   2.150  0.8156E+01  0.5983E+01  0.4322E+03
   2.160  0.8130E+01  0.6314E+01  0.4323E+03
   2.170  0.8267E+01  0.6437E+01  0.4325E+03
   2.180  0.8074E+01  0.6436E+01  0.4326E+03
   2.190  0.8308E+01  0.6618E+01  0.4328E+03
   2.200  0.8017E+01  0.6915E+01  0.4329E+03
   2.210  0.7643E+01  0.7226E+01  0.4331E+03
   2.220  0.7291E+01  0.7510E+01  0.4332E+03
   2.230  0.7025E+01  0.7746E+01  0.4334E+03
   2.240  0.6842E+01  0.7942E+01  0.4335E+03
   2.250  0.6701E+01  0.8059E+01  0.4336E+03
   2.260  0.6376E+01  0.8100E+01  0.4338E+03
   2.270  0.5864E+01  0.8057E+01  0.4339E+03
   2.280  0.5201E+01  0.7940E+01  0.4341E+03
   2.290  0.4970E+01  0.7778E+01  0.4342E+03
   2.300  0.5062E+01  0.7710E+01  0.4343E+03
   2.310  0.5429E+01  0.7713E+01  0.4345E+03
   2.320  0.6141E+01  0.7684E+01  0.4346E+03
   2.330  0.6857E+01  0.7640E+01  0.4347E+03
   2.340  0.8108E+01  0.7609E+01  0.4349E+03
   2.350  0.9407E+01  0.7544E+01  0.4350E+03
   2.360  0.1005E+02  0.7390E+01  0.4352E+03
   2.370  0.1008E+02  0.7074E+01  0.4354E+03
   2.380  0.1087E+02  0.6753E+01  0.4356E+03
   2.390  0.1257E+02  0.6429E+01  0.4358E+03
   2.400  0.1431E+02  0.6081E+01  0.4360E+03
   2.410  0.1391E+02  0.5870E+01  0.4362E+03
   2.420  0.1649E+02  0.6267E+01  0.4364E+03
   2.430  0.1806E+02  0.6507E+01  0.4366E+03
   2.440  0.1926E+02  0.6719E+01  0.4369E+03
   2.450  0.1982E+02  0.7478E+01  0.4371E+03
   2.460  0.1958E+02  0.8456E+01  0.4374E+03
   2.470  0.1735E+02  0.9250E+01  0.4377E+03
   2.480  0.1449E+02  0.1002E+02  0.4379E+03
   2.490  0.1315E+02  0.1076E+02  0.4382E+03
   2.500  0.1481E+02  0.1148E+02  0.4384E+03
   2.510  0.1678E+02  0.1208E+02  0.4387E+03
   2.520  0.1895E+02  0.1265E+02  0.4390E+03
   2.530  0.1877E+02  0.1312E+02  0.4393E+03
   2.540  0.1859E+02  0.1343E+02  0.4396E+03
   2.550  0.1798E+02  0.1371E+02  0.4400E+03
   2.560  0.1766E+02  0.1393E+02  0.4403E+03
   2.570  0.1573E+02  0.1412E+02  0.4406E+03
   2.580  0.1753E+02  0.1470E+02  0.4409E+03
   2.590  0.1844E+02  0.1547E+02  0.4412E+03
   2.600  0.1834E+02  0.2654E+02  0.4416E+03
   2.610  0.1811E+02  0.1990E+02  0.4420E+03
   2.620  0.1742E+02  0.2232E+02  0.4424E+03
   2.630  0.1665E+02  0.2435E+02  0.4428E+03
   2.640  0.1690E+02  0.2524E+02  0.4432E+03
   2.650  0.1867E+02  0.2705E+02  0.4436E+03
   2.660  0.2305E+02  0.3202E+02  0.4441E+03
   2.670  0.2716E+02  0.3219E+02  0.4447E+03
   2.680  0.2769E+02  0.3612E+02  0.4453E+03
   2.690  0.2801E+02  0.3004E+02  0.4459E+03
   2.700  0.2364E+02  0.2355E+02  0.4464E+03
   2.710  0.2176E+02  0.1947E+02  0.4469E+03
   2.720  0.2123E+02  0.2131E+02  0.4473E+03
   2.730  0.2163E+02  0.1985E+02  0.4477E+03
   2.740  0.2231E+02  0.1905E+02  0.4481E+03
   2.750  0.2300E+02  0.1987E+02  0.4485E+03
   2.760  0.2443E+02  0.2274E+02  0.4490E+03
   2.770  0.2365E+02  0.2541E+02  0.4495E+03
   2.780  0.2773E+02  0.2913E+02  0.4500E+03
   2.790  0.3369E+02  0.2850E+02  0.4506E+03
   2.800  0.2845E+02  0.2494E+02  0.4512E+03
   2.810  0.2877E+02  0.2255E+02  0.4517E+03
   2.820  0.2703E+02  0.2305E+02  0.4522E+03
   2.830  0.2309E+02  0.1808E+02  0.4526E+03
   2.840  0.2082E+02  0.1652E+02  0.4530E+03
   2.850  0.2067E+02  0.1720E+02  0.4534E+03
   2.860  0.1937E+02  0.1775E+02  0.4538E+03
   2.870  0.2069E+02  0.1842E+02  0.4542E+03
   2.880  0.1918E+02  0.2340E+02  0.4546E+03
   2.890  0.1756E+02  0.2336E+02  0.4550E+03
   2.900  0.1671E+02  0.2254E+02  0.4554E+03
   2.910  0.1724E+02  0.2189E+02  0.4558E+03
   2.920  0.1887E+02  0.2123E+02  0.4562E+03
   2.930  0.1942E+02  0.2055E+02  0.4566E+03
   2.940  0.2182E+02  0.2062E+02  0.4570E+03
   2.950  0.2251E+02  0.2288E+02  0.4574E+03
   2.960  0.2100E+02  0.2505E+02  0.4579E+03
   2.970  0.2053E+02  0.2538E+02  0.4584E+03
   2.980  0.2186E+02  0.2500E+02  0.4588E+03
   2.990  0.2545E+02  0.2451E+02  0.4593E+03
   3.000  0.2545E+02  0.2545E+02  0.4598E+03
   3.010  0.2463E+02  0.2785E+02  0.4603E+03
   3.020  0.2388E+02  0.2887E+02  0.4608E+03
   3.030  0.2468E+02  0.2721E+02  0.4614E+03
   3.040  0.2769E+02  0.2467E+02  0.4619E+03
   3.050  0.2696E+02  0.2195E+02  0.4624E+03
   3.060  0.2405E+02  0.2073E+02  0.4629E+03
   3.070  0.2324E+02  0.1961E+02  0.4633E+03
   3.080  0.2405E+02  0.2030E+02  0.4637E+03
   3.090  0.2387E+02  0.2145E+02  0.4642E+03
   3.100  0.2486E+02  0.2242E+02  0.4647E+03
   3.110  0.2431E+02  0.2212E+02  0.4651E+03
   3.120  0.2565E+02  0.1994E+02  0.4656E+03
   3.130  0.2758E+02  0.1839E+02  0.4660E+03
   3.140  0.3054E+02  0.1726E+02  0.4665E+03
   3.150  0.2670E+02  0.1579E+02  0.4670E+03
   3.160  0.2461E+02  0.1475E+02  0.4674E+03
   3.170  0.2407E+02  0.1522E+02  0.4678E+03
   3.180  0.2514E+02  0.2303E+02  0.4682E+03
   3.190  0.2689E+02  0.2065E+02  0.4687E+03
   3.200  0.3484E+02  0.2225E+02  0.4692E+03
   3.210  0.4483E+02  0.2611E+02  0.4698E+03
   3.220  0.2817E+02  0.2663E+02  0.4704E+03
   3.230  0.2381E+02  0.2931E+02  0.4710E+03
   3.240  0.2175E+02  0.2918E+02  0.4715E+03
   3.250  0.2233E+02  0.2807E+02  0.4720E+03
   3.260  0.2208E+02  0.2795E+02  0.4725E+03
   3.270  0.2246E+02  0.2810E+02  0.4730E+03
   3.280  0.2335E+02  0.2846E+02  0.4735E+03
   3.290  0.2375E+02  0.3116E+02  0.4740E+03
   3.300  0.2498E+02  0.2944E+02  0.4746E+03
   3.310  0.2663E+02  0.3119E+02  0.4752E+03
   3.320  0.2636E+02  0.2935E+02  0.4757E+03
   3.330  0.2634E+02  0.2922E+02  0.4763E+03
   3.340  0.2742E+02  0.2949E+02  0.4768E+03
   3.350  0.2790E+02  0.2982E+02  0.4774E+03
   3.360  0.2812E+02  0.3017E+02  0.4780E+03
   3.370  0.2786E+02  0.3062E+02  0.4786E+03
   3.380  0.2760E+02  0.3056E+02  0.4792E+03
   3.390  0.2820E+02  0.3081E+02  0.4798E+03
   3.400  0.2865E+02  0.3055E+02  0.4803E+03
   3.410  0.2746E+02  0.3094E+02  0.4809E+03
   3.420  0.2859E+02  0.2994E+02  0.4815E+03
   3.430  0.3024E+02  0.2966E+02  0.4821E+03
   3.440  0.3175E+02  0.2970E+02  0.4827E+03
   3.450  0.3257E+02  0.2925E+02  0.4833E+03
   3.460  0.3104E+02  0.2888E+02  0.4839E+03
   3.470  0.3104E+02  0.2875E+02  0.4845E+03
   3.480  0.3188E+02  0.2824E+02  0.4851E+03
   3.490  0.3264E+02  0.2866E+02  0.4857E+03
   3.500  0.3329E+02  0.2911E+02  0.4864E+03
   3.510  0.3316E+02  0.2852E+02  0.4870E+03
   3.520  0.3239E+02  0.2748E+02  0.4876E+03
   3.530  0.3227E+02  0.2743E+02  0.4882E+03
   3.540  0.3223E+02  0.2795E+02  0.4888E+03
   3.550  0.3043E+02  0.2914E+02  0.4894E+03
   3.560  0.3065E+02  0.3034E+02  0.4900E+03
   3.570  0.2987E+02  0.2982E+02  0.4906E+03
   3.580  0.2971E+02  0.3392E+02  0.4912E+03
   3.590  0.2850E+02  0.3027E+02  0.4918E+03
   3.600  0.2647E+02  0.2766E+02  0.4924E+03
   3.610  0.2514E+02  0.2851E+02  0.4929E+03
   3.620  0.2333E+02  0.2815E+02  0.4935E+03
   3.630  0.2318E+02  0.2528E+02  0.4940E+03
   3.640  0.2305E+02  0.2533E+02  0.4944E+03
   3.650  0.2423E+02  0.2746E+02  0.4949E+03
   3.660  0.2788E+02  0.2951E+02  0.4955E+03
   3.670  0.3026E+02  0.3284E+02  0.4961E+03
   3.680  0.3181E+02  0.3420E+02  0.4967E+03
   3.690  0.3222E+02  0.3576E+02  0.4974E+03
   3.700  0.3054E+02  0.3677E+02  0.4981E+03
   3.710  0.3195E+02  0.3248E+02  0.4987E+03
   3.720  0.3092E+02  0.3622E+02  0.4994E+03
   3.730  0.2651E+02  0.3247E+02  0.5000E+03
   3.740  0.3787E+02  0.2835E+02  0.5006E+03
   3.750  0.4244E+02  0.3487E+02  0.5014E+03
   3.760  0.3896E+02  0.3453E+02  0.5022E+03
   3.770  0.3534E+02  0.3501E+02  0.5029E+03
   3.780  0.3759E+02  0.3305E+02  0.5036E+03
   3.790  0.3732E+02  0.3435E+02  0.5043E+03
   3.800  0.4107E+02  0.2910E+02  0.5050E+03
   3.810  0.3586E+02  0.2937E+02  0.5057E+03
   3.820  0.3287E+02  0.2981E+02  0.5063E+03
   3.830  0.3074E+02  0.2611E+02  0.5069E+03
   3.840  0.2861E+02  0.2480E+02  0.5075E+03
   3.850  0.2913E+02  0.2346E+02  0.5080E+03
   3.860  0.3246E+02  0.2439E+02  0.5085E+03
   3.870  0.2599E+02  0.2545E+02  0.5091E+03
   3.880  0.2541E+02  0.2599E+02  0.5096E+03
   3.890  0.3014E+02  0.2678E+02  0.5101E+03
   3.900  0.2329E+02  0.2627E+02  0.5107E+03
   3.910  0.2289E+02  0.2542E+02  0.5112E+03
   3.920  0.2628E+02  0.2576E+02  0.5117E+03
   3.930  0.2776E+02  0.2718E+02  0.5122E+03
   3.940  0.2483E+02  0.2630E+02  0.5128E+03
   3.950  0.2341E+02  0.2563E+02  0.5132E+03
   3.960  0.2497E+02  0.2748E+02  0.5138E+03
   3.970  0.2937E+02  0.2850E+02  0.5143E+03
   3.980  0.3030E+02  0.3017E+02  0.5149E+03
   3.990  0.2910E+02  0.3136E+02  0.5155E+03
   4.000  0.2998E+02  0.2927E+02  0.5161E+03
   4.010  0.2948E+02  0.2941E+02  0.5167E+03
   4.020  0.2708E+02  0.3029E+02  0.5173E+03
   4.030  0.2768E+02  0.3051E+02  0.5179E+03
   4.040  0.2795E+02  0.3040E+02  0.5184E+03
   4.050  0.2658E+02  0.2976E+02  0.5190E+03
   4.060  0.2704E+02  0.2917E+02  0.5196E+03
   4.070  0.2757E+02  0.2837E+02  0.5201E+03
   4.080  0.2788E+02  0.2767E+02  0.5207E+03
   4.090  0.2742E+02  0.2762E+02  0.5213E+03
   4.100  0.2757E+02  0.2775E+02  0.5218E+03
   4.110  0.2792E+02  0.2787E+02  0.5224E+03
   4.120  0.2885E+02  0.2816E+02  0.5229E+03
   4.130  0.2904E+02  0.2836E+02  0.5235E+03
   4.140  0.2915E+02  0.2788E+02  0.5241E+03
   4.150  0.3107E+02  0.2788E+02  0.5246E+03
   4.160  0.3229E+02  0.3146E+02  0.5253E+03
   4.170  0.3213E+02  0.3195E+02  0.5259E+03
   4.180  0.3129E+02  0.3287E+02  0.5265E+03
   4.190  0.3127E+02  0.3517E+02  0.5272E+03
   4.200  0.3168E+02  0.3251E+02  0.5279E+03
   4.210  0.3176E+02  0.3021E+02  0.5285E+03
   4.220  0.3395E+02  0.3255E+02  0.5291E+03
   4.230  0.3471E+02  0.3308E+02  0.5298E+03
   4.240  0.3128E+02  0.3183E+02  0.5305E+03
   4.250  0.3116E+02  0.3137E+02  0.5311E+03
   4.260  0.3202E+02  0.3283E+02  0.5317E+03
   4.270  0.2959E+02  0.3336E+02  0.5324E+03
   4.280  0.2622E+02  0.3011E+02  0.5330E+03
   4.290  0.2622E+02  0.2691E+02  0.5335E+03
   4.300  0.2771E+02  0.2727E+02  0.5340E+03
   4.310  0.2790E+02  0.2770E+02  0.5346E+03
   4.320  0.2902E+02  0.2635E+02  0.5351E+03
   4.330  0.3289E+02  0.2504E+02  0.5357E+03
   4.340  0.3153E+02  0.2526E+02  0.5363E+03
   4.350  0.3113E+02  0.2655E+02  0.5368E+03
   4.360  0.3636E+02  0.2498E+02  0.5374E+03
   4.370  0.2657E+02  0.2425E+02  0.5380E+03
   4.380  0.2205E+02  0.2497E+02  0.5385E+03
   4.390  0.2291E+02  0.2441E+02  0.5390E+03
   4.400  0.2211E+02  0.2393E+02  0.5394E+03
   4.410  0.1986E+02  0.2393E+02  0.5399E+03
   4.420  0.2387E+02  0.2457E+02  0.5403E+03
   4.430  0.2350E+02  0.2424E+02  0.5408E+03
   4.440  0.2336E+02  0.2727E+02  0.5413E+03
   4.450  0.2349E+02  0.2725E+02  0.5418E+03
   4.460  0.2570E+02  0.2606E+02  0.5423E+03
   4.470  0.2500E+02  0.2505E+02  0.5428E+03
   4.480  0.2446E+02  0.2503E+02  0.5433E+03
   4.490  0.2491E+02  0.2695E+02  0.5438E+03
   4.500  0.2594E+02  0.2592E+02  0.5444E+03
   4.510  0.2642E+02  0.2595E+02  0.5449E+03
   4.520  0.2591E+02  0.2680E+02  0.5454E+03
   4.530  0.2671E+02  0.2673E+02  0.5459E+03
   4.540  0.2719E+02  0.2792E+02  0.5465E+03
   4.550  0.2818E+02  0.2929E+02  0.5470E+03
   4.560  0.2916E+02  0.3122E+02  0.5476E+03
   4.570  0.3065E+02  0.3415E+02  0.5482E+03
   4.580  0.3249E+02  0.3268E+02  0.5489E+03
   4.590  0.3339E+02  0.2867E+02  0.5495E+03
   4.600  0.3179E+02  0.2762E+02  0.5502E+03
   4.610  0.2965E+02  0.2518E+02  0.5507E+03
   4.620  0.2294E+02  0.2484E+02  0.5512E+03
   4.630  0.2511E+02  0.3034E+02  0.5517E+03
   4.640  0.2708E+02  0.2978E+02  0.5523E+03
   4.650  0.3013E+02  0.2595E+02  0.5528E+03
   4.660  0.3117E+02  0.2341E+02  0.5534E+03
   4.670  0.2598E+02  0.2168E+02  0.5539E+03
   4.680  0.2127E+02  0.2258E+02  0.5544E+03
   4.690  0.2415E+02  0.2073E+02  0.5548E+03
   4.700  0.2028E+02  0.1991E+02  0.5552E+03
   4.710  0.2172E+02  0.1900E+02  0.5556E+03
   4.720  0.2200E+02  0.1801E+02  0.5560E+03
   4.730  0.2123E+02  0.1725E+02  0.5564E+03
   4.740  0.2070E+02  0.1678E+02  0.5568E+03
   4.750  0.1990E+02  0.1645E+02  0.5572E+03
   4.760  0.1897E+02  0.1622E+02  0.5575E+03
   4.770  0.1813E+02  0.1646E+02  0.5579E+03
   4.780  0.1755E+02  0.1701E+02  0.5582E+03
   4.790  0.1684E+02  0.1485E+02  0.5586E+03
   4.800  0.1648E+02  0.1446E+02  0.5589E+03
   4.810  0.1612E+02  0.1424E+02  0.5592E+03
   4.820  0.1534E+02  0.1796E+02  0.5595E+03
   4.830  0.1430E+02  0.1363E+02  0.5598E+03
   4.840  0.1401E+02  0.1429E+02  0.5601E+03
   4.850  0.1616E+02  0.1498E+02  0.5604E+03
   4.860  0.1581E+02  0.1516E+02  0.5607E+03
   4.870  0.1674E+02  0.1551E+02  0.5610E+03
   4.880  0.1784E+02  0.1636E+02  0.5613E+03
   4.890  0.1786E+02  0.1727E+02  0.5617E+03
   4.900  0.1924E+02  0.1784E+02  0.5620E+03
   4.910  0.1889E+02  0.1718E+02  0.5624E+03
   4.920  0.1747E+02  0.1876E+02  0.5628E+03
   4.930  0.1476E+02  0.1669E+02  0.5631E+03
   4.940  0.1338E+02  0.1349E+02  0.5634E+03
   4.950  0.1219E+02  0.1194E+02  0.5637E+03
   4.960  0.9703E+01  0.1080E+02  0.5639E+03
   4.970  0.8440E+01  0.9912E+01  0.5641E+03
   4.980  0.1099E+02  0.9334E+01  0.5643E+03
   4.990  0.1370E+02  0.8885E+01  0.5645E+03
   5.000  0.1528E+02  0.9024E+01  0.5647E+03
   5.010  0.2012E+02  0.9227E+01  0.5650E+03
   5.020  0.1851E+02  0.8342E+01  0.5653E+03
   5.030  0.1645E+02  0.7192E+01  0.5655E+03
   5.040  0.1101E+02  0.1619E+02  0.5657E+03
   5.050  0.1250E+02  0.7917E+01  0.5659E+03
   5.060  0.1410E+02  0.8392E+01  0.5662E+03
   5.070  0.1537E+02  0.8648E+01  0.5664E+03
   5.080  0.1581E+02  0.8681E+01  0.5666E+03
   5.090  0.1534E+02  0.8492E+01  0.5669E+03
   5.100  0.1169E+02  0.8080E+01  0.5671E+03
   5.110  0.9319E+01  0.7727E+01  0.5673E+03
   5.120  0.7232E+01  0.8134E+01  0.5675E+03
   5.130  0.6340E+01  0.8682E+01  0.5676E+03
   5.140  0.5563E+01  0.9178E+01  0.5678E+03
   5.150  0.4829E+01  0.9594E+01  0.5679E+03
   5.160  0.4176E+01  0.1003E+02  0.5680E+03
   5.170  0.4182E+01  0.1046E+02  0.5682E+03
   5.180  0.5324E+01  0.1062E+02  0.5683E+03
   5.190  0.9421E+01  0.9925E+01  0.5685E+03
   5.200  0.1031E+02  0.9097E+01  0.5687E+03
   5.210  0.1088E+02  0.8297E+01  0.5689E+03
   5.220  0.1100E+02  0.7681E+01  0.5691E+03
   5.230  0.1062E+02  0.7118E+01  0.5693E+03
   5.240  0.1018E+02  0.7270E+01  0.5695E+03
   5.250  0.1000E+02  0.7021E+01  0.5696E+03
   5.260  0.9382E+01  0.6250E+01  0.5698E+03
   5.270  0.1030E+02  0.5002E+01  0.5699E+03
   5.280  0.1185E+02  0.3586E+01  0.5701E+03
   5.290  0.1183E+02  0.2459E+01  0.5702E+03
   5.300  0.1141E+02  0.2432E+01  0.5704E+03
   5.310  0.1075E+02  0.2739E+01  0.5705E+03
   5.320  0.9905E+01  0.3213E+01  0.5707E+03
   5.330  0.8940E+01  0.3842E+01  0.5708E+03
   5.340  0.7700E+01  0.4600E+01  0.5709E+03
   5.350  0.6590E+01  0.5495E+01  0.5710E+03
   5.360  0.7758E+01  0.7392E+01  0.5712E+03
   5.370  0.4622E+01  0.9891E+01  0.5713E+03
   5.380  0.3747E+01  0.1151E+02  0.5715E+03
   5.390  0.3011E+01  0.1250E+02  0.5716E+03
   5.400  0.2433E+01  0.1214E+02  0.5718E+03
   5.410  0.1925E+01  0.9665E+01  0.5719E+03
   5.420  0.1498E+01  0.6226E+01  0.5720E+03
   5.430  0.1415E+01  0.2596E+01  0.5721E+03
   5.440  0.1809E+01  0.4027E-01  0.5721E+03
   5.450  0.2422E+01  0.0000E+00  0.5721E+03
   5.460  0.3194E+01  0.0000E+00  0.5721E+03
   5.470  0.4122E+01  0.0000E+00  0.5722E+03
   5.480  0.5215E+01  0.0000E+00  0.5722E+03
   5.490  0.6548E+01  0.0000E+00  0.5723E+03
   5.500  0.1278E+02  0.0000E+00  0.5724E+03
   5.510  0.1173E+02  0.0000E+00  0.5725E+03
   5.520  0.1157E+02  0.0000E+00  0.5726E+03
   5.530  0.1027E+02  0.0000E+00  0.5727E+03
   5.540  0.8052E+01  0.0000E+00  0.5728E+03
   5.550  0.6065E+01  0.0000E+00  0.5729E+03
   5.560  0.4333E+01  0.0000E+00  0.5729E+03
   5.570  0.2815E+01  0.0000E+00  0.5730E+03
   5.580  0.1810E+01  0.0000E+00  0.5730E+03
   5.590  0.2218E+00  0.0000E+00  0.5730E+03
   5.600  0.1511E-01  0.0000E+00  0.5730E+03
   5.610  0.0000E+00  0.0000E+00  0.5730E+03
   5.620  0.0000E+00  0.0000E+00  0.5730E+03
   5.630  0.0000E+00  0.0000E+00  0.5730E+03
   5.640  0.0000E+00  0.0000E+00  0.5730E+03
   5.650  0.0000E+00  0.0000E+00  0.5730E+03
   5.660  0.0000E+00  0.0000E+00  0.5730E+03
   5.670  0.0000E+00  0.0000E+00  0.5730E+03
   5.680  0.0000E+00  0.0000E+00  0.5730E+03
   5.690  0.0000E+00  0.0000E+00  0.5730E+03
   5.700  0.0000E+00  0.0000E+00  0.5730E+03
   5.710  0.0000E+00  0.0000E+00  0.5730E+03
   5.720  0.0000E+00  0.0000E+00  0.5730E+03
   5.730  0.0000E+00  0.0000E+00  0.5730E+03
   5.740  0.0000E+00  0.0000E+00  0.5730E+03
   5.750  0.0000E+00  0.0000E+00  0.5730E+03
   5.760  0.0000E+00  0.0000E+00  0.5730E+03
   5.770  0.0000E+00  0.0000E+00  0.5730E+03
   5.780  0.0000E+00  0.0000E+00  0.5730E+03
   5.790  0.0000E+00  0.0000E+00  0.5730E+03
   5.800  0.0000E+00  0.0000E+00  0.5730E+03
   5.810  0.0000E+00  0.0000E+00  0.5730E+03
   5.820  0.0000E+00  0.0000E+00  0.5730E+03
   5.830  0.0000E+00  0.0000E+00  0.5730E+03
   5.840  0.0000E+00  0.0000E+00  0.5730E+03
   5.850  0.0000E+00  0.0000E+00  0.5730E+03
   5.860  0.0000E+00  0.0000E+00  0.5730E+03
   5.870  0.0000E+00  0.0000E+00  0.5730E+03
   5.880  0.0000E+00  0.0000E+00  0.5730E+03
   5.890  0.0000E+00  0.0000E+00  0.5730E+03
   5.900  0.0000E+00  0.0000E+00  0.5730E+03
   5.910  0.0000E+00  0.0000E+00  0.5730E+03
   5.920  0.0000E+00  0.0000E+00  0.5730E+03
   5.930  0.0000E+00  0.0000E+00  0.5730E+03
   5.940  0.0000E+00  0.0000E+00  0.5730E+03
   5.950  0.0000E+00  0.0000E+00  0.5730E+03
   5.960  0.0000E+00  0.0000E+00  0.5730E+03
   5.970  0.0000E+00  0.0000E+00  0.5730E+03
   5.980  0.0000E+00  0.0000E+00  0.5730E+03
   5.990  0.0000E+00  0.0000E+00  0.5730E+03
   6.000  0.0000E+00  0.0000E+00  0.5730E+03
   6.010  0.0000E+00  0.0000E+00  0.5730E+03
   6.020  0.0000E+00  0.0000E+00  0.5730E+03
   6.030  0.0000E+00  0.0000E+00  0.5730E+03
   6.040  0.0000E+00  0.0000E+00  0.5730E+03
   6.050  0.0000E+00  0.0000E+00  0.5730E+03
   6.060  0.0000E+00  0.0000E+00  0.5730E+03
   6.070  0.0000E+00  0.0000E+00  0.5730E+03
   6.080  0.0000E+00  0.0000E+00  0.5730E+03
   6.090  0.0000E+00  0.0000E+00  0.5730E+03
   6.100  0.0000E+00  0.0000E+00  0.5730E+03
   6.110  0.0000E+00  0.0000E+00  0.5730E+03
   6.120  0.0000E+00  0.0000E+00  0.5730E+03
   6.130  0.0000E+00  0.0000E+00  0.5730E+03
   6.140  0.0000E+00  0.0000E+00  0.5730E+03
   6.150  0.0000E+00  0.0000E+00  0.5730E+03
   6.160  0.0000E+00  0.0000E+00  0.5730E+03
   6.170  0.0000E+00  0.0000E+00  0.5730E+03
   6.180  0.0000E+00  0.0000E+00  0.5730E+03
   6.190  0.0000E+00  0.0000E+00  0.5730E+03
   6.200  0.0000E+00  0.0000E+00  0.5730E+03
   6.210  0.0000E+00  0.0000E+00  0.5730E+03
   6.220  0.0000E+00  0.0000E+00  0.5730E+03
   6.230  0.0000E+00  0.0000E+00  0.5730E+03
   6.240  0.0000E+00  0.0000E+00  0.5730E+03
   6.250  0.0000E+00  0.0000E+00  0.5730E+03
   6.260  0.0000E+00  0.0000E+00  0.5730E+03
   6.270  0.0000E+00  0.1358E+03  0.5732E+03
   6.280  0.0000E+00  0.2957E+02  0.5741E+03
   6.290  0.0000E+00  0.5134E+02  0.5749E+03
   6.300  0.0000E+00  0.0000E+00  0.5750E+03
   6.310  0.0000E+00  0.0000E+00  0.5750E+03
   6.320  0.0000E+00  0.0000E+00  0.5750E+03
   6.330  0.0000E+00  0.0000E+00  0.5750E+03
   6.340  0.0000E+00  0.0000E+00  0.5750E+03
   6.350  0.0000E+00  0.0000E+00  0.5750E+03
   6.360  0.0000E+00  0.0000E+00  0.5750E+03
   6.370  0.0000E+00  0.0000E+00  0.5750E+03
   6.380  0.0000E+00  0.0000E+00  0.5750E+03
   6.390  0.0000E+00  0.0000E+00  0.5750E+03
   6.400  0.0000E+00  0.0000E+00  0.5750E+03
   6.410  0.0000E+00  0.0000E+00  0.5750E+03
   6.420  0.0000E+00  0.0000E+00  0.5750E+03
   6.430  0.0000E+00  0.0000E+00  0.5750E+03
   6.440  0.0000E+00  0.0000E+00  0.5750E+03
   6.450  0.0000E+00  0.0000E+00  0.5750E+03
   6.460  0.0000E+00  0.0000E+00  0.5750E+03
   6.470  0.0000E+00  0.0000E+00  0.5750E+03
   6.480  0.0000E+00  0.0000E+00  0.5750E+03
   6.490  0.0000E+00  0.0000E+00  0.5750E+03
   6.500  0.0000E+00  0.0000E+00  0.5750E+03
   6.510  0.0000E+00  0.0000E+00  0.5750E+03
   6.520  0.0000E+00  0.0000E+00  0.5750E+03
   6.530  0.0000E+00  0.0000E+00  0.5750E+03
   6.540  0.0000E+00  0.0000E+00  0.5750E+03
   6.550  0.0000E+00  0.0000E+00  0.5750E+03
   6.560  0.0000E+00  0.0000E+00  0.5750E+03
   6.570  0.0000E+00  0.0000E+00  0.5750E+03
   6.580  0.0000E+00  0.0000E+00  0.5750E+03
   6.590  0.0000E+00  0.0000E+00  0.5750E+03
   6.600  0.0000E+00  0.0000E+00  0.5750E+03
   6.610  0.0000E+00  0.0000E+00  0.5750E+03
   6.620  0.0000E+00  0.0000E+00  0.5750E+03
   6.630  0.0000E+00  0.0000E+00  0.5750E+03
   6.640  0.0000E+00  0.0000E+00  0.5750E+03
   6.650  0.0000E+00  0.0000E+00  0.5750E+03
   6.660  0.0000E+00  0.0000E+00  0.5750E+03
   6.670  0.0000E+00  0.0000E+00  0.5750E+03
   6.680  0.0000E+00  0.0000E+00  0.5750E+03
   6.690  0.0000E+00  0.0000E+00  0.5750E+03
   6.700  0.0000E+00  0.0000E+00  0.5750E+03
   6.710  0.0000E+00  0.0000E+00  0.5750E+03
   6.720  0.0000E+00  0.0000E+00  0.5750E+03
   6.730  0.0000E+00  0.0000E+00  0.5750E+03
   6.740  0.0000E+00  0.0000E+00  0.5750E+03
   6.750  0.0000E+00  0.0000E+00  0.5750E+03
   6.760  0.0000E+00  0.0000E+00  0.5750E+03
   6.770  0.0000E+00  0.0000E+00  0.5750E+03
   6.780  0.0000E+00  0.0000E+00  0.5750E+03
   6.790  0.0000E+00  0.0000E+00  0.5750E+03
   6.800  0.0000E+00  0.0000E+00  0.5750E+03
   6.810  0.0000E+00  0.0000E+00  0.5750E+03
   6.820  0.0000E+00  0.0000E+00  0.5750E+03
   6.830  0.0000E+00  0.0000E+00  0.5750E+03
   6.840  0.0000E+00  0.0000E+00  0.5750E+03
   6.850  0.0000E+00  0.0000E+00  0.5750E+03
   6.860  0.0000E+00  0.0000E+00  0.5750E+03
   6.870  0.0000E+00  0.0000E+00  0.5750E+03
   6.880  0.0000E+00  0.0000E+00  0.5750E+03
   6.890  0.0000E+00  0.0000E+00  0.5750E+03
   6.900  0.0000E+00  0.3564E-02  0.5750E+03
   6.910  0.0000E+00  0.3113E+00  0.5750E+03
   6.920  0.0000E+00  0.1120E+01  0.5750E+03
   6.930  0.0000E+00  0.2430E+01  0.5750E+03
   6.940  0.0000E+00  0.7061E+01  0.5751E+03
   6.950  0.0000E+00  0.1568E+02  0.5752E+03
   6.960  0.0000E+00  0.2652E+02  0.5754E+03
   6.970  0.0000E+00  0.2525E+02  0.5757E+03
   6.980  0.0000E+00  0.1912E+02  0.5759E+03
   6.990  0.0000E+00  0.9093E+00  0.5760E+03
   7.000  0.0000E+00  0.0000E+00  0.5760E+03
   7.010  0.0000E+00  0.0000E+00  0.5760E+03
   7.020  0.0000E+00  0.0000E+00  0.5760E+03
   7.030  0.0000E+00  0.0000E+00  0.5760E+03
   7.040  0.0000E+00  0.0000E+00  0.5760E+03
   7.050  0.0000E+00  0.0000E+00  0.5760E+03
   7.060  0.0000E+00  0.0000E+00  0.5760E+03
   7.070  0.0000E+00  0.0000E+00  0.5760E+03
   7.080  0.0000E+00  0.0000E+00  0.5760E+03
   7.090  0.0000E+00  0.0000E+00  0.5760E+03
   7.100  0.0000E+00  0.3493E+00  0.5760E+03
   7.110  0.0000E+00  0.5520E+01  0.5760E+03
   7.120  0.0000E+00  0.2771E+02  0.5762E+03
   7.130  0.0000E+00  0.2430E+02  0.5765E+03
   7.140  0.0000E+00  0.1732E+02  0.5767E+03
   7.150  0.0000E+00  0.1215E+02  0.5768E+03
   7.160  0.0000E+00  0.3619E+02  0.5770E+03
   7.170  0.0000E+00  0.4299E+02  0.5775E+03
   7.180  0.0000E+00  0.2197E+02  0.5778E+03
   7.190  0.0000E+00  0.4436E+01  0.5780E+03
   7.200  0.0000E+00  0.1909E-01  0.5780E+03
   7.210  0.0000E+00  0.0000E+00  0.5780E+03
   7.220  0.0000E+00  0.0000E+00  0.5780E+03
   7.230  0.0000E+00  0.0000E+00  0.5780E+03
   7.240  0.0000E+00  0.0000E+00  0.5780E+03
   7.250  0.0000E+00  0.0000E+00  0.5780E+03
   7.260  0.0000E+00  0.0000E+00  0.5780E+03
   7.270  0.0000E+00  0.0000E+00  0.5780E+03
   7.280  0.0000E+00  0.0000E+00  0.5780E+03
   7.290  0.0000E+00  0.0000E+00  0.5780E+03
   7.300  0.0000E+00  0.0000E+00  0.5780E+03
   7.310  0.0000E+00  0.0000E+00  0.5780E+03
   7.320  0.0000E+00  0.0000E+00  0.5780E+03
   7.330  0.0000E+00  0.0000E+00  0.5780E+03
   7.340  0.0000E+00  0.0000E+00  0.5780E+03
   7.350  0.0000E+00  0.0000E+00  0.5780E+03
   7.360  0.0000E+00  0.0000E+00  0.5780E+03
   7.370  0.0000E+00  0.0000E+00  0.5780E+03
   7.380  0.0000E+00  0.0000E+00  0.5780E+03
   7.390  0.0000E+00  0.0000E+00  0.5780E+03
   7.400  0.0000E+00  0.0000E+00  0.5780E+03
   7.410  0.0000E+00  0.0000E+00  0.5780E+03
   7.420  0.0000E+00  0.0000E+00  0.5780E+03
   7.430  0.0000E+00  0.0000E+00  0.5780E+03
   7.440  0.0000E+00  0.0000E+00  0.5780E+03
   7.450  0.0000E+00  0.0000E+00  0.5780E+03
   7.460  0.0000E+00  0.0000E+00  0.5780E+03
   7.470  0.0000E+00  0.0000E+00  0.5780E+03
   7.480  0.0000E+00  0.0000E+00  0.5780E+03
   7.490  0.0000E+00  0.0000E+00  0.5780E+03
   7.500  0.0000E+00  0.0000E+00  0.5780E+03
   7.510  0.0000E+00  0.0000E+00  0.5780E+03
   7.520  0.0000E+00  0.0000E+00  0.5780E+03
   7.530  0.0000E+00  0.0000E+00  0.5780E+03
   7.540  0.0000E+00  0.0000E+00  0.5780E+03
   7.550  0.0000E+00  0.0000E+00  0.5780E+03
   7.560  0.0000E+00  0.0000E+00  0.5780E+03
   7.570  0.0000E+00  0.0000E+00  0.5780E+03
   7.580  0.0000E+00  0.0000E+00  0.5780E+03
   7.590  0.0000E+00  0.0000E+00  0.5780E+03
   7.600  0.0000E+00  0.0000E+00  0.5780E+03
   7.610  0.0000E+00  0.0000E+00  0.5780E+03
   7.620  0.0000E+00  0.0000E+00  0.5780E+03
   7.630  0.0000E+00  0.0000E+00  0.5780E+03
   7.640  0.0000E+00  0.0000E+00  0.5780E+03
   7.650  0.0000E+00  0.0000E+00  0.5780E+03
   7.660  0.0000E+00  0.0000E+00  0.5780E+03
   7.670  0.0000E+00  0.0000E+00  0.5780E+03
   7.680  0.0000E+00  0.0000E+00  0.5780E+03
   7.690  0.4186E-02  0.2401E-03  0.5780E+03
   7.700  0.2918E-01  0.2786E-02  0.5780E+03
   7.710  0.8877E-01  0.1023E-01  0.5780E+03
   7.720  0.1853E+00  0.2443E-01  0.5780E+03
   7.730  0.3190E+00  0.4538E-01  0.5780E+03
   7.740  0.4936E+00  0.7309E-01  0.5780E+03
   7.750  0.7216E+00  0.1075E+00  0.5780E+03
   7.760  0.1108E+01  0.1488E+00  0.5780E+03
   7.770  0.2186E+01  0.1967E+00  0.5780E+03
   7.780  0.3792E+01  0.2514E+00  0.5781E+03
   7.790  0.3659E+01  0.3129E+00  0.5781E+03
   7.800  0.3473E+01  0.3811E+00  0.5782E+03
   7.810  0.3538E+01  0.4561E+00  0.5782E+03
   7.820  0.3795E+01  0.5378E+00  0.5782E+03
   7.830  0.4002E+01  0.6263E+00  0.5783E+03
   7.840  0.4139E+01  0.7220E+00  0.5783E+03
   7.850  0.4205E+01  0.8554E+00  0.5784E+03
   7.860  0.4198E+01  0.2183E+01  0.5784E+03
   7.870  0.4143E+01  0.1740E+01  0.5785E+03
   7.880  0.4049E+01  0.2895E+01  0.5786E+03
   7.890  0.4201E+01  0.2254E+01  0.5786E+03
   7.900  0.4528E+01  0.2468E+01  0.5787E+03
   7.910  0.4582E+01  0.2663E+01  0.5788E+03
   7.920  0.4261E+01  0.2830E+01  0.5788E+03
   7.930  0.3867E+01  0.2968E+01  0.5789E+03
   7.940  0.3552E+01  0.3078E+01  0.5790E+03
   7.950  0.3260E+01  0.3158E+01  0.5790E+03
   7.960  0.2939E+01  0.3211E+01  0.5791E+03
   7.970  0.2692E+01  0.3235E+01  0.5792E+03
   7.980  0.2429E+01  0.3230E+01  0.5792E+03
   7.990  0.2332E+01  0.3188E+01  0.5793E+03
   8.000  0.2303E+01  0.3120E+01  0.5793E+03
   8.010  0.2419E+01  0.3103E+01  0.5794E+03
   8.020  0.2711E+01  0.3101E+01  0.5794E+03
   8.030  0.3181E+01  0.3719E+01  0.5795E+03
   8.040  0.3999E+01  0.3543E+01  0.5796E+03
   8.050  0.4408E+01  0.3378E+01  0.5797E+03
   8.060  0.5203E+01  0.3222E+01  0.5797E+03
   8.070  0.5956E+01  0.3072E+01  0.5798E+03
   8.080  0.6427E+01  0.2936E+01  0.5799E+03
   8.090  0.6635E+01  0.2849E+01  0.5800E+03
   8.100  0.6634E+01  0.2766E+01  0.5801E+03
   8.110  0.6794E+01  0.2651E+01  0.5802E+03
   8.120  0.6902E+01  0.2567E+01  0.5803E+03
   8.130  0.6912E+01  0.2481E+01  0.5804E+03
   8.140  0.6825E+01  0.2520E+01  0.5805E+03
   8.150  0.6646E+01  0.2695E+01  0.5806E+03
   8.160  0.6378E+01  0.3025E+01  0.5807E+03
   8.170  0.5827E+01  0.3532E+01  0.5808E+03
   8.180  0.5162E+01  0.4018E+01  0.5809E+03
   8.190  0.4058E+01  0.4466E+01  0.5809E+03
   8.200  0.3015E+01  0.5076E+01  0.5810E+03
   8.210  0.2215E+01  0.5724E+01  0.5811E+03
   8.220  0.1702E+01  0.6240E+01  0.5812E+03
   8.230  0.1562E+01  0.6420E+01  0.5813E+03
   8.240  0.1716E+01  0.6543E+01  0.5813E+03
   8.250  0.2158E+01  0.6746E+01  0.5814E+03
   8.260  0.2809E+01  0.6863E+01  0.5815E+03
   8.270  0.1832E+01  0.6901E+01  0.5816E+03
   8.280  0.1973E+01  0.6868E+01  0.5817E+03
   8.290  0.2191E+01  0.6779E+01  0.5818E+03
   8.300  0.2427E+01  0.6642E+01  0.5819E+03
   8.310  0.2672E+01  0.6536E+01  0.5820E+03
   8.320  0.2934E+01  0.5867E+01  0.5821E+03
   8.330  0.3266E+01  0.5419E+01  0.5822E+03
   8.340  0.3677E+01  0.3300E+01  0.5822E+03
   8.350  0.4169E+01  0.3031E+01  0.5823E+03
   8.360  0.4737E+01  0.2683E+01  0.5824E+03
   8.370  0.5021E+01  0.1640E+01  0.5824E+03
   8.380  0.4743E+01  0.1297E+01  0.5825E+03
   8.390  0.4748E+01  0.1237E+01  0.5826E+03
   8.400  0.4738E+01  0.1285E+01  0.5826E+03
   8.410  0.4691E+01  0.1355E+01  0.5827E+03
   8.420  0.4608E+01  0.1430E+01  0.5828E+03
   8.430  0.4490E+01  0.1510E+01  0.5828E+03
   8.440  0.4339E+01  0.1597E+01  0.5829E+03
   8.450  0.4184E+01  0.1689E+01  0.5829E+03
   8.460  0.4090E+01  0.1787E+01  0.5830E+03
   8.470  0.3936E+01  0.1891E+01  0.5830E+03
   8.480  0.3935E+01  0.2001E+01  0.5831E+03
   8.490  0.4083E+01  0.2116E+01  0.5832E+03
   8.500  0.3799E+01  0.2237E+01  0.5832E+03
   8.510  0.3340E+01  0.2361E+01  0.5833E+03
   8.520  0.2617E+01  0.2523E+01  0.5833E+03
   8.530  0.2140E+01  0.2768E+01  0.5834E+03
   8.540  0.1745E+01  0.3175E+01  0.5834E+03
   8.550  0.1698E+01  0.3630E+01  0.5835E+03
   8.560  0.1773E+01  0.4093E+01  0.5835E+03
   8.570  0.1795E+01  0.4558E+01  0.5836E+03
   8.580  0.1704E+01  0.5035E+01  0.5837E+03
   8.590  0.1504E+01  0.5542E+01  0.5837E+03
   8.600  0.1199E+01  0.5998E+01  0.5838E+03
   8.610  0.1095E+01  0.4917E+01  0.5839E+03
   8.620  0.1117E+01  0.4085E+01  0.5839E+03
   8.630  0.1150E+01  0.3563E+01  0.5840E+03
   8.640  0.1186E+01  0.3168E+01  0.5840E+03
   8.650  0.1223E+01  0.2876E+01  0.5841E+03
   8.660  0.1262E+01  0.2639E+01  0.5841E+03
   8.670  0.1305E+01  0.2728E+01  0.5842E+03
   8.680  0.1352E+01  0.2852E+01  0.5842E+03
   8.690  0.1406E+01  0.2315E+01  0.5842E+03
   8.700  0.1466E+01  0.2660E+01  0.5843E+03
   8.710  0.1535E+01  0.3053E+01  0.5843E+03
   8.720  0.1612E+01  0.3283E+01  0.5844E+03
   8.730  0.1696E+01  0.3435E+01  0.5844E+03
   8.740  0.1789E+01  0.3422E+01  0.5845E+03
   8.750  0.1890E+01  0.2420E+01  0.5845E+03
   8.760  0.2001E+01  0.2359E+01  0.5846E+03
   8.770  0.2128E+01  0.2454E+01  0.5846E+03
   8.780  0.2268E+01  0.2543E+01  0.5846E+03
   8.790  0.2424E+01  0.2644E+01  0.5847E+03
   8.800  0.2595E+01  0.2764E+01  0.5847E+03
   8.810  0.2781E+01  0.2928E+01  0.5848E+03
   8.820  0.2987E+01  0.3198E+01  0.5849E+03
   8.830  0.3229E+01  0.3575E+01  0.5849E+03
   8.840  0.3520E+01  0.3978E+01  0.5850E+03
   8.850  0.3847E+01  0.4383E+01  0.5851E+03
   8.860  0.4208E+01  0.4792E+01  0.5852E+03
   8.870  0.4642E+01  0.5186E+01  0.5853E+03
   8.880  0.5137E+01  0.5573E+01  0.5854E+03
   8.890  0.5679E+01  0.5923E+01  0.5855E+03
   8.900  0.6287E+01  0.6266E+01  0.5856E+03
   8.910  0.6961E+01  0.6603E+01  0.5857E+03
   8.920  0.7700E+01  0.6936E+01  0.5859E+03
   8.930  0.8557E+01  0.7264E+01  0.5860E+03
   8.940  0.9765E+01  0.7661E+01  0.5862E+03
   8.950  0.1187E+02  0.8329E+01  0.5864E+03
   8.960  0.1317E+02  0.9185E+01  0.5866E+03
   8.970  0.1321E+02  0.1016E+02  0.5868E+03
   8.980  0.1516E+02  0.1115E+02  0.5871E+03
   8.990  0.1954E+02  0.1174E+02  0.5874E+03
   9.000  0.1165E+02  0.1350E+02  0.5876E+03
   9.010  0.6649E+01  0.1170E+02  0.5878E+03
   9.020  0.5592E+01  0.1461E+02  0.5880E+03
   9.030  0.6015E+01  0.1187E+02  0.5882E+03
   9.040  0.6504E+01  0.9642E+01  0.5884E+03
   9.050  0.6786E+01  0.5411E+01  0.5885E+03
   9.060  0.6982E+01  0.5658E+01  0.5887E+03
   9.070  0.7150E+01  0.6062E+01  0.5888E+03
   9.080  0.7358E+01  0.6487E+01  0.5889E+03
   9.090  0.7690E+01  0.6821E+01  0.5891E+03
   9.100  0.8078E+01  0.7104E+01  0.5892E+03
   9.110  0.8497E+01  0.7404E+01  0.5894E+03
   9.120  0.8862E+01  0.7711E+01  0.5895E+03
   9.130  0.9232E+01  0.8070E+01  0.5897E+03
   9.140  0.9616E+01  0.8407E+01  0.5899E+03
   9.150  0.1002E+02  0.8758E+01  0.5901E+03
   9.160  0.1045E+02  0.9119E+01  0.5903E+03
   9.170  0.1089E+02  0.9500E+01  0.5905E+03
   9.180  0.1127E+02  0.9905E+01  0.5907E+03
   9.190  0.1161E+02  0.1035E+02  0.5909E+03
   9.200  0.1196E+02  0.1083E+02  0.5911E+03
   9.210  0.1239E+02  0.1134E+02  0.5913E+03
   9.220  0.1291E+02  0.1187E+02  0.5916E+03
   9.230  0.1348E+02  0.1241E+02  0.5918E+03
   9.240  0.1401E+02  0.1303E+02  0.5921E+03
   9.250  0.1435E+02  0.1364E+02  0.5924E+03
   9.260  0.1457E+02  0.1430E+02  0.5927E+03
   9.270  0.1466E+02  0.1499E+02  0.5930E+03
   9.280  0.1467E+02  0.1557E+02  0.5933E+03
   9.290  0.1459E+02  0.1599E+02  0.5936E+03
   9.300  0.1443E+02  0.1621E+02  0.5939E+03
   9.310  0.1437E+02  0.1621E+02  0.5942E+03
   9.320  0.1432E+02  0.1607E+02  0.5945E+03
   9.330  0.1424E+02  0.1597E+02  0.5948E+03
   9.340  0.1415E+02  0.1578E+02  0.5951E+03
   9.350  0.1407E+02  0.1558E+02  0.5954E+03
   9.360  0.1394E+02  0.1528E+02  0.5957E+03
   9.370  0.1366E+02  0.1499E+02  0.5960E+03
   9.380  0.1374E+02  0.1478E+02  0.5963E+03
   9.390  0.1357E+02  0.1467E+02  0.5965E+03
   9.400  0.1313E+02  0.1463E+02  0.5968E+03
   9.410  0.1259E+02  0.1429E+02  0.5971E+03
   9.420  0.1256E+02  0.1342E+02  0.5974E+03
   9.430  0.1286E+02  0.1275E+02  0.5976E+03
   9.440  0.1342E+02  0.1233E+02  0.5979E+03
   9.450  0.1487E+02  0.1207E+02  0.5981E+03
   9.460  0.1658E+02  0.1250E+02  0.5984E+03
   9.470  0.1703E+02  0.1318E+02  0.5987E+03
   9.480  0.1976E+02  0.1239E+02  0.5990E+03
   9.490  0.2349E+02  0.1261E+02  0.5993E+03
   9.500  0.2232E+02  0.1433E+02  0.5997E+03
   9.510  0.2177E+02  0.1661E+02  0.6001E+03
   9.520  0.2236E+02  0.2099E+02  0.6005E+03
   9.530  0.1811E+02  0.2549E+02  0.6010E+03
   9.540  0.1399E+02  0.2649E+02  0.6014E+03
   9.550  0.1242E+02  0.2112E+02  0.6018E+03
   9.560  0.1500E+02  0.1664E+02  0.6021E+03
   9.570  0.1902E+02  0.1334E+02  0.6024E+03
   9.580  0.2086E+02  0.1261E+02  0.6027E+03
   9.590  0.1806E+02  0.1473E+02  0.6031E+03
   9.600  0.1426E+02  0.1739E+02  0.6034E+03
   9.610  0.1433E+02  0.1934E+02  0.6037E+03
   9.620  0.1726E+02  0.1913E+02  0.6041E+03
   9.630  0.1992E+02  0.1959E+02  0.6044E+03
   9.640  0.2226E+02  0.2102E+02  0.6049E+03
   9.650  0.2488E+02  0.2214E+02  0.6053E+03
   9.660  0.2671E+02  0.2307E+02  0.6058E+03
   9.670  0.2601E+02  0.2357E+02  0.6063E+03
   9.680  0.2502E+02  0.2662E+02  0.6068E+03
   9.690  0.2581E+02  0.2480E+02  0.6073E+03
   9.700  0.2035E+02  0.2607E+02  0.6078E+03
   9.710  0.1880E+02  0.2470E+02  0.6083E+03
   9.720  0.1849E+02  0.2390E+02  0.6087E+03
   9.730  0.2226E+02  0.2000E+02  0.6091E+03
   9.740  0.3723E+02  0.2377E+02  0.6096E+03
   9.750  0.3300E+02  0.2999E+02  0.6102E+03
   9.760  0.3003E+02  0.3434E+02  0.6109E+03
   9.770  0.2897E+02  0.2823E+02  0.6115E+03
   9.780  0.3133E+02  0.2469E+02  0.6120E+03
   9.790  0.2922E+02  0.2653E+02  0.6126E+03
   9.800  0.2937E+02  0.2755E+02  0.6132E+03
   9.810  0.2822E+02  0.2771E+02  0.6137E+03
   9.820  0.3305E+02  0.3065E+02  0.6144E+03
   9.830  0.2770E+02  0.3128E+02  0.6150E+03
   9.840  0.2477E+02  0.3317E+02  0.6156E+03
   9.850  0.2505E+02  0.2869E+02  0.6162E+03
   9.860  0.2626E+02  0.2466E+02  0.6167E+03
   9.870  0.2720E+02  0.2484E+02  0.6172E+03
   9.880  0.2824E+02  0.2545E+02  0.6177E+03
   9.890  0.2947E+02  0.2593E+02  0.6183E+03
   9.900  0.3067E+02  0.2747E+02  0.6188E+03
   9.910  0.3115E+02  0.2854E+02  0.6194E+03
   9.920  0.3172E+02  0.3087E+02  0.6200E+03
   9.930  0.3054E+02  0.3231E+02  0.6207E+03
   9.940  0.2967E+02  0.3318E+02  0.6213E+03
   9.950  0.2938E+02  0.3206E+02  0.6219E+03
   9.960  0.2995E+02  0.2892E+02  0.6225E+03
   9.970  0.2855E+02  0.2630E+02  0.6231E+03
   9.980  0.2816E+02  0.2682E+02  0.6236E+03
   9.990  0.2980E+02  0.2768E+02  0.6242E+03
  10.000  0.3036E+02  0.2875E+02  0.6248E+03
  10.010  0.2984E+02  0.2962E+02  0.6254E+03
  10.020  0.2920E+02  0.3034E+02  0.6260E+03
  10.030  0.2852E+02  0.2984E+02  0.6266E+03
  10.040  0.2768E+02  0.2892E+02  0.6271E+03
  10.050  0.2695E+02  0.2827E+02  0.6277E+03
  10.060  0.2584E+02  0.2796E+02  0.6282E+03
  10.070  0.2564E+02  0.2670E+02  0.6288E+03
  10.080  0.2491E+02  0.2660E+02  0.6293E+03
  10.090  0.2310E+02  0.2628E+02  0.6298E+03
  10.100  0.2142E+02  0.2479E+02  0.6303E+03
  10.110  0.2032E+02  0.2315E+02  0.6307E+03
  10.120  0.1944E+02  0.2133E+02  0.6311E+03
  10.130  0.2000E+02  0.2034E+02  0.6315E+03
  10.140  0.2078E+02  0.2033E+02  0.6320E+03
  10.150  0.2100E+02  0.2066E+02  0.6324E+03
  10.160  0.2126E+02  0.2100E+02  0.6328E+03
  10.170  0.2022E+02  0.2118E+02  0.6332E+03
  10.180  0.1906E+02  0.1897E+02  0.6336E+03
  10.190  0.1848E+02  0.1833E+02  0.6340E+03
  10.200  0.1874E+02  0.2098E+02  0.6344E+03
  10.210  0.2033E+02  0.1962E+02  0.6348E+03
  10.220  0.2307E+02  0.1847E+02  0.6352E+03
  10.230  0.2401E+02  0.1913E+02  0.6356E+03
  10.240  0.2394E+02  0.2118E+02  0.6360E+03
  10.250  0.2387E+02  0.2529E+02  0.6365E+03
  10.260  0.2501E+02  0.2465E+02  0.6370E+03
  10.270  0.2615E+02  0.2496E+02  0.6375E+03
  10.280  0.2701E+02  0.2691E+02  0.6380E+03
  10.290  0.2280E+02  0.2546E+02  0.6385E+03
  10.300  0.1911E+02  0.2073E+02  0.6390E+03
  10.310  0.1773E+02  0.2167E+02  0.6394E+03
  10.320  0.1579E+02  0.1872E+02  0.6397E+03
  10.330  0.1749E+02  0.1846E+02  0.6401E+03
  10.340  0.1882E+02  0.1582E+02  0.6404E+03
  10.350  0.2197E+02  0.1654E+02  0.6408E+03
  10.360  0.1935E+02  0.1747E+02  0.6412E+03
  10.370  0.1750E+02  0.1897E+02  0.6415E+03
  10.380  0.1678E+02  0.1964E+02  0.6419E+03
  10.390  0.1662E+02  0.1849E+02  0.6423E+03
  10.400  0.1644E+02  0.1768E+02  0.6426E+03
  10.410  0.1628E+02  0.1747E+02  0.6430E+03
  10.420  0.1619E+02  0.1733E+02  0.6433E+03
  10.430  0.1610E+02  0.1823E+02  0.6436E+03
  10.440  0.1598E+02  0.1732E+02  0.6440E+03
  10.450  0.1582E+02  0.1683E+02  0.6443E+03
  10.460  0.1583E+02  0.1625E+02  0.6446E+03
  10.470  0.1564E+02  0.1590E+02  0.6449E+03
  10.480  0.1574E+02  0.1571E+02  0.6453E+03
  10.490  0.1622E+02  0.1545E+02  0.6456E+03
  10.500  0.1586E+02  0.1568E+02  0.6459E+03
  10.510  0.1598E+02  0.1593E+02  0.6462E+03
  10.520  0.1506E+02  0.1563E+02  0.6465E+03
  10.530  0.1505E+02  0.1522E+02  0.6468E+03
  10.540  0.1432E+02  0.1428E+02  0.6471E+03
  10.550  0.1308E+02  0.1443E+02  0.6474E+03
  10.560  0.1302E+02  0.1404E+02  0.6477E+03
  10.570  0.1340E+02  0.1364E+02  0.6479E+03
  10.580  0.1421E+02  0.1511E+02  0.6482E+03
  10.590  0.1536E+02  0.1384E+02  0.6485E+03
  10.600  0.1602E+02  0.1353E+02  0.6488E+03
  10.610  0.1582E+02  0.1331E+02  0.6491E+03
  10.620  0.1524E+02  0.1345E+02  0.6494E+03
  10.630  0.1526E+02  0.1397E+02  0.6497E+03
  10.640  0.1621E+02  0.1416E+02  0.6500E+03
  10.650  0.1640E+02  0.1395E+02  0.6503E+03
  10.660  0.1581E+02  0.1415E+02  0.6506E+03
  10.670  0.1462E+02  0.1452E+02  0.6509E+03
  10.680  0.1343E+02  0.1627E+02  0.6512E+03
  10.690  0.1288E+02  0.1734E+02  0.6515E+03
  10.700  0.1270E+02  0.1603E+02  0.6518E+03
  10.710  0.1266E+02  0.1508E+02  0.6521E+03
  10.720  0.1600E+02  0.1382E+02  0.6523E+03
  10.730  0.1702E+02  0.1250E+02  0.6526E+03
  10.740  0.1097E+02  0.1340E+02  0.6529E+03
  10.750  0.9324E+01  0.1411E+02  0.6531E+03
  10.760  0.8022E+01  0.1409E+02  0.6534E+03
  10.770  0.8223E+01  0.1228E+02  0.6536E+03
  10.780  0.1365E+02  0.1036E+02  0.6538E+03
  10.790  0.2329E+02  0.9489E+01  0.6541E+03
  10.800  0.2511E+02  0.1494E+02  0.6545E+03
  10.810  0.1283E+02  0.2074E+02  0.6548E+03
  10.820  0.9486E+01  0.2259E+02  0.6551E+03
  10.830  0.9265E+01  0.1780E+02  0.6555E+03
  10.840  0.1032E+02  0.1134E+02  0.6557E+03
  10.850  0.1951E+02  0.9104E+01  0.6560E+03
  10.860  0.1711E+02  0.9217E+01  0.6562E+03
  10.870  0.1459E+02  0.1873E+02  0.6565E+03
  10.880  0.1284E+02  0.1716E+02  0.6568E+03
  10.890  0.1300E+02  0.1469E+02  0.6571E+03
  10.900  0.1432E+02  0.1250E+02  0.6574E+03
  10.910  0.1551E+02  0.1164E+02  0.6577E+03
  10.920  0.1626E+02  0.1198E+02  0.6579E+03
  10.930  0.1706E+02  0.1278E+02  0.6582E+03
  10.940  0.1681E+02  0.1385E+02  0.6585E+03
  10.950  0.1537E+02  0.1515E+02  0.6588E+03
  10.960  0.1508E+02  0.1655E+02  0.6591E+03
  10.970  0.1450E+02  0.1642E+02  0.6595E+03
  10.980  0.1383E+02  0.1621E+02  0.6598E+03
  10.990  0.1317E+02  0.1546E+02  0.6601E+03
  11.000  0.1254E+02  0.1479E+02  0.6603E+03
  11.010  0.1218E+02  0.1416E+02  0.6606E+03
  11.020  0.1200E+02  0.1347E+02  0.6609E+03
  11.030  0.1222E+02  0.1275E+02  0.6611E+03
  11.040  0.1233E+02  0.1198E+02  0.6614E+03
  11.050  0.1194E+02  0.1118E+02  0.6616E+03
  11.060  0.1287E+02  0.1116E+02  0.6618E+03
  11.070  0.1404E+02  0.1240E+02  0.6621E+03
  11.080  0.1090E+02  0.1225E+02  0.6623E+03
  11.090  0.9947E+01  0.1237E+02  0.6626E+03
  11.100  0.9659E+01  0.1184E+02  0.6628E+03
  11.110  0.9581E+01  0.1072E+02  0.6630E+03
  11.120  0.9433E+01  0.9626E+01  0.6632E+03
  11.130  0.9267E+01  0.9740E+01  0.6634E+03
  11.140  0.9463E+01  0.1008E+02  0.6636E+03
  11.150  0.1036E+02  0.1044E+02  0.6638E+03
  11.160  0.1139E+02  0.1066E+02  0.6640E+03
  11.170  0.1166E+02  0.1052E+02  0.6642E+03
  11.180  0.1163E+02  0.1074E+02  0.6644E+03
  11.190  0.1143E+02  0.1111E+02  0.6647E+03
  11.200  0.1115E+02  0.1150E+02  0.6649E+03
  11.210  0.1083E+02  0.1198E+02  0.6651E+03
  11.220  0.1067E+02  0.1253E+02  0.6653E+03
  11.230  0.1283E+02  0.1326E+02  0.6656E+03
  11.240  0.1725E+02  0.1436E+02  0.6659E+03
  11.250  0.2113E+02  0.1637E+02  0.6662E+03
  11.260  0.2241E+02  0.1853E+02  0.6666E+03
  11.270  0.2013E+02  0.2037E+02  0.6670E+03
  11.280  0.1949E+02  0.2099E+02  0.6674E+03
  11.290  0.1818E+02  0.2125E+02  0.6678E+03
  11.300  0.1714E+02  0.2118E+02  0.6682E+03
  11.310  0.1778E+02  0.2060E+02  0.6686E+03
  11.320  0.1926E+02  0.1857E+02  0.6690E+03
  11.330  0.2049E+02  0.1731E+02  0.6694E+03
  11.340  0.2121E+02  0.1790E+02  0.6697E+03
  11.350  0.2222E+02  0.1872E+02  0.6701E+03
  11.360  0.2222E+02  0.1859E+02  0.6705E+03
  11.370  0.2165E+02  0.1893E+02  0.6710E+03
  11.380  0.2044E+02  0.2122E+02  0.6714E+03
  11.390  0.1994E+02  0.2059E+02  0.6718E+03
  11.400  0.2082E+02  0.2109E+02  0.6722E+03
  11.410  0.2162E+02  0.2078E+02  0.6726E+03
  11.420  0.2188E+02  0.2246E+02  0.6730E+03
  11.430  0.2188E+02  0.2331E+02  0.6735E+03
  11.440  0.2165E+02  0.2366E+02  0.6739E+03
  11.450  0.2157E+02  0.2352E+02  0.6744E+03
  11.460  0.2056E+02  0.2141E+02  0.6748E+03
  11.470  0.2144E+02  0.1946E+02  0.6752E+03
  11.480  0.2247E+02  0.1874E+02  0.6757E+03
  11.490  0.2281E+02  0.1951E+02  0.6761E+03
  11.500  0.2551E+02  0.2009E+02  0.6765E+03
  11.510  0.2265E+02  0.2081E+02  0.6770E+03
  11.520  0.2496E+02  0.2167E+02  0.6774E+03
  11.530  0.2317E+02  0.1999E+02  0.6779E+03
  11.540  0.2193E+02  0.2230E+02  0.6783E+03
  11.550  0.2051E+02  0.2171E+02  0.6787E+03
  11.560  0.2142E+02  0.2227E+02  0.6792E+03
  11.570  0.2321E+02  0.2421E+02  0.6796E+03
  11.580  0.2259E+02  0.2374E+02  0.6801E+03
  11.590  0.2177E+02  0.2203E+02  0.6805E+03
  11.600  0.2460E+02  0.2152E+02  0.6810E+03
  11.610  0.2518E+02  0.2124E+02  0.6814E+03
  11.620  0.2347E+02  0.2341E+02  0.6819E+03
  11.630  0.2679E+02  0.2374E+02  0.6824E+03
  11.640  0.2309E+02  0.2507E+02  0.6829E+03
  11.650  0.1969E+02  0.2967E+02  0.6834E+03
  11.660  0.1813E+02  0.2908E+02  0.6839E+03
  11.670  0.1674E+02  0.2127E+02  0.6843E+03
  11.680  0.1553E+02  0.1938E+02  0.6847E+03
  11.690  0.1423E+02  0.1782E+02  0.6850E+03
  11.700  0.1277E+02  0.1630E+02  0.6853E+03
  11.710  0.1164E+02  0.1497E+02  0.6856E+03
  11.720  0.1076E+02  0.1338E+02  0.6858E+03
  11.730  0.9912E+01  0.1212E+02  0.6861E+03
  11.740  0.9961E+01  0.1112E+02  0.6863E+03
  11.750  0.8998E+01  0.1024E+02  0.6865E+03
  11.760  0.8022E+01  0.9549E+01  0.6867E+03
  11.770  0.7070E+01  0.8885E+01  0.6868E+03
  11.780  0.6340E+01  0.8149E+01  0.6870E+03
  11.790  0.5703E+01  0.7273E+01  0.6871E+03
  11.800  0.5129E+01  0.6564E+01  0.6873E+03
  11.810  0.4560E+01  0.5961E+01  0.6874E+03
  11.820  0.3920E+01  0.5399E+01  0.6875E+03
  11.830  0.3341E+01  0.4820E+01  0.6876E+03
  11.840  0.2824E+01  0.4206E+01  0.6876E+03
  11.850  0.2389E+01  0.3629E+01  0.6877E+03
  11.860  0.2021E+01  0.3123E+01  0.6878E+03
  11.870  0.1700E+01  0.2678E+01  0.6878E+03
  11.880  0.1423E+01  0.2280E+01  0.6878E+03
  11.890  0.1177E+01  0.1912E+01  0.6879E+03
  11.900  0.9482E+00  0.1584E+01  0.6879E+03
  11.910  0.7624E+00  0.1272E+01  0.6879E+03
  11.920  0.6250E+00  0.1004E+01  0.6879E+03
  11.930  0.5097E+00  0.8072E+00  0.6880E+03
  11.940  0.4072E+00  0.6455E+00  0.6880E+03
  11.950  0.3162E+00  0.5095E+00  0.6880E+03
  11.960  0.2368E+00  0.3943E+00  0.6880E+03
  11.970  0.1689E+00  0.2946E+00  0.6880E+03
  11.980  0.1126E+00  0.2094E+00  0.6880E+03
  11.990  0.6777E-01  0.1389E+00  0.6880E+03
  12.000  0.3450E-01  0.8290E-01  0.6880E+03
  12.010  0.1277E-01  0.4152E-01  0.6880E+03
  12.020  0.2560E-02  0.1473E-01  0.6880E+03
  12.030  0.1673E-03  0.2503E-02  0.6880E+03
  12.040  0.0000E+00  0.1186E-03  0.6880E+03
  12.050  0.0000E+00  0.0000E+00  0.6880E+03
  12.060  0.0000E+00  0.0000E+00  0.6880E+03
  12.070  0.0000E+00  0.0000E+00  0.6880E+03
  12.080  0.0000E+00  0.0000E+00  0.6880E+03
  12.090  0.0000E+00  0.0000E+00  0.6880E+03
  12.100  0.0000E+00  0.0000E+00  0.6880E+03
  12.110  0.0000E+00  0.0000E+00  0.6880E+03
  12.120  0.0000E+00  0.0000E+00  0.6880E+03
  12.130  0.0000E+00  0.0000E+00  0.6880E+03
  12.140  0.0000E+00  0.0000E+00  0.6880E+03
  12.150  0.0000E+00  0.0000E+00  0.6880E+03
  12.160  0.0000E+00  0.0000E+00  0.6880E+03
  12.170  0.0000E+00  0.0000E+00  0.6880E+03
  12.180  0.0000E+00  0.0000E+00  0.6880E+03
  12.190  0.0000E+00  0.0000E+00  0.6880E+03
  12.200  0.0000E+00  0.0000E+00  0.6880E+03
  12.210  0.0000E+00  0.0000E+00  0.6880E+03
  12.220  0.0000E+00  0.0000E+00  0.6880E+03
  12.230  0.0000E+00  0.0000E+00  0.6880E+03
  12.240  0.0000E+00  0.0000E+00  0.6880E+03
  12.250  0.0000E+00  0.0000E+00  0.6880E+03
  12.260  0.0000E+00  0.0000E+00  0.6880E+03
  12.270  0.0000E+00  0.0000E+00  0.6880E+03
  12.280  0.0000E+00  0.0000E+00  0.6880E+03
  12.290  0.0000E+00  0.0000E+00  0.6880E+03
  12.300  0.0000E+00  0.0000E+00  0.6880E+03
  12.310  0.0000E+00  0.0000E+00  0.6880E+03
  12.320  0.0000E+00  0.0000E+00  0.6880E+03
  12.330  0.0000E+00  0.0000E+00  0.6880E+03
  12.340  0.0000E+00  0.0000E+00  0.6880E+03
  12.350  0.0000E+00  0.0000E+00  0.6880E+03
  12.360  0.0000E+00  0.0000E+00  0.6880E+03
  12.370  0.0000E+00  0.0000E+00  0.6880E+03
  12.380  0.0000E+00  0.0000E+00  0.6880E+03
  12.390  0.0000E+00  0.0000E+00  0.6880E+03
  12.400  0.0000E+00  0.0000E+00  0.6880E+03
  12.410  0.0000E+00  0.0000E+00  0.6880E+03
  12.420  0.0000E+00  0.0000E+00  0.6880E+03
  12.430  0.0000E+00  0.0000E+00  0.6880E+03
  12.440  0.0000E+00  0.0000E+00  0.6880E+03
  12.450  0.0000E+00  0.0000E+00  0.6880E+03
  12.460  0.0000E+00  0.0000E+00  0.6880E+03
  12.470  0.0000E+00  0.0000E+00  0.6880E+03
  12.480  0.0000E+00  0.0000E+00  0.6880E+03
  12.490  0.0000E+00  0.0000E+00  0.6880E+03
  12.500  0.0000E+00  0.0000E+00  0.6880E+03
  12.510  0.0000E+00  0.0000E+00  0.6880E+03
  12.520  0.0000E+00  0.0000E+00  0.6880E+03
  12.530  0.0000E+00  0.0000E+00  0.6880E+03
  12.540  0.0000E+00  0.0000E+00  0.6880E+03
  12.550  0.0000E+00  0.0000E+00  0.6880E+03
  12.560  0.0000E+00  0.0000E+00  0.6880E+03
  12.570  0.0000E+00  0.0000E+00  0.6880E+03
  12.580  0.0000E+00  0.0000E+00  0.6880E+03
  12.590  0.0000E+00  0.0000E+00  0.6880E+03
  12.600  0.0000E+00  0.0000E+00  0.6880E+03
  12.610  0.0000E+00  0.0000E+00  0.6880E+03
  12.620  0.0000E+00  0.0000E+00  0.6880E+03
  12.630  0.0000E+00  0.0000E+00  0.6880E+03
  12.640  0.0000E+00  0.0000E+00  0.6880E+03
  12.650  0.0000E+00  0.0000E+00  0.6880E+03
  12.660  0.0000E+00  0.0000E+00  0.6880E+03
  12.670  0.0000E+00  0.0000E+00  0.6880E+03
  12.680  0.0000E+00  0.0000E+00  0.6880E+03
  12.690  0.0000E+00  0.0000E+00  0.6880E+03
  12.700  0.0000E+00  0.0000E+00  0.6880E+03
  12.710  0.0000E+00  0.0000E+00  0.6880E+03
  12.720  0.0000E+00  0.0000E+00  0.6880E+03
  12.730  0.0000E+00  0.0000E+00  0.6880E+03
  12.740  0.0000E+00  0.0000E+00  0.6880E+03
  12.750  0.0000E+00  0.0000E+00  0.6880E+03
  12.760  0.0000E+00  0.0000E+00  0.6880E+03
  12.770  0.0000E+00  0.0000E+00  0.6880E+03
  12.780  0.0000E+00  0.0000E+00  0.6880E+03
  12.790  0.0000E+00  0.0000E+00  0.6880E+03
  12.800  0.0000E+00  0.0000E+00  0.6880E+03
  12.810  0.0000E+00  0.0000E+00  0.6880E+03
  12.820  0.0000E+00  0.0000E+00  0.6880E+03
  12.830  0.0000E+00  0.0000E+00  0.6880E+03
  12.840  0.0000E+00  0.0000E+00  0.6880E+03
  12.850  0.0000E+00  0.0000E+00  0.6880E+03
  12.860  0.0000E+00  0.0000E+00  0.6880E+03
  12.870  0.0000E+00  0.0000E+00  0.6880E+03
  12.880  0.0000E+00  0.0000E+00  0.6880E+03
  12.890  0.0000E+00  0.0000E+00  0.6880E+03
  12.900  0.0000E+00  0.0000E+00  0.6880E+03
  12.910  0.0000E+00  0.0000E+00  0.6880E+03
  12.920  0.0000E+00  0.0000E+00  0.6880E+03
  12.930  0.0000E+00  0.0000E+00  0.6880E+03
  12.940  0.0000E+00  0.0000E+00  0.6880E+03
  12.950  0.0000E+00  0.0000E+00  0.6880E+03
  12.960  0.0000E+00  0.0000E+00  0.6880E+03
  12.970  0.0000E+00  0.0000E+00  0.6880E+03
  12.980  0.0000E+00  0.0000E+00  0.6880E+03
  12.990  0.0000E+00  0.0000E+00  0.6880E+03
  13.000  0.0000E+00  0.0000E+00  0.6880E+03
  13.010  0.0000E+00  0.0000E+00  0.6880E+03
  13.020  0.0000E+00  0.0000E+00  0.6880E+03
  13.030  0.0000E+00  0.0000E+00  0.6880E+03
  13.040  0.0000E+00  0.0000E+00  0.6880E+03
  13.050  0.0000E+00  0.0000E+00  0.6880E+03
  13.060  0.0000E+00  0.0000E+00  0.6880E+03
  13.070  0.0000E+00  0.0000E+00  0.6880E+03
  13.080  0.0000E+00  0.0000E+00  0.6880E+03
  13.090  0.0000E+00  0.0000E+00  0.6880E+03
  13.100  0.0000E+00  0.0000E+00  0.6880E+03
  13.110  0.0000E+00  0.0000E+00  0.6880E+03
  13.120  0.0000E+00  0.0000E+00  0.6880E+03
  13.130  0.0000E+00  0.0000E+00  0.6880E+03
  13.140  0.0000E+00  0.0000E+00  0.6880E+03
  13.150  0.0000E+00  0.0000E+00  0.6880E+03
  13.160  0.0000E+00  0.0000E+00  0.6880E+03
  13.170  0.0000E+00  0.0000E+00  0.6880E+03
  13.180  0.0000E+00  0.0000E+00  0.6880E+03
  13.190  0.0000E+00  0.0000E+00  0.6880E+03
  13.200  0.0000E+00  0.0000E+00  0.6880E+03
  13.210  0.0000E+00  0.0000E+00  0.6880E+03
  13.220  0.0000E+00  0.0000E+00  0.6880E+03
  13.230  0.0000E+00  0.0000E+00  0.6880E+03
  13.240  0.0000E+00  0.0000E+00  0.6880E+03
  13.250  0.0000E+00  0.0000E+00  0.6880E+03
  13.260  0.0000E+00  0.0000E+00  0.6880E+03
  13.270  0.0000E+00  0.0000E+00  0.6880E+03
  13.280  0.0000E+00  0.0000E+00  0.6880E+03
  13.290  0.0000E+00  0.0000E+00  0.6880E+03
  13.300  0.0000E+00  0.0000E+00  0.6880E+03
  13.310  0.0000E+00  0.0000E+00  0.6880E+03
  13.320  0.0000E+00  0.0000E+00  0.6880E+03
  13.330  0.0000E+00  0.0000E+00  0.6880E+03
  13.340  0.0000E+00  0.0000E+00  0.6880E+03
  13.350  0.0000E+00  0.0000E+00  0.6880E+03
  13.360  0.0000E+00  0.0000E+00  0.6880E+03
  13.370  0.0000E+00  0.0000E+00  0.6880E+03
  13.380  0.0000E+00  0.0000E+00  0.6880E+03
  13.390  0.0000E+00  0.0000E+00  0.6880E+03
  13.400  0.0000E+00  0.0000E+00  0.6880E+03
  13.410  0.0000E+00  0.0000E+00  0.6880E+03
  13.420  0.0000E+00  0.0000E+00  0.6880E+03
  13.430  0.0000E+00  0.0000E+00  0.6880E+03
  13.440  0.0000E+00  0.0000E+00  0.6880E+03
  13.450  0.0000E+00  0.0000E+00  0.6880E+03
  13.460  0.0000E+00  0.0000E+00  0.6880E+03
  13.470  0.0000E+00  0.0000E+00  0.6880E+03
  13.480  0.0000E+00  0.0000E+00  0.6880E+03
  13.490  0.0000E+00  0.0000E+00  0.6880E+03
  13.500  0.0000E+00  0.0000E+00  0.6880E+03
  13.510  0.0000E+00  0.0000E+00  0.6880E+03
  13.520  0.0000E+00  0.0000E+00  0.6880E+03
  13.530  0.0000E+00  0.0000E+00  0.6880E+03
  13.540  0.0000E+00  0.0000E+00  0.6880E+03
  13.550  0.0000E+00  0.0000E+00  0.6880E+03
  13.560  0.0000E+00  0.0000E+00  0.6880E+03
  13.570  0.0000E+00  0.0000E+00  0.6880E+03
  13.580  0.0000E+00  0.0000E+00  0.6880E+03
  13.590  0.0000E+00  0.0000E+00  0.6880E+03
  13.600  0.0000E+00  0.0000E+00  0.6880E+03
  13.610  0.0000E+00  0.0000E+00  0.6880E+03
  13.620  0.0000E+00  0.0000E+00  0.6880E+03
  13.630  0.0000E+00  0.0000E+00  0.6880E+03
  13.640  0.0000E+00  0.0000E+00  0.6880E+03
  13.650  0.0000E+00  0.0000E+00  0.6880E+03
  13.660  0.0000E+00  0.0000E+00  0.6880E+03
  13.670  0.0000E+00  0.0000E+00  0.6880E+03
  13.680  0.0000E+00  0.0000E+00  0.6880E+03
  13.690  0.0000E+00  0.0000E+00  0.6880E+03
  13.700  0.0000E+00  0.0000E+00  0.6880E+03
  13.710  0.0000E+00  0.0000E+00  0.6880E+03
  13.720  0.0000E+00  0.0000E+00  0.6880E+03
  13.730  0.0000E+00  0.0000E+00  0.6880E+03
  13.740  0.0000E+00  0.0000E+00  0.6880E+03
  13.750  0.0000E+00  0.0000E+00  0.6880E+03
  13.760  0.0000E+00  0.0000E+00  0.6880E+03
  13.770  0.0000E+00  0.0000E+00  0.6880E+03
  13.780  0.0000E+00  0.0000E+00  0.6880E+03
  13.790  0.0000E+00  0.0000E+00  0.6880E+03
  13.800  0.0000E+00  0.0000E+00  0.6880E+03
  13.810  0.0000E+00  0.0000E+00  0.6880E+03
  13.820  0.0000E+00  0.0000E+00  0.6880E+03
  13.830  0.0000E+00  0.0000E+00  0.6880E+03
  13.840  0.0000E+00  0.0000E+00  0.6880E+03
  13.850  0.0000E+00  0.0000E+00  0.6880E+03
  13.860  0.0000E+00  0.0000E+00  0.6880E+03
  13.870  0.0000E+00  0.0000E+00  0.6880E+03
  13.880  0.0000E+00  0.0000E+00  0.6880E+03
  13.890  0.0000E+00  0.0000E+00  0.6880E+03
  13.900  0.0000E+00  0.0000E+00  0.6880E+03
  13.910  0.0000E+00  0.0000E+00  0.6880E+03
  13.920  0.0000E+00  0.0000E+00  0.6880E+03
  13.930  0.0000E+00  0.0000E+00  0.6880E+03
  13.940  0.0000E+00  0.0000E+00  0.6880E+03
  13.950  0.0000E+00  0.0000E+00  0.6880E+03
  13.960  0.0000E+00  0.0000E+00  0.6880E+03
  13.970  0.0000E+00  0.0000E+00  0.6880E+03
  13.980  0.0000E+00  0.0000E+00  0.6880E+03
  13.990  0.0000E+00  0.0000E+00  0.6880E+03
  14.000  0.0000E+00  0.0000E+00  0.6880E+03
  14.010  0.0000E+00  0.0000E+00  0.6880E+03
  14.020  0.0000E+00  0.0000E+00  0.6880E+03
  14.030  0.0000E+00  0.0000E+00  0.6880E+03
  14.040  0.0000E+00  0.0000E+00  0.6880E+03
  14.050  0.0000E+00  0.0000E+00  0.6880E+03
  14.060  0.0000E+00  0.0000E+00  0.6880E+03
  14.070  0.0000E+00  0.0000E+00  0.6880E+03
  14.080  0.0000E+00  0.0000E+00  0.6880E+03
  14.090  0.0000E+00  0.0000E+00  0.6880E+03
  14.100  0.0000E+00  0.0000E+00  0.6880E+03
  14.110  0.0000E+00  0.0000E+00  0.6880E+03
  14.120  0.0000E+00  0.0000E+00  0.6880E+03
  14.130  0.0000E+00  0.0000E+00  0.6880E+03
  14.140  0.0000E+00  0.0000E+00  0.6880E+03
  14.150  0.0000E+00  0.0000E+00  0.6880E+03
  14.160  0.0000E+00  0.0000E+00  0.6880E+03
  14.170  0.0000E+00  0.0000E+00  0.6880E+03
  14.180  0.0000E+00  0.0000E+00  0.6880E+03
  14.190  0.0000E+00  0.0000E+00  0.6880E+03
  14.200  0.0000E+00  0.0000E+00  0.6880E+03
  14.210  0.0000E+00  0.0000E+00  0.6880E+03
  14.220  0.0000E+00  0.0000E+00  0.6880E+03
  14.230  0.0000E+00  0.0000E+00  0.6880E+03
  14.240  0.0000E+00  0.0000E+00  0.6880E+03
  14.250  0.0000E+00  0.0000E+00  0.6880E+03
  14.260  0.0000E+00  0.0000E+00  0.6880E+03
  14.270  0.0000E+00  0.0000E+00  0.6880E+03
  14.280  0.0000E+00  0.0000E+00  0.6880E+03
  14.290  0.0000E+00  0.0000E+00  0.6880E+03
  14.300  0.0000E+00  0.0000E+00  0.6880E+03
  14.310  0.0000E+00  0.0000E+00  0.6880E+03
  14.320  0.0000E+00  0.0000E+00  0.6880E+03
  14.330  0.0000E+00  0.0000E+00  0.6880E+03
  14.340  0.0000E+00  0.0000E+00  0.6880E+03
  14.350  0.0000E+00  0.0000E+00  0.6880E+03
  14.360  0.0000E+00  0.0000E+00  0.6880E+03
  14.370  0.0000E+00  0.0000E+00  0.6880E+03
  14.380  0.0000E+00  0.0000E+00  0.6880E+03
  14.390  0.0000E+00  0.0000E+00  0.6880E+03
  14.400  0.0000E+00  0.0000E+00  0.6880E+03
  14.410  0.0000E+00  0.0000E+00  0.6880E+03
  14.420  0.0000E+00  0.0000E+00  0.6880E+03
  14.430  0.0000E+00  0.0000E+00  0.6880E+03
  14.440  0.0000E+00  0.0000E+00  0.6880E+03
  14.450  0.0000E+00  0.0000E+00  0.6880E+03
  14.460  0.0000E+00  0.0000E+00  0.6880E+03
  14.470  0.0000E+00  0.0000E+00  0.6880E+03
  14.480  0.0000E+00  0.0000E+00  0.6880E+03
  14.490  0.0000E+00  0.0000E+00  0.6880E+03
  14.500  0.0000E+00  0.0000E+00  0.6880E+03
  14.510  0.0000E+00  0.0000E+00  0.6880E+03
  14.520  0.0000E+00  0.0000E+00  0.6880E+03
  14.530  0.0000E+00  0.0000E+00  0.6880E+03
  14.540  0.0000E+00  0.0000E+00  0.6880E+03
  14.550  0.0000E+00  0.0000E+00  0.6880E+03
  14.560  0.0000E+00  0.0000E+00  0.6880E+03
  14.570  0.0000E+00  0.0000E+00  0.6880E+03
  14.580  0.0000E+00  0.0000E+00  0.6880E+03
  14.590  0.0000E+00  0.0000E+00  0.6880E+03
  14.600  0.0000E+00  0.0000E+00  0.6880E+03
  14.610  0.0000E+00  0.0000E+00  0.6880E+03
  14.620  0.0000E+00  0.0000E+00  0.6880E+03
  14.630  0.0000E+00  0.0000E+00  0.6880E+03
  14.640  0.0000E+00  0.0000E+00  0.6880E+03
  14.650  0.0000E+00  0.0000E+00  0.6880E+03
  14.660  0.0000E+00  0.0000E+00  0.6880E+03
  14.670  0.0000E+00  0.0000E+00  0.6880E+03
  14.680  0.0000E+00  0.0000E+00  0.6880E+03
  14.690  0.0000E+00  0.0000E+00  0.6880E+03
  14.700  0.0000E+00  0.0000E+00  0.6880E+03
  14.710  0.0000E+00  0.0000E+00  0.6880E+03
  14.720  0.0000E+00  0.0000E+00  0.6880E+03
  14.730  0.0000E+00  0.0000E+00  0.6880E+03
  14.740  0.0000E+00  0.0000E+00  0.6880E+03
  14.750  0.0000E+00  0.0000E+00  0.6880E+03
  14.760  0.0000E+00  0.0000E+00  0.6880E+03
  14.770  0.0000E+00  0.0000E+00  0.6880E+03
  14.780  0.0000E+00  0.0000E+00  0.6880E+03
  14.790  0.0000E+00  0.0000E+00  0.6880E+03
  14.800  0.0000E+00  0.0000E+00  0.6880E+03
  14.810  0.0000E+00  0.0000E+00  0.6880E+03
  14.820  0.0000E+00  0.0000E+00  0.6880E+03
  14.830  0.0000E+00  0.0000E+00  0.6880E+03
  14.840  0.0000E+00  0.0000E+00  0.6880E+03
  14.850  0.0000E+00  0.0000E+00  0.6880E+03
  14.860  0.0000E+00  0.0000E+00  0.6880E+03
  14.870  0.0000E+00  0.0000E+00  0.6880E+03
  14.880  0.0000E+00  0.0000E+00  0.6880E+03
  14.890  0.0000E+00  0.0000E+00  0.6880E+03
  14.900  0.0000E+00  0.0000E+00  0.6880E+03
  14.910  0.0000E+00  0.0000E+00  0.6880E+03
  14.920  0.0000E+00  0.0000E+00  0.6880E+03
  14.930  0.0000E+00  0.0000E+00  0.6880E+03
  14.940  0.0000E+00  0.0000E+00  0.6880E+03
  14.950  0.0000E+00  0.0000E+00  0.6880E+03
  14.960  0.0000E+00  0.0000E+00  0.6880E+03
  14.970  0.0000E+00  0.0000E+00  0.6880E+03
  14.980  0.0000E+00  0.0000E+00  0.6880E+03
  14.990  0.0000E+00  0.0000E+00  0.6880E+03
  15.000  0.0000E+00  0.0000E+00  0.6880E+03
