#  E (eV)   dosup(E)     dosdw(E)   Int dos(E) EFermi =    5.723 eV
 -15.000  0.0000E+00  0.0000E+00  0.8000E+01
 -14.990  0.0000E+00  0.0000E+00  0.8000E+01
 -14.980  0.0000E+00  0.0000E+00  0.8000E+01
 -14.970  0.0000E+00  0.0000E+00  0.8000E+01
 -14.960  0.0000E+00  0.0000E+00  0.8000E+01
 -14.950  0.0000E+00  0.0000E+00  0.8000E+01
 -14.940  0.0000E+00  0.0000E+00  0.8000E+01
 -14.930  0.0000E+00  0.0000E+00  0.8000E+01
 -14.920  0.0000E+00  0.0000E+00  0.8000E+01
 -14.910  0.0000E+00  0.0000E+00  0.8000E+01
 -14.900  0.0000E+00  0.0000E+00  0.8000E+01
 -14.890  0.0000E+00  0.0000E+00  0.8000E+01
 -14.880  0.0000E+00  0.0000E+00  0.8000E+01
 -14.870  0.0000E+00  0.0000E+00  0.8000E+01
 -14.860  0.0000E+00  0.0000E+00  0.8000E+01
 -14.850  0.0000E+00  0.0000E+00  0.8000E+01
 -14.840  0.0000E+00  0.0000E+00  0.8000E+01
 -14.830  0.0000E+00  0.0000E+00  0.8000E+01
 -14.820  0.0000E+00  0.0000E+00  0.8000E+01
 -14.810  0.0000E+00  0.0000E+00  0.8000E+01
 -14.800  0.0000E+00  0.0000E+00  0.8000E+01
 -14.790  0.0000E+00  0.0000E+00  0.8000E+01
 -14.780  0.0000E+00  0.0000E+00  0.8000E+01
 -14.770  0.0000E+00  0.0000E+00  0.8000E+01
 -14.760  0.0000E+00  0.0000E+00  0.8000E+01
 -14.750  0.0000E+00  0.0000E+00  0.8000E+01
 -14.740  0.0000E+00  0.0000E+00  0.8000E+01
 -14.730  0.0000E+00  0.0000E+00  0.8000E+01
 -14.720  0.0000E+00  0.0000E+00  0.8000E+01
 -14.710  0.0000E+00  0.0000E+00  0.8000E+01
 -14.700  0.0000E+00  0.0000E+00  0.8000E+01
 -14.690  0.0000E+00  0.0000E+00  0.8000E+01
 -14.680  0.0000E+00  0.0000E+00  0.8000E+01
 -14.670  0.0000E+00  0.0000E+00  0.8000E+01
 -14.660  0.0000E+00  0.0000E+00  0.8000E+01
 -14.650  0.0000E+00  0.0000E+00  0.8000E+01
 -14.640  0.0000E+00  0.0000E+00  0.8000E+01
 -14.630  0.0000E+00  0.0000E+00  0.8000E+01
 -14.620  0.0000E+00  0.0000E+00  0.8000E+01
 -14.610  0.0000E+00  0.0000E+00  0.8000E+01
 -14.600  0.0000E+00  0.0000E+00  0.8000E+01
 -14.590  0.0000E+00  0.0000E+00  0.8000E+01
 -14.580  0.0000E+00  0.0000E+00  0.8000E+01
 -14.570  0.0000E+00  0.0000E+00  0.8000E+01
 -14.560  0.0000E+00  0.0000E+00  0.8000E+01
 -14.550  0.0000E+00  0.0000E+00  0.8000E+01
 -14.540  0.0000E+00  0.0000E+00  0.8000E+01
 -14.530  0.0000E+00  0.0000E+00  0.8000E+01
 -14.520  0.0000E+00  0.0000E+00  0.8000E+01
 -14.510  0.0000E+00  0.0000E+00  0.8000E+01
 -14.500  0.0000E+00  0.0000E+00  0.8000E+01
 -14.490  0.0000E+00  0.0000E+00  0.8000E+01
 -14.480  0.0000E+00  0.0000E+00  0.8000E+01
 -14.470  0.0000E+00  0.0000E+00  0.8000E+01
 -14.460  0.0000E+00  0.0000E+00  0.8000E+01
 -14.450  0.0000E+00  0.0000E+00  0.8000E+01
 -14.440  0.0000E+00  0.0000E+00  0.8000E+01
 -14.430  0.0000E+00  0.0000E+00  0.8000E+01
 -14.420  0.0000E+00  0.0000E+00  0.8000E+01
 -14.410  0.0000E+00  0.0000E+00  0.8000E+01
 -14.400  0.0000E+00  0.0000E+00  0.8000E+01
 -14.390  0.0000E+00  0.0000E+00  0.8000E+01
 -14.380  0.0000E+00  0.0000E+00  0.8000E+01
 -14.370  0.0000E+00  0.0000E+00  0.8000E+01
 -14.360  0.0000E+00  0.0000E+00  0.8000E+01
 -14.350  0.0000E+00  0.0000E+00  0.8000E+01
 -14.340  0.0000E+00  0.0000E+00  0.8000E+01
 -14.330  0.0000E+00  0.0000E+00  0.8000E+01
 -14.320  0.0000E+00  0.0000E+00  0.8000E+01
 -14.310  0.0000E+00  0.0000E+00  0.8000E+01
 -14.300  0.0000E+00  0.0000E+00  0.8000E+01
 -14.290  0.0000E+00  0.0000E+00  0.8000E+01
 -14.280  0.0000E+00  0.0000E+00  0.8000E+01
 -14.270  0.0000E+00  0.0000E+00  0.8000E+01
 -14.260  0.0000E+00  0.0000E+00  0.8000E+01
 -14.250  0.0000E+00  0.0000E+00  0.8000E+01
 -14.240  0.0000E+00  0.0000E+00  0.8000E+01
 -14.230  0.0000E+00  0.0000E+00  0.8000E+01
 -14.220  0.0000E+00  0.0000E+00  0.8000E+01
 -14.210  0.0000E+00  0.0000E+00  0.8000E+01
 -14.200  0.0000E+00  0.0000E+00  0.8000E+01
 -14.190  0.0000E+00  0.0000E+00  0.8000E+01
 -14.180  0.0000E+00  0.0000E+00  0.8000E+01
 -14.170  0.0000E+00  0.0000E+00  0.8000E+01
 -14.160  0.0000E+00  0.0000E+00  0.8000E+01
 -14.150  0.0000E+00  0.0000E+00  0.8000E+01
 -14.140  0.0000E+00  0.0000E+00  0.8000E+01
 -14.130  0.0000E+00  0.0000E+00  0.8000E+01
 -14.120  0.0000E+00  0.0000E+00  0.8000E+01
 -14.110  0.0000E+00  0.0000E+00  0.8000E+01
 -14.100  0.0000E+00  0.0000E+00  0.8000E+01
 -14.090  0.0000E+00  0.0000E+00  0.8000E+01
 -14.080  0.0000E+00  0.0000E+00  0.8000E+01
 -14.070  0.0000E+00  0.0000E+00  0.8000E+01
 -14.060  0.0000E+00  0.0000E+00  0.8000E+01
 -14.050  0.0000E+00  0.0000E+00  0.8000E+01
 -14.040  0.0000E+00  0.0000E+00  0.8000E+01
 -14.030  0.0000E+00  0.0000E+00  0.8000E+01
 -14.020  0.0000E+00  0.0000E+00  0.8000E+01
 -14.010  0.0000E+00  0.0000E+00  0.8000E+01
 -14.000  0.0000E+00  0.0000E+00  0.8000E+01
 -13.990  0.0000E+00  0.0000E+00  0.8000E+01
 -13.980  0.0000E+00  0.0000E+00  0.8000E+01
 -13.970  0.0000E+00  0.0000E+00  0.8000E+01
 -13.960  0.0000E+00  0.0000E+00  0.8000E+01
 -13.950  0.0000E+00  0.0000E+00  0.8000E+01
 -13.940  0.0000E+00  0.0000E+00  0.8000E+01
 -13.930  0.0000E+00  0.0000E+00  0.8000E+01
 -13.920  0.0000E+00  0.0000E+00  0.8000E+01
 -13.910  0.0000E+00  0.0000E+00  0.8000E+01
 -13.900  0.0000E+00  0.0000E+00  0.8000E+01
 -13.890  0.0000E+00  0.0000E+00  0.8000E+01
 -13.880  0.0000E+00  0.0000E+00  0.8000E+01
 -13.870  0.0000E+00  0.0000E+00  0.8000E+01
 -13.860  0.0000E+00  0.0000E+00  0.8000E+01
 -13.850  0.0000E+00  0.0000E+00  0.8000E+01
 -13.840  0.0000E+00  0.0000E+00  0.8000E+01
 -13.830  0.0000E+00  0.0000E+00  0.8000E+01
 -13.820  0.0000E+00  0.0000E+00  0.8000E+01
 -13.810  0.0000E+00  0.0000E+00  0.8000E+01
 -13.800  0.0000E+00  0.0000E+00  0.8000E+01
 -13.790  0.0000E+00  0.0000E+00  0.8000E+01
 -13.780  0.0000E+00  0.0000E+00  0.8000E+01
 -13.770  0.0000E+00  0.0000E+00  0.8000E+01
 -13.760  0.0000E+00  0.0000E+00  0.8000E+01
 -13.750  0.0000E+00  0.0000E+00  0.8000E+01
 -13.740  0.0000E+00  0.0000E+00  0.8000E+01
 -13.730  0.0000E+00  0.0000E+00  0.8000E+01
 -13.720  0.0000E+00  0.0000E+00  0.8000E+01
 -13.710  0.0000E+00  0.0000E+00  0.8000E+01
 -13.700  0.0000E+00  0.0000E+00  0.8000E+01
 -13.690  0.0000E+00  0.0000E+00  0.8000E+01
 -13.680  0.0000E+00  0.0000E+00  0.8000E+01
 -13.670  0.0000E+00  0.0000E+00  0.8000E+01
 -13.660  0.0000E+00  0.0000E+00  0.8000E+01
 -13.650  0.0000E+00  0.0000E+00  0.8000E+01
 -13.640  0.0000E+00  0.0000E+00  0.8000E+01
 -13.630  0.0000E+00  0.0000E+00  0.8000E+01
 -13.620  0.0000E+00  0.0000E+00  0.8000E+01
 -13.610  0.0000E+00  0.0000E+00  0.8000E+01
 -13.600  0.0000E+00  0.0000E+00  0.8000E+01
 -13.590  0.0000E+00  0.0000E+00  0.8000E+01
 -13.580  0.0000E+00  0.0000E+00  0.8000E+01
 -13.570  0.0000E+00  0.0000E+00  0.8000E+01
 -13.560  0.0000E+00  0.0000E+00  0.8000E+01
 -13.550  0.0000E+00  0.0000E+00  0.8000E+01
 -13.540  0.0000E+00  0.0000E+00  0.8000E+01
 -13.530  0.0000E+00  0.0000E+00  0.8000E+01
 -13.520  0.0000E+00  0.0000E+00  0.8000E+01
 -13.510  0.0000E+00  0.0000E+00  0.8000E+01
 -13.500  0.0000E+00  0.0000E+00  0.8000E+01
 -13.490  0.0000E+00  0.0000E+00  0.8000E+01
 -13.480  0.0000E+00  0.0000E+00  0.8000E+01
 -13.470  0.0000E+00  0.0000E+00  0.8000E+01
 -13.460  0.0000E+00  0.0000E+00  0.8000E+01
 -13.450  0.0000E+00  0.0000E+00  0.8000E+01
 -13.440  0.0000E+00  0.0000E+00  0.8000E+01
 -13.430  0.0000E+00  0.0000E+00  0.8000E+01
 -13.420  0.0000E+00  0.0000E+00  0.8000E+01
 -13.410  0.0000E+00  0.0000E+00  0.8000E+01
 -13.400  0.0000E+00  0.0000E+00  0.8000E+01
 -13.390  0.0000E+00  0.0000E+00  0.8000E+01
 -13.380  0.0000E+00  0.0000E+00  0.8000E+01
 -13.370  0.0000E+00  0.0000E+00  0.8000E+01
 -13.360  0.0000E+00  0.0000E+00  0.8000E+01
 -13.350  0.0000E+00  0.0000E+00  0.8000E+01
 -13.340  0.0000E+00  0.0000E+00  0.8000E+01
 -13.330  0.0000E+00  0.0000E+00  0.8000E+01
 -13.320  0.0000E+00  0.0000E+00  0.8000E+01
 -13.310  0.0000E+00  0.0000E+00  0.8000E+01
 -13.300  0.0000E+00  0.0000E+00  0.8000E+01
 -13.290  0.0000E+00  0.0000E+00  0.8000E+01
 -13.280  0.0000E+00  0.0000E+00  0.8000E+01
 -13.270  0.0000E+00  0.0000E+00  0.8000E+01
 -13.260  0.0000E+00  0.0000E+00  0.8000E+01
 -13.250  0.0000E+00  0.0000E+00  0.8000E+01
 -13.240  0.0000E+00  0.0000E+00  0.8000E+01
 -13.230  0.0000E+00  0.0000E+00  0.8000E+01
 -13.220  0.0000E+00  0.0000E+00  0.8000E+01
 -13.210  0.0000E+00  0.0000E+00  0.8000E+01
 -13.200  0.0000E+00  0.0000E+00  0.8000E+01
 -13.190  0.0000E+00  0.0000E+00  0.8000E+01
 -13.180  0.0000E+00  0.0000E+00  0.8000E+01
 -13.170  0.0000E+00  0.0000E+00  0.8000E+01
 -13.160  0.0000E+00  0.0000E+00  0.8000E+01
 -13.150  0.0000E+00  0.0000E+00  0.8000E+01
 -13.140  0.0000E+00  0.0000E+00  0.8000E+01
 -13.130  0.0000E+00  0.0000E+00  0.8000E+01
 -13.120  0.0000E+00  0.0000E+00  0.8000E+01
 -13.110  0.0000E+00  0.0000E+00  0.8000E+01
 -13.100  0.0000E+00  0.0000E+00  0.8000E+01
 -13.090  0.0000E+00  0.0000E+00  0.8000E+01
 -13.080  0.0000E+00  0.0000E+00  0.8000E+01
 -13.070  0.0000E+00  0.0000E+00  0.8000E+01
 -13.060  0.0000E+00  0.0000E+00  0.8000E+01
 -13.050  0.0000E+00  0.0000E+00  0.8000E+01
 -13.040  0.0000E+00  0.0000E+00  0.8000E+01
 -13.030  0.0000E+00  0.0000E+00  0.8000E+01
 -13.020  0.0000E+00  0.0000E+00  0.8000E+01
 -13.010  0.0000E+00  0.0000E+00  0.8000E+01
 -13.000  0.0000E+00  0.0000E+00  0.8000E+01
 -12.990  0.0000E+00  0.0000E+00  0.8000E+01
 -12.980  0.0000E+00  0.0000E+00  0.8000E+01
 -12.970  0.0000E+00  0.0000E+00  0.8000E+01
 -12.960  0.0000E+00  0.0000E+00  0.8000E+01
 -12.950  0.0000E+00  0.0000E+00  0.8000E+01
 -12.940  0.0000E+00  0.0000E+00  0.8000E+01
 -12.930  0.0000E+00  0.0000E+00  0.8000E+01
 -12.920  0.0000E+00  0.0000E+00  0.8000E+01
 -12.910  0.0000E+00  0.0000E+00  0.8000E+01
 -12.900  0.0000E+00  0.0000E+00  0.8000E+01
 -12.890  0.0000E+00  0.0000E+00  0.8000E+01
 -12.880  0.0000E+00  0.0000E+00  0.8000E+01
 -12.870  0.0000E+00  0.0000E+00  0.8000E+01
 -12.860  0.0000E+00  0.0000E+00  0.8000E+01
 -12.850  0.0000E+00  0.0000E+00  0.8000E+01
 -12.840  0.0000E+00  0.0000E+00  0.8000E+01
 -12.830  0.0000E+00  0.0000E+00  0.8000E+01
 -12.820  0.0000E+00  0.0000E+00  0.8000E+01
 -12.810  0.0000E+00  0.0000E+00  0.8000E+01
 -12.800  0.0000E+00  0.0000E+00  0.8000E+01
 -12.790  0.0000E+00  0.0000E+00  0.8000E+01
 -12.780  0.0000E+00  0.0000E+00  0.8000E+01
 -12.770  0.0000E+00  0.0000E+00  0.8000E+01
 -12.760  0.0000E+00  0.0000E+00  0.8000E+01
 -12.750  0.0000E+00  0.0000E+00  0.8000E+01
 -12.740  0.0000E+00  0.0000E+00  0.8000E+01
 -12.730  0.0000E+00  0.0000E+00  0.8000E+01
 -12.720  0.0000E+00  0.0000E+00  0.8000E+01
 -12.710  0.0000E+00  0.0000E+00  0.8000E+01
 -12.700  0.0000E+00  0.0000E+00  0.8000E+01
 -12.690  0.0000E+00  0.0000E+00  0.8000E+01
 -12.680  0.0000E+00  0.0000E+00  0.8000E+01
 -12.670  0.0000E+00  0.0000E+00  0.8000E+01
 -12.660  0.0000E+00  0.0000E+00  0.8000E+01
 -12.650  0.0000E+00  0.0000E+00  0.8000E+01
 -12.640  0.0000E+00  0.0000E+00  0.8000E+01
 -12.630  0.0000E+00  0.0000E+00  0.8000E+01
 -12.620  0.0000E+00  0.0000E+00  0.8000E+01
 -12.610  0.0000E+00  0.0000E+00  0.8000E+01
 -12.600  0.0000E+00  0.0000E+00  0.8000E+01
 -12.590  0.0000E+00  0.0000E+00  0.8000E+01
 -12.580  0.0000E+00  0.0000E+00  0.8000E+01
 -12.570  0.0000E+00  0.0000E+00  0.8000E+01
 -12.560  0.0000E+00  0.0000E+00  0.8000E+01
 -12.550  0.0000E+00  0.0000E+00  0.8000E+01
 -12.540  0.0000E+00  0.0000E+00  0.8000E+01
 -12.530  0.0000E+00  0.0000E+00  0.8000E+01
 -12.520  0.0000E+00  0.0000E+00  0.8000E+01
 -12.510  0.0000E+00  0.0000E+00  0.8000E+01
 -12.500  0.0000E+00  0.0000E+00  0.8000E+01
 -12.490  0.0000E+00  0.0000E+00  0.8000E+01
 -12.480  0.0000E+00  0.0000E+00  0.8000E+01
 -12.470  0.0000E+00  0.0000E+00  0.8000E+01
 -12.460  0.0000E+00  0.0000E+00  0.8000E+01
 -12.450  0.0000E+00  0.0000E+00  0.8000E+01
 -12.440  0.0000E+00  0.0000E+00  0.8000E+01
 -12.430  0.0000E+00  0.0000E+00  0.8000E+01
 -12.420  0.0000E+00  0.0000E+00  0.8000E+01
 -12.410  0.0000E+00  0.0000E+00  0.8000E+01
 -12.400  0.0000E+00  0.0000E+00  0.8000E+01
 -12.390  0.0000E+00  0.0000E+00  0.8000E+01
 -12.380  0.0000E+00  0.0000E+00  0.8000E+01
 -12.370  0.0000E+00  0.0000E+00  0.8000E+01
 -12.360  0.0000E+00  0.0000E+00  0.8000E+01
 -12.350  0.0000E+00  0.0000E+00  0.8000E+01
 -12.340  0.0000E+00  0.0000E+00  0.8000E+01
 -12.330  0.0000E+00  0.0000E+00  0.8000E+01
 -12.320  0.0000E+00  0.0000E+00  0.8000E+01
 -12.310  0.0000E+00  0.0000E+00  0.8000E+01
 -12.300  0.0000E+00  0.0000E+00  0.8000E+01
 -12.290  0.0000E+00  0.0000E+00  0.8000E+01
 -12.280  0.0000E+00  0.0000E+00  0.8000E+01
 -12.270  0.0000E+00  0.0000E+00  0.8000E+01
 -12.260  0.0000E+00  0.0000E+00  0.8000E+01
 -12.250  0.0000E+00  0.0000E+00  0.8000E+01
 -12.240  0.0000E+00  0.0000E+00  0.8000E+01
 -12.230  0.0000E+00  0.0000E+00  0.8000E+01
 -12.220  0.0000E+00  0.0000E+00  0.8000E+01
 -12.210  0.0000E+00  0.0000E+00  0.8000E+01
 -12.200  0.0000E+00  0.0000E+00  0.8000E+01
 -12.190  0.0000E+00  0.0000E+00  0.8000E+01
 -12.180  0.0000E+00  0.0000E+00  0.8000E+01
 -12.170  0.0000E+00  0.0000E+00  0.8000E+01
 -12.160  0.0000E+00  0.0000E+00  0.8000E+01
 -12.150  0.0000E+00  0.0000E+00  0.8000E+01
 -12.140  0.0000E+00  0.0000E+00  0.8000E+01
 -12.130  0.0000E+00  0.0000E+00  0.8000E+01
 -12.120  0.0000E+00  0.0000E+00  0.8000E+01
 -12.110  0.0000E+00  0.0000E+00  0.8000E+01
 -12.100  0.0000E+00  0.0000E+00  0.8000E+01
 -12.090  0.0000E+00  0.0000E+00  0.8000E+01
 -12.080  0.0000E+00  0.0000E+00  0.8000E+01
 -12.070  0.0000E+00  0.0000E+00  0.8000E+01
 -12.060  0.0000E+00  0.0000E+00  0.8000E+01
 -12.050  0.0000E+00  0.0000E+00  0.8000E+01
 -12.040  0.0000E+00  0.0000E+00  0.8000E+01
 -12.030  0.0000E+00  0.0000E+00  0.8000E+01
 -12.020  0.0000E+00  0.0000E+00  0.8000E+01
 -12.010  0.0000E+00  0.0000E+00  0.8000E+01
 -12.000  0.0000E+00  0.0000E+00  0.8000E+01
 -11.990  0.0000E+00  0.0000E+00  0.8000E+01
 -11.980  0.0000E+00  0.0000E+00  0.8000E+01
 -11.970  0.0000E+00  0.0000E+00  0.8000E+01
 -11.960  0.0000E+00  0.0000E+00  0.8000E+01
 -11.950  0.0000E+00  0.0000E+00  0.8000E+01
 -11.940  0.0000E+00  0.0000E+00  0.8000E+01
 -11.930  0.0000E+00  0.0000E+00  0.8000E+01
 -11.920  0.0000E+00  0.0000E+00  0.8000E+01
 -11.910  0.0000E+00  0.0000E+00  0.8000E+01
 -11.900  0.0000E+00  0.0000E+00  0.8000E+01
 -11.890  0.0000E+00  0.0000E+00  0.8000E+01
 -11.880  0.0000E+00  0.0000E+00  0.8000E+01
 -11.870  0.0000E+00  0.0000E+00  0.8000E+01
 -11.860  0.0000E+00  0.0000E+00  0.8000E+01
 -11.850  0.0000E+00  0.0000E+00  0.8000E+01
 -11.840  0.0000E+00  0.0000E+00  0.8000E+01
 -11.830  0.0000E+00  0.0000E+00  0.8000E+01
 -11.820  0.0000E+00  0.0000E+00  0.8000E+01
 -11.810  0.0000E+00  0.0000E+00  0.8000E+01
 -11.800  0.0000E+00  0.0000E+00  0.8000E+01
 -11.790  0.0000E+00  0.0000E+00  0.8000E+01
 -11.780  0.0000E+00  0.0000E+00  0.8000E+01
 -11.770  0.0000E+00  0.0000E+00  0.8000E+01
 -11.760  0.0000E+00  0.0000E+00  0.8000E+01
 -11.750  0.0000E+00  0.0000E+00  0.8000E+01
 -11.740  0.0000E+00  0.0000E+00  0.8000E+01
 -11.730  0.0000E+00  0.0000E+00  0.8000E+01
 -11.720  0.0000E+00  0.0000E+00  0.8000E+01
 -11.710  0.0000E+00  0.0000E+00  0.8000E+01
 -11.700  0.0000E+00  0.0000E+00  0.8000E+01
 -11.690  0.0000E+00  0.0000E+00  0.8000E+01
 -11.680  0.0000E+00  0.0000E+00  0.8000E+01
 -11.670  0.0000E+00  0.0000E+00  0.8000E+01
 -11.660  0.0000E+00  0.0000E+00  0.8000E+01
 -11.650  0.0000E+00  0.0000E+00  0.8000E+01
 -11.640  0.0000E+00  0.0000E+00  0.8000E+01
 -11.630  0.0000E+00  0.0000E+00  0.8000E+01
 -11.620  0.0000E+00  0.0000E+00  0.8000E+01
 -11.610  0.0000E+00  0.0000E+00  0.8000E+01
 -11.600  0.0000E+00  0.0000E+00  0.8000E+01
 -11.590  0.0000E+00  0.0000E+00  0.8000E+01
 -11.580  0.0000E+00  0.0000E+00  0.8000E+01
 -11.570  0.0000E+00  0.0000E+00  0.8000E+01
 -11.560  0.0000E+00  0.0000E+00  0.8000E+01
 -11.550  0.0000E+00  0.0000E+00  0.8000E+01
 -11.540  0.0000E+00  0.0000E+00  0.8000E+01
 -11.530  0.0000E+00  0.0000E+00  0.8000E+01
 -11.520  0.0000E+00  0.0000E+00  0.8000E+01
 -11.510  0.0000E+00  0.0000E+00  0.8000E+01
 -11.500  0.0000E+00  0.0000E+00  0.8000E+01
 -11.490  0.0000E+00  0.0000E+00  0.8000E+01
 -11.480  0.0000E+00  0.0000E+00  0.8000E+01
 -11.470  0.0000E+00  0.0000E+00  0.8000E+01
 -11.460  0.0000E+00  0.0000E+00  0.8000E+01
 -11.450  0.0000E+00  0.0000E+00  0.8000E+01
 -11.440  0.0000E+00  0.0000E+00  0.8000E+01
 -11.430  0.0000E+00  0.0000E+00  0.8000E+01
 -11.420  0.0000E+00  0.0000E+00  0.8000E+01
 -11.410  0.0000E+00  0.0000E+00  0.8000E+01
 -11.400  0.0000E+00  0.0000E+00  0.8000E+01
 -11.390  0.0000E+00  0.0000E+00  0.8000E+01
 -11.380  0.0000E+00  0.0000E+00  0.8000E+01
 -11.370  0.0000E+00  0.0000E+00  0.8000E+01
 -11.360  0.0000E+00  0.0000E+00  0.8000E+01
 -11.350  0.0000E+00  0.0000E+00  0.8000E+01
 -11.340  0.0000E+00  0.0000E+00  0.8000E+01
 -11.330  0.0000E+00  0.0000E+00  0.8000E+01
 -11.320  0.0000E+00  0.0000E+00  0.8000E+01
 -11.310  0.0000E+00  0.0000E+00  0.8000E+01
 -11.300  0.0000E+00  0.0000E+00  0.8000E+01
 -11.290  0.0000E+00  0.0000E+00  0.8000E+01
 -11.280  0.0000E+00  0.0000E+00  0.8000E+01
 -11.270  0.0000E+00  0.0000E+00  0.8000E+01
 -11.260  0.0000E+00  0.0000E+00  0.8000E+01
 -11.250  0.0000E+00  0.0000E+00  0.8000E+01
 -11.240  0.0000E+00  0.0000E+00  0.8000E+01
 -11.230  0.0000E+00  0.0000E+00  0.8000E+01
 -11.220  0.0000E+00  0.0000E+00  0.8000E+01
 -11.210  0.0000E+00  0.0000E+00  0.8000E+01
 -11.200  0.0000E+00  0.0000E+00  0.8000E+01
 -11.190  0.0000E+00  0.0000E+00  0.8000E+01
 -11.180  0.0000E+00  0.0000E+00  0.8000E+01
 -11.170  0.0000E+00  0.0000E+00  0.8000E+01
 -11.160  0.0000E+00  0.0000E+00  0.8000E+01
 -11.150  0.0000E+00  0.0000E+00  0.8000E+01
 -11.140  0.0000E+00  0.0000E+00  0.8000E+01
 -11.130  0.0000E+00  0.0000E+00  0.8000E+01
 -11.120  0.0000E+00  0.0000E+00  0.8000E+01
 -11.110  0.0000E+00  0.0000E+00  0.8000E+01
 -11.100  0.0000E+00  0.0000E+00  0.8000E+01
 -11.090  0.0000E+00  0.0000E+00  0.8000E+01
 -11.080  0.0000E+00  0.0000E+00  0.8000E+01
 -11.070  0.0000E+00  0.0000E+00  0.8000E+01
 -11.060  0.0000E+00  0.0000E+00  0.8000E+01
 -11.050  0.0000E+00  0.0000E+00  0.8000E+01
 -11.040  0.0000E+00  0.0000E+00  0.8000E+01
 -11.030  0.0000E+00  0.0000E+00  0.8000E+01
 -11.020  0.0000E+00  0.0000E+00  0.8000E+01
 -11.010  0.0000E+00  0.0000E+00  0.8000E+01
 -11.000  0.0000E+00  0.0000E+00  0.8000E+01
 -10.990  0.0000E+00  0.0000E+00  0.8000E+01
 -10.980  0.0000E+00  0.0000E+00  0.8000E+01
 -10.970  0.0000E+00  0.0000E+00  0.8000E+01
 -10.960  0.0000E+00  0.0000E+00  0.8000E+01
 -10.950  0.0000E+00  0.0000E+00  0.8000E+01
 -10.940  0.0000E+00  0.0000E+00  0.8000E+01
 -10.930  0.0000E+00  0.0000E+00  0.8000E+01
 -10.920  0.0000E+00  0.0000E+00  0.8000E+01
 -10.910  0.0000E+00  0.0000E+00  0.8000E+01
 -10.900  0.0000E+00  0.0000E+00  0.8000E+01
 -10.890  0.0000E+00  0.0000E+00  0.8000E+01
 -10.880  0.0000E+00  0.0000E+00  0.8000E+01
 -10.870  0.0000E+00  0.0000E+00  0.8000E+01
 -10.860  0.0000E+00  0.0000E+00  0.8000E+01
 -10.850  0.0000E+00  0.0000E+00  0.8000E+01
 -10.840  0.0000E+00  0.0000E+00  0.8000E+01
 -10.830  0.0000E+00  0.0000E+00  0.8000E+01
 -10.820  0.0000E+00  0.0000E+00  0.8000E+01
 -10.810  0.0000E+00  0.0000E+00  0.8000E+01
 -10.800  0.0000E+00  0.0000E+00  0.8000E+01
 -10.790  0.0000E+00  0.0000E+00  0.8000E+01
 -10.780  0.0000E+00  0.0000E+00  0.8000E+01
 -10.770  0.0000E+00  0.0000E+00  0.8000E+01
 -10.760  0.0000E+00  0.0000E+00  0.8000E+01
 -10.750  0.0000E+00  0.0000E+00  0.8000E+01
 -10.740  0.0000E+00  0.0000E+00  0.8000E+01
 -10.730  0.0000E+00  0.0000E+00  0.8000E+01
 -10.720  0.0000E+00  0.0000E+00  0.8000E+01
 -10.710  0.0000E+00  0.0000E+00  0.8000E+01
 -10.700  0.0000E+00  0.0000E+00  0.8000E+01
 -10.690  0.0000E+00  0.0000E+00  0.8000E+01
 -10.680  0.0000E+00  0.0000E+00  0.8000E+01
 -10.670  0.0000E+00  0.0000E+00  0.8000E+01
 -10.660  0.0000E+00  0.0000E+00  0.8000E+01
 -10.650  0.0000E+00  0.0000E+00  0.8000E+01
 -10.640  0.0000E+00  0.0000E+00  0.8000E+01
 -10.630  0.0000E+00  0.0000E+00  0.8000E+01
 -10.620  0.0000E+00  0.0000E+00  0.8000E+01
 -10.610  0.0000E+00  0.0000E+00  0.8000E+01
 -10.600  0.0000E+00  0.0000E+00  0.8000E+01
 -10.590  0.0000E+00  0.0000E+00  0.8000E+01
 -10.580  0.0000E+00  0.0000E+00  0.8000E+01
 -10.570  0.0000E+00  0.0000E+00  0.8000E+01
 -10.560  0.0000E+00  0.0000E+00  0.8000E+01
 -10.550  0.0000E+00  0.0000E+00  0.8000E+01
 -10.540  0.0000E+00  0.0000E+00  0.8000E+01
 -10.530  0.0000E+00  0.0000E+00  0.8000E+01
 -10.520  0.0000E+00  0.0000E+00  0.8000E+01
 -10.510  0.0000E+00  0.0000E+00  0.8000E+01
 -10.500  0.0000E+00  0.0000E+00  0.8000E+01
 -10.490  0.0000E+00  0.0000E+00  0.8000E+01
 -10.480  0.0000E+00  0.0000E+00  0.8000E+01
 -10.470  0.0000E+00  0.0000E+00  0.8000E+01
 -10.460  0.0000E+00  0.0000E+00  0.8000E+01
 -10.450  0.0000E+00  0.0000E+00  0.8000E+01
 -10.440  0.0000E+00  0.0000E+00  0.8000E+01
 -10.430  0.0000E+00  0.0000E+00  0.8000E+01
 -10.420  0.0000E+00  0.0000E+00  0.8000E+01
 -10.410  0.0000E+00  0.0000E+00  0.8000E+01
 -10.400  0.0000E+00  0.0000E+00  0.8000E+01
 -10.390  0.0000E+00  0.0000E+00  0.8000E+01
 -10.380  0.0000E+00  0.0000E+00  0.8000E+01
 -10.370  0.0000E+00  0.0000E+00  0.8000E+01
 -10.360  0.0000E+00  0.0000E+00  0.8000E+01
 -10.350  0.0000E+00  0.0000E+00  0.8000E+01
 -10.340  0.0000E+00  0.0000E+00  0.8000E+01
 -10.330  0.0000E+00  0.0000E+00  0.8000E+01
 -10.320  0.0000E+00  0.0000E+00  0.8000E+01
 -10.310  0.0000E+00  0.0000E+00  0.8000E+01
 -10.300  0.0000E+00  0.0000E+00  0.8000E+01
 -10.290  0.0000E+00  0.0000E+00  0.8000E+01
 -10.280  0.0000E+00  0.0000E+00  0.8000E+01
 -10.270  0.0000E+00  0.0000E+00  0.8000E+01
 -10.260  0.0000E+00  0.0000E+00  0.8000E+01
 -10.250  0.0000E+00  0.0000E+00  0.8000E+01
 -10.240  0.0000E+00  0.0000E+00  0.8000E+01
 -10.230  0.0000E+00  0.0000E+00  0.8000E+01
 -10.220  0.0000E+00  0.0000E+00  0.8000E+01
 -10.210  0.0000E+00  0.0000E+00  0.8000E+01
 -10.200  0.0000E+00  0.0000E+00  0.8000E+01
 -10.190  0.0000E+00  0.0000E+00  0.8000E+01
 -10.180  0.0000E+00  0.0000E+00  0.8000E+01
 -10.170  0.0000E+00  0.0000E+00  0.8000E+01
 -10.160  0.0000E+00  0.0000E+00  0.8000E+01
 -10.150  0.0000E+00  0.0000E+00  0.8000E+01
 -10.140  0.0000E+00  0.0000E+00  0.8000E+01
 -10.130  0.0000E+00  0.0000E+00  0.8000E+01
 -10.120  0.0000E+00  0.0000E+00  0.8000E+01
 -10.110  0.0000E+00  0.0000E+00  0.8000E+01
 -10.100  0.0000E+00  0.0000E+00  0.8000E+01
 -10.090  0.0000E+00  0.0000E+00  0.8000E+01
 -10.080  0.0000E+00  0.0000E+00  0.8000E+01
 -10.070  0.0000E+00  0.0000E+00  0.8000E+01
 -10.060  0.0000E+00  0.0000E+00  0.8000E+01
 -10.050  0.0000E+00  0.0000E+00  0.8000E+01
 -10.040  0.0000E+00  0.0000E+00  0.8000E+01
 -10.030  0.0000E+00  0.0000E+00  0.8000E+01
 -10.020  0.0000E+00  0.0000E+00  0.8000E+01
 -10.010  0.0000E+00  0.0000E+00  0.8000E+01
 -10.000  0.0000E+00  0.0000E+00  0.8000E+01
  -9.990  0.0000E+00  0.0000E+00  0.8000E+01
  -9.980  0.0000E+00  0.0000E+00  0.8000E+01
  -9.970  0.0000E+00  0.0000E+00  0.8000E+01
  -9.960  0.0000E+00  0.0000E+00  0.8000E+01
  -9.950  0.0000E+00  0.0000E+00  0.8000E+01
  -9.940  0.0000E+00  0.0000E+00  0.8000E+01
  -9.930  0.0000E+00  0.0000E+00  0.8000E+01
  -9.920  0.0000E+00  0.0000E+00  0.8000E+01
  -9.910  0.0000E+00  0.0000E+00  0.8000E+01
  -9.900  0.0000E+00  0.0000E+00  0.8000E+01
  -9.890  0.0000E+00  0.0000E+00  0.8000E+01
  -9.880  0.0000E+00  0.0000E+00  0.8000E+01
  -9.870  0.0000E+00  0.0000E+00  0.8000E+01
  -9.860  0.0000E+00  0.0000E+00  0.8000E+01
  -9.850  0.0000E+00  0.0000E+00  0.8000E+01
  -9.840  0.0000E+00  0.0000E+00  0.8000E+01
  -9.830  0.0000E+00  0.0000E+00  0.8000E+01
  -9.820  0.0000E+00  0.0000E+00  0.8000E+01
  -9.810  0.0000E+00  0.0000E+00  0.8000E+01
  -9.800  0.0000E+00  0.0000E+00  0.8000E+01
  -9.790  0.0000E+00  0.0000E+00  0.8000E+01
  -9.780  0.0000E+00  0.0000E+00  0.8000E+01
  -9.770  0.0000E+00  0.0000E+00  0.8000E+01
  -9.760  0.0000E+00  0.0000E+00  0.8000E+01
  -9.750  0.0000E+00  0.0000E+00  0.8000E+01
  -9.740  0.0000E+00  0.0000E+00  0.8000E+01
  -9.730  0.0000E+00  0.0000E+00  0.8000E+01
  -9.720  0.0000E+00  0.0000E+00  0.8000E+01
  -9.710  0.0000E+00  0.0000E+00  0.8000E+01
  -9.700  0.0000E+00  0.0000E+00  0.8000E+01
  -9.690  0.0000E+00  0.0000E+00  0.8000E+01
  -9.680  0.0000E+00  0.0000E+00  0.8000E+01
  -9.670  0.0000E+00  0.0000E+00  0.8000E+01
  -9.660  0.0000E+00  0.0000E+00  0.8000E+01
  -9.650  0.0000E+00  0.0000E+00  0.8000E+01
  -9.640  0.0000E+00  0.0000E+00  0.8000E+01
  -9.630  0.0000E+00  0.0000E+00  0.8000E+01
  -9.620  0.0000E+00  0.0000E+00  0.8000E+01
  -9.610  0.0000E+00  0.0000E+00  0.8000E+01
  -9.600  0.0000E+00  0.0000E+00  0.8000E+01
  -9.590  0.0000E+00  0.0000E+00  0.8000E+01
  -9.580  0.0000E+00  0.0000E+00  0.8000E+01
  -9.570  0.0000E+00  0.0000E+00  0.8000E+01
  -9.560  0.0000E+00  0.0000E+00  0.8000E+01
  -9.550  0.0000E+00  0.0000E+00  0.8000E+01
  -9.540  0.0000E+00  0.0000E+00  0.8000E+01
  -9.530  0.0000E+00  0.0000E+00  0.8000E+01
  -9.520  0.0000E+00  0.0000E+00  0.8000E+01
  -9.510  0.0000E+00  0.0000E+00  0.8000E+01
  -9.500  0.0000E+00  0.0000E+00  0.8000E+01
  -9.490  0.0000E+00  0.0000E+00  0.8000E+01
  -9.480  0.0000E+00  0.0000E+00  0.8000E+01
  -9.470  0.0000E+00  0.0000E+00  0.8000E+01
  -9.460  0.0000E+00  0.0000E+00  0.8000E+01
  -9.450  0.0000E+00  0.0000E+00  0.8000E+01
  -9.440  0.0000E+00  0.0000E+00  0.8000E+01
  -9.430  0.0000E+00  0.0000E+00  0.8000E+01
  -9.420  0.0000E+00  0.0000E+00  0.8000E+01
  -9.410  0.0000E+00  0.0000E+00  0.8000E+01
  -9.400  0.0000E+00  0.0000E+00  0.8000E+01
  -9.390  0.0000E+00  0.0000E+00  0.8000E+01
  -9.380  0.0000E+00  0.0000E+00  0.8000E+01
  -9.370  0.0000E+00  0.0000E+00  0.8000E+01
  -9.360  0.0000E+00  0.0000E+00  0.8000E+01
  -9.350  0.0000E+00  0.0000E+00  0.8000E+01
  -9.340  0.0000E+00  0.0000E+00  0.8000E+01
  -9.330  0.0000E+00  0.0000E+00  0.8000E+01
  -9.320  0.0000E+00  0.0000E+00  0.8000E+01
  -9.310  0.0000E+00  0.0000E+00  0.8000E+01
  -9.300  0.0000E+00  0.0000E+00  0.8000E+01
  -9.290  0.0000E+00  0.0000E+00  0.8000E+01
  -9.280  0.0000E+00  0.0000E+00  0.8000E+01
  -9.270  0.0000E+00  0.0000E+00  0.8000E+01
  -9.260  0.0000E+00  0.0000E+00  0.8000E+01
  -9.250  0.0000E+00  0.0000E+00  0.8000E+01
  -9.240  0.0000E+00  0.0000E+00  0.8000E+01
  -9.230  0.0000E+00  0.0000E+00  0.8000E+01
  -9.220  0.0000E+00  0.0000E+00  0.8000E+01
  -9.210  0.0000E+00  0.0000E+00  0.8000E+01
  -9.200  0.0000E+00  0.0000E+00  0.8000E+01
  -9.190  0.0000E+00  0.0000E+00  0.8000E+01
  -9.180  0.0000E+00  0.0000E+00  0.8000E+01
  -9.170  0.0000E+00  0.0000E+00  0.8000E+01
  -9.160  0.0000E+00  0.0000E+00  0.8000E+01
  -9.150  0.0000E+00  0.0000E+00  0.8000E+01
  -9.140  0.0000E+00  0.0000E+00  0.8000E+01
  -9.130  0.0000E+00  0.0000E+00  0.8000E+01
  -9.120  0.0000E+00  0.0000E+00  0.8000E+01
  -9.110  0.0000E+00  0.0000E+00  0.8000E+01
  -9.100  0.0000E+00  0.0000E+00  0.8000E+01
  -9.090  0.0000E+00  0.0000E+00  0.8000E+01
  -9.080  0.0000E+00  0.0000E+00  0.8000E+01
  -9.070  0.0000E+00  0.0000E+00  0.8000E+01
  -9.060  0.0000E+00  0.0000E+00  0.8000E+01
  -9.050  0.0000E+00  0.0000E+00  0.8000E+01
  -9.040  0.0000E+00  0.0000E+00  0.8000E+01
  -9.030  0.0000E+00  0.0000E+00  0.8000E+01
  -9.020  0.0000E+00  0.0000E+00  0.8000E+01
  -9.010  0.0000E+00  0.0000E+00  0.8000E+01
  -9.000  0.0000E+00  0.0000E+00  0.8000E+01
  -8.990  0.0000E+00  0.0000E+00  0.8000E+01
  -8.980  0.0000E+00  0.0000E+00  0.8000E+01
  -8.970  0.0000E+00  0.0000E+00  0.8000E+01
  -8.960  0.0000E+00  0.0000E+00  0.8000E+01
  -8.950  0.0000E+00  0.0000E+00  0.8000E+01
  -8.940  0.0000E+00  0.0000E+00  0.8000E+01
  -8.930  0.0000E+00  0.0000E+00  0.8000E+01
  -8.920  0.0000E+00  0.0000E+00  0.8000E+01
  -8.910  0.0000E+00  0.0000E+00  0.8000E+01
  -8.900  0.0000E+00  0.0000E+00  0.8000E+01
  -8.890  0.0000E+00  0.0000E+00  0.8000E+01
  -8.880  0.0000E+00  0.0000E+00  0.8000E+01
  -8.870  0.0000E+00  0.0000E+00  0.8000E+01
  -8.860  0.0000E+00  0.0000E+00  0.8000E+01
  -8.850  0.0000E+00  0.0000E+00  0.8000E+01
  -8.840  0.0000E+00  0.0000E+00  0.8000E+01
  -8.830  0.0000E+00  0.0000E+00  0.8000E+01
  -8.820  0.0000E+00  0.0000E+00  0.8000E+01
  -8.810  0.0000E+00  0.0000E+00  0.8000E+01
  -8.800  0.0000E+00  0.0000E+00  0.8000E+01
  -8.790  0.0000E+00  0.0000E+00  0.8000E+01
  -8.780  0.0000E+00  0.0000E+00  0.8000E+01
  -8.770  0.0000E+00  0.0000E+00  0.8000E+01
  -8.760  0.0000E+00  0.0000E+00  0.8000E+01
  -8.750  0.0000E+00  0.0000E+00  0.8000E+01
  -8.740  0.0000E+00  0.0000E+00  0.8000E+01
  -8.730  0.0000E+00  0.0000E+00  0.8000E+01
  -8.720  0.0000E+00  0.0000E+00  0.8000E+01
  -8.710  0.0000E+00  0.0000E+00  0.8000E+01
  -8.700  0.0000E+00  0.0000E+00  0.8000E+01
  -8.690  0.0000E+00  0.0000E+00  0.8000E+01
  -8.680  0.0000E+00  0.0000E+00  0.8000E+01
  -8.670  0.0000E+00  0.0000E+00  0.8000E+01
  -8.660  0.0000E+00  0.0000E+00  0.8000E+01
  -8.650  0.0000E+00  0.0000E+00  0.8000E+01
  -8.640  0.0000E+00  0.0000E+00  0.8000E+01
  -8.630  0.0000E+00  0.0000E+00  0.8000E+01
  -8.620  0.0000E+00  0.0000E+00  0.8000E+01
  -8.610  0.0000E+00  0.0000E+00  0.8000E+01
  -8.600  0.0000E+00  0.0000E+00  0.8000E+01
  -8.590  0.0000E+00  0.0000E+00  0.8000E+01
  -8.580  0.0000E+00  0.0000E+00  0.8000E+01
  -8.570  0.0000E+00  0.0000E+00  0.8000E+01
  -8.560  0.0000E+00  0.0000E+00  0.8000E+01
  -8.550  0.0000E+00  0.0000E+00  0.8000E+01
  -8.540  0.0000E+00  0.0000E+00  0.8000E+01
  -8.530  0.0000E+00  0.0000E+00  0.8000E+01
  -8.520  0.0000E+00  0.0000E+00  0.8000E+01
  -8.510  0.0000E+00  0.0000E+00  0.8000E+01
  -8.500  0.0000E+00  0.0000E+00  0.8000E+01
  -8.490  0.0000E+00  0.0000E+00  0.8000E+01
  -8.480  0.0000E+00  0.0000E+00  0.8000E+01
  -8.470  0.0000E+00  0.0000E+00  0.8000E+01
  -8.460  0.0000E+00  0.0000E+00  0.8000E+01
  -8.450  0.0000E+00  0.0000E+00  0.8000E+01
  -8.440  0.0000E+00  0.0000E+00  0.8000E+01
  -8.430  0.0000E+00  0.0000E+00  0.8000E+01
  -8.420  0.0000E+00  0.0000E+00  0.8000E+01
  -8.410  0.0000E+00  0.0000E+00  0.8000E+01
  -8.400  0.0000E+00  0.0000E+00  0.8000E+01
  -8.390  0.0000E+00  0.0000E+00  0.8000E+01
  -8.380  0.0000E+00  0.0000E+00  0.8000E+01
  -8.370  0.0000E+00  0.0000E+00  0.8000E+01
  -8.360  0.0000E+00  0.0000E+00  0.8000E+01
  -8.350  0.0000E+00  0.0000E+00  0.8000E+01
  -8.340  0.0000E+00  0.0000E+00  0.8000E+01
  -8.330  0.0000E+00  0.0000E+00  0.8000E+01
  -8.320  0.0000E+00  0.0000E+00  0.8000E+01
  -8.310  0.0000E+00  0.0000E+00  0.8000E+01
  -8.300  0.0000E+00  0.0000E+00  0.8000E+01
  -8.290  0.0000E+00  0.0000E+00  0.8000E+01
  -8.280  0.0000E+00  0.0000E+00  0.8000E+01
  -8.270  0.0000E+00  0.0000E+00  0.8000E+01
  -8.260  0.0000E+00  0.0000E+00  0.8000E+01
  -8.250  0.0000E+00  0.0000E+00  0.8000E+01
  -8.240  0.0000E+00  0.0000E+00  0.8000E+01
  -8.230  0.0000E+00  0.0000E+00  0.8000E+01
  -8.220  0.0000E+00  0.0000E+00  0.8000E+01
  -8.210  0.0000E+00  0.0000E+00  0.8000E+01
  -8.200  0.0000E+00  0.0000E+00  0.8000E+01
  -8.190  0.0000E+00  0.0000E+00  0.8000E+01
  -8.180  0.0000E+00  0.0000E+00  0.8000E+01
  -8.170  0.0000E+00  0.0000E+00  0.8000E+01
  -8.160  0.0000E+00  0.0000E+00  0.8000E+01
  -8.150  0.0000E+00  0.0000E+00  0.8000E+01
  -8.140  0.0000E+00  0.0000E+00  0.8000E+01
  -8.130  0.0000E+00  0.0000E+00  0.8000E+01
  -8.120  0.0000E+00  0.0000E+00  0.8000E+01
  -8.110  0.0000E+00  0.0000E+00  0.8000E+01
  -8.100  0.0000E+00  0.0000E+00  0.8000E+01
  -8.090  0.0000E+00  0.0000E+00  0.8000E+01
  -8.080  0.0000E+00  0.0000E+00  0.8000E+01
  -8.070  0.0000E+00  0.0000E+00  0.8000E+01
  -8.060  0.0000E+00  0.0000E+00  0.8000E+01
  -8.050  0.0000E+00  0.0000E+00  0.8000E+01
  -8.040  0.0000E+00  0.0000E+00  0.8000E+01
  -8.030  0.0000E+00  0.0000E+00  0.8000E+01
  -8.020  0.0000E+00  0.0000E+00  0.8000E+01
  -8.010  0.0000E+00  0.0000E+00  0.8000E+01
  -8.000  0.0000E+00  0.0000E+00  0.8000E+01
  -7.990  0.0000E+00  0.0000E+00  0.8000E+01
  -7.980  0.0000E+00  0.0000E+00  0.8000E+01
  -7.970  0.0000E+00  0.0000E+00  0.8000E+01
  -7.960  0.0000E+00  0.0000E+00  0.8000E+01
  -7.950  0.0000E+00  0.0000E+00  0.8000E+01
  -7.940  0.0000E+00  0.0000E+00  0.8000E+01
  -7.930  0.0000E+00  0.0000E+00  0.8000E+01
  -7.920  0.0000E+00  0.0000E+00  0.8000E+01
  -7.910  0.0000E+00  0.0000E+00  0.8000E+01
  -7.900  0.0000E+00  0.0000E+00  0.8000E+01
  -7.890  0.0000E+00  0.0000E+00  0.8000E+01
  -7.880  0.0000E+00  0.0000E+00  0.8000E+01
  -7.870  0.0000E+00  0.0000E+00  0.8000E+01
  -7.860  0.0000E+00  0.0000E+00  0.8000E+01
  -7.850  0.0000E+00  0.0000E+00  0.8000E+01
  -7.840  0.0000E+00  0.0000E+00  0.8000E+01
  -7.830  0.0000E+00  0.0000E+00  0.8000E+01
  -7.820  0.0000E+00  0.0000E+00  0.8000E+01
  -7.810  0.0000E+00  0.0000E+00  0.8000E+01
  -7.800  0.0000E+00  0.0000E+00  0.8000E+01
  -7.790  0.0000E+00  0.0000E+00  0.8000E+01
  -7.780  0.0000E+00  0.0000E+00  0.8000E+01
  -7.770  0.0000E+00  0.0000E+00  0.8000E+01
  -7.760  0.0000E+00  0.0000E+00  0.8000E+01
  -7.750  0.0000E+00  0.0000E+00  0.8000E+01
  -7.740  0.0000E+00  0.0000E+00  0.8000E+01
  -7.730  0.0000E+00  0.0000E+00  0.8000E+01
  -7.720  0.0000E+00  0.0000E+00  0.8000E+01
  -7.710  0.0000E+00  0.0000E+00  0.8000E+01
  -7.700  0.0000E+00  0.0000E+00  0.8000E+01
  -7.690  0.0000E+00  0.0000E+00  0.8000E+01
  -7.680  0.0000E+00  0.0000E+00  0.8000E+01
  -7.670  0.0000E+00  0.0000E+00  0.8000E+01
  -7.660  0.0000E+00  0.0000E+00  0.8000E+01
  -7.650  0.0000E+00  0.0000E+00  0.8000E+01
  -7.640  0.0000E+00  0.0000E+00  0.8000E+01
  -7.630  0.0000E+00  0.0000E+00  0.8000E+01
  -7.620  0.0000E+00  0.0000E+00  0.8000E+01
  -7.610  0.0000E+00  0.0000E+00  0.8000E+01
  -7.600  0.0000E+00  0.0000E+00  0.8000E+01
  -7.590  0.0000E+00  0.0000E+00  0.8000E+01
  -7.580  0.0000E+00  0.0000E+00  0.8000E+01
  -7.570  0.0000E+00  0.0000E+00  0.8000E+01
  -7.560  0.0000E+00  0.0000E+00  0.8000E+01
  -7.550  0.0000E+00  0.0000E+00  0.8000E+01
  -7.540  0.0000E+00  0.0000E+00  0.8000E+01
  -7.530  0.0000E+00  0.0000E+00  0.8000E+01
  -7.520  0.0000E+00  0.0000E+00  0.8000E+01
  -7.510  0.0000E+00  0.0000E+00  0.8000E+01
  -7.500  0.0000E+00  0.0000E+00  0.8000E+01
  -7.490  0.0000E+00  0.0000E+00  0.8000E+01
  -7.480  0.0000E+00  0.0000E+00  0.8000E+01
  -7.470  0.1258E-02  0.0000E+00  0.8000E+01
  -7.460  0.2725E+00  0.0000E+00  0.8001E+01
  -7.450  0.1383E+01  0.1155E+00  0.8009E+01
  -7.440  0.1994E+01  0.1120E+01  0.8032E+01
  -7.430  0.2224E+01  0.1903E+01  0.8069E+01
  -7.420  0.2551E+01  0.2168E+01  0.8113E+01
  -7.410  0.2982E+01  0.2462E+01  0.8164E+01
  -7.400  0.3443E+01  0.2885E+01  0.8222E+01
  -7.390  0.3676E+01  0.3353E+01  0.8289E+01
  -7.380  0.3798E+01  0.3671E+01  0.8362E+01
  -7.370  0.3961E+01  0.3799E+01  0.8438E+01
  -7.360  0.4331E+01  0.3974E+01  0.8518E+01
  -7.350  0.4756E+01  0.4328E+01  0.8605E+01
  -7.340  0.5312E+01  0.4774E+01  0.8701E+01
  -7.330  0.5919E+01  0.5352E+01  0.8808E+01
  -7.320  0.5717E+01  0.6014E+01  0.8923E+01
  -7.310  0.5462E+01  0.5773E+01  0.9040E+01
  -7.300  0.5132E+01  0.5545E+01  0.9150E+01
  -7.290  0.5157E+01  0.5205E+01  0.9254E+01
  -7.280  0.5616E+01  0.4964E+01  0.9359E+01
  -7.270  0.5708E+01  0.5256E+01  0.9466E+01
  -7.260  0.5882E+01  0.5589E+01  0.9579E+01
  -7.250  0.6161E+01  0.5751E+01  0.9695E+01
  -7.240  0.6582E+01  0.6008E+01  0.9817E+01
  -7.230  0.7873E+01  0.6377E+01  0.9952E+01
  -7.220  0.8317E+01  0.7395E+01  0.1010E+02
  -7.210  0.8368E+01  0.8343E+01  0.1026E+02
  -7.200  0.8369E+01  0.8409E+01  0.1043E+02
  -7.190  0.8381E+01  0.8479E+01  0.1060E+02
  -7.180  0.8845E+01  0.8470E+01  0.1077E+02
  -7.170  0.9640E+01  0.8921E+01  0.1095E+02
  -7.160  0.9297E+01  0.9587E+01  0.1114E+02
  -7.150  0.8371E+01  0.9517E+01  0.1132E+02
  -7.140  0.7692E+01  0.8677E+01  0.1149E+02
  -7.130  0.7932E+01  0.7775E+01  0.1165E+02
  -7.120  0.8756E+01  0.7759E+01  0.1181E+02
  -7.110  0.9602E+01  0.8403E+01  0.1198E+02
  -7.100  0.1044E+02  0.9325E+01  0.1217E+02
  -7.090  0.1018E+02  0.1023E+02  0.1238E+02
  -7.080  0.1179E+02  0.9997E+01  0.1258E+02
  -7.070  0.1146E+02  0.1052E+02  0.1280E+02
  -7.060  0.1108E+02  0.1172E+02  0.1303E+02
  -7.050  0.1263E+02  0.1119E+02  0.1327E+02
  -7.040  0.1069E+02  0.1305E+02  0.1351E+02
  -7.030  0.1174E+02  0.1048E+02  0.1373E+02
  -7.020  0.1263E+02  0.1186E+02  0.1397E+02
  -7.010  0.1233E+02  0.1271E+02  0.1421E+02
  -7.000  0.1297E+02  0.1221E+02  0.1446E+02
  -6.990  0.1317E+02  0.1247E+02  0.1471E+02
  -6.980  0.1312E+02  0.1376E+02  0.1498E+02
  -6.970  0.1218E+02  0.1299E+02  0.1524E+02
  -6.960  0.1259E+02  0.1200E+02  0.1549E+02
  -6.950  0.1257E+02  0.1240E+02  0.1574E+02
  -6.940  0.1180E+02  0.1327E+02  0.1599E+02
  -6.930  0.1230E+02  0.1170E+02  0.1623E+02
  -6.920  0.1360E+02  0.1204E+02  0.1647E+02
  -6.910  0.1619E+02  0.1274E+02  0.1675E+02
  -6.900  0.1724E+02  0.1514E+02  0.1705E+02
  -6.890  0.1903E+02  0.1660E+02  0.1740E+02
  -6.880  0.2081E+02  0.1850E+02  0.1777E+02
  -6.870  0.2129E+02  0.2007E+02  0.1817E+02
  -6.860  0.2644E+02  0.2068E+02  0.1861E+02
  -6.850  0.2370E+02  0.2341E+02  0.1909E+02
  -6.840  0.1920E+02  0.2684E+02  0.1958E+02
  -6.830  0.1404E+02  0.2088E+02  0.1998E+02
  -6.820  0.1217E+02  0.1463E+02  0.2029E+02
  -6.810  0.1218E+02  0.1218E+02  0.2054E+02
  -6.800  0.1338E+02  0.1161E+02  0.2078E+02
  -6.790  0.1512E+02  0.1254E+02  0.2104E+02
  -6.780  0.1769E+02  0.1400E+02  0.2134E+02
  -6.770  0.2096E+02  0.1669E+02  0.2169E+02
  -6.760  0.3314E+02  0.2099E+02  0.2217E+02
  -6.750  0.2984E+02  0.3188E+02  0.2279E+02
  -6.740  0.2538E+02  0.3128E+02  0.2341E+02
  -6.730  0.3022E+02  0.2575E+02  0.2396E+02
  -6.720  0.2723E+02  0.2848E+02  0.2449E+02
  -6.710  0.2450E+02  0.2833E+02  0.2505E+02
  -6.700  0.1755E+02  0.2458E+02  0.2552E+02
  -6.690  0.1859E+02  0.1729E+02  0.2590E+02
  -6.680  0.2915E+02  0.1722E+02  0.2630E+02
  -6.670  0.2992E+02  0.2502E+02  0.2682E+02
  -6.660  0.3258E+02  0.3045E+02  0.2744E+02
  -6.650  0.3334E+02  0.3027E+02  0.2807E+02
  -6.640  0.3196E+02  0.3248E+02  0.2872E+02
  -6.630  0.2927E+02  0.3460E+02  0.2936E+02
  -6.620  0.3275E+02  0.2957E+02  0.2998E+02
  -6.610  0.6111E+02  0.3293E+02  0.3075E+02
  -6.600  0.6420E+02  0.6501E+02  0.3180E+02
  -6.590  0.4216E+02  0.6409E+02  0.3294E+02
  -6.580  0.3696E+02  0.4110E+02  0.3393E+02
  -6.570  0.3580E+02  0.3699E+02  0.3470E+02
  -6.560  0.4151E+02  0.3535E+02  0.3544E+02
  -6.550  0.4633E+02  0.3790E+02  0.3625E+02
  -6.540  0.4920E+02  0.4595E+02  0.3716E+02
  -6.530  0.4665E+02  0.5892E+02  0.3811E+02
  -6.520  0.4766E+02  0.4277E+02  0.3905E+02
  -6.510  0.4925E+02  0.4507E+02  0.3997E+02
  -6.500  0.5207E+02  0.4785E+02  0.4095E+02
  -6.490  0.5259E+02  0.4918E+02  0.4196E+02
  -6.480  0.6503E+02  0.5388E+02  0.4305E+02
  -6.470  0.8385E+02  0.5765E+02  0.4434E+02
  -6.460  0.5882E+02  0.8513E+02  0.4581E+02
  -6.450  0.4108E+02  0.6863E+02  0.4715E+02
  -6.440  0.4838E+02  0.3209E+02  0.4814E+02
  -6.430  0.4890E+02  0.8861E+02  0.4921E+02
  -6.420  0.4220E+02  0.5545E+02  0.5014E+02
  -6.410  0.5707E+02  0.4090E+02  0.5110E+02
  -6.400  0.6721E+02  0.4214E+02  0.5210E+02
  -6.390  0.5284E+02  0.5605E+02  0.5307E+02
  -6.380  0.1090E+03  0.5151E+02  0.5439E+02
  -6.370  0.6208E+02  0.1088E+03  0.5571E+02
  -6.360  0.4631E+02  0.4619E+02  0.5678E+02
  -6.350  0.6182E+02  0.5796E+02  0.5782E+02
  -6.340  0.7655E+02  0.5004E+02  0.5917E+02
  -6.330  0.6478E+02  0.5995E+02  0.6037E+02
  -6.320  0.7243E+02  0.6038E+02  0.6167E+02
  -6.310  0.5553E+02  0.1029E+03  0.6307E+02
  -6.300  0.4118E+02  0.8756E+02  0.6462E+02
  -6.290  0.2096E+02  0.4235E+02  0.6559E+02
  -6.280  0.1360E+02  0.1288E+02  0.6606E+02
  -6.270  0.4247E+02  0.3455E-01  0.6639E+02
  -6.260  0.4001E+02  0.0000E+00  0.6681E+02
  -6.250  0.3150E+02  0.0000E+00  0.6717E+02
  -6.240  0.2565E+02  0.0000E+00  0.6744E+02
  -6.230  0.2951E+02  0.0000E+00  0.6770E+02
  -6.220  0.5297E+02  0.1258E+02  0.6813E+02
  -6.210  0.4689E+02  0.3754E+02  0.6887E+02
  -6.200  0.1533E+02  0.5016E+02  0.6966E+02
  -6.190  0.0000E+00  0.3843E+02  0.7014E+02
  -6.180  0.0000E+00  0.2982E+02  0.7047E+02
  -6.170  0.0000E+00  0.4041E+02  0.7078E+02
  -6.160  0.0000E+00  0.7575E+02  0.7135E+02
  -6.150  0.0000E+00  0.2807E+02  0.7190E+02
  -6.140  0.0000E+00  0.1187E-02  0.7200E+02
  -6.130  0.0000E+00  0.0000E+00  0.7200E+02
  -6.120  0.0000E+00  0.0000E+00  0.7200E+02
  -6.110  0.0000E+00  0.0000E+00  0.7200E+02
  -6.100  0.0000E+00  0.0000E+00  0.7200E+02
  -6.090  0.0000E+00  0.0000E+00  0.7200E+02
  -6.080  0.0000E+00  0.0000E+00  0.7200E+02
  -6.070  0.0000E+00  0.0000E+00  0.7200E+02
  -6.060  0.0000E+00  0.0000E+00  0.7200E+02
  -6.050  0.0000E+00  0.0000E+00  0.7200E+02
  -6.040  0.0000E+00  0.0000E+00  0.7200E+02
  -6.030  0.0000E+00  0.0000E+00  0.7200E+02
  -6.020  0.0000E+00  0.0000E+00  0.7200E+02
  -6.010  0.0000E+00  0.0000E+00  0.7200E+02
  -6.000  0.0000E+00  0.0000E+00  0.7200E+02
  -5.990  0.0000E+00  0.0000E+00  0.7200E+02
  -5.980  0.0000E+00  0.0000E+00  0.7200E+02
  -5.970  0.0000E+00  0.0000E+00  0.7200E+02
  -5.960  0.0000E+00  0.0000E+00  0.7200E+02
  -5.950  0.0000E+00  0.0000E+00  0.7200E+02
  -5.940  0.0000E+00  0.0000E+00  0.7200E+02
  -5.930  0.0000E+00  0.0000E+00  0.7200E+02
  -5.920  0.0000E+00  0.0000E+00  0.7200E+02
  -5.910  0.0000E+00  0.0000E+00  0.7200E+02
  -5.900  0.0000E+00  0.0000E+00  0.7200E+02
  -5.890  0.0000E+00  0.0000E+00  0.7200E+02
  -5.880  0.0000E+00  0.0000E+00  0.7200E+02
  -5.870  0.0000E+00  0.0000E+00  0.7200E+02
  -5.860  0.0000E+00  0.0000E+00  0.7200E+02
  -5.850  0.0000E+00  0.0000E+00  0.7200E+02
  -5.840  0.0000E+00  0.0000E+00  0.7200E+02
  -5.830  0.0000E+00  0.0000E+00  0.7200E+02
  -5.820  0.0000E+00  0.0000E+00  0.7200E+02
  -5.810  0.0000E+00  0.0000E+00  0.7200E+02
  -5.800  0.0000E+00  0.0000E+00  0.7200E+02
  -5.790  0.0000E+00  0.0000E+00  0.7200E+02
  -5.780  0.0000E+00  0.0000E+00  0.7200E+02
  -5.770  0.0000E+00  0.0000E+00  0.7200E+02
  -5.760  0.0000E+00  0.0000E+00  0.7200E+02
  -5.750  0.0000E+00  0.0000E+00  0.7200E+02
  -5.740  0.0000E+00  0.0000E+00  0.7200E+02
  -5.730  0.0000E+00  0.0000E+00  0.7200E+02
  -5.720  0.0000E+00  0.0000E+00  0.7200E+02
  -5.710  0.0000E+00  0.0000E+00  0.7200E+02
  -5.700  0.0000E+00  0.0000E+00  0.7200E+02
  -5.690  0.0000E+00  0.0000E+00  0.7200E+02
  -5.680  0.0000E+00  0.0000E+00  0.7200E+02
  -5.670  0.0000E+00  0.0000E+00  0.7200E+02
  -5.660  0.0000E+00  0.0000E+00  0.7200E+02
  -5.650  0.0000E+00  0.0000E+00  0.7200E+02
  -5.640  0.0000E+00  0.0000E+00  0.7200E+02
  -5.630  0.0000E+00  0.0000E+00  0.7200E+02
  -5.620  0.0000E+00  0.0000E+00  0.7200E+02
  -5.610  0.0000E+00  0.0000E+00  0.7200E+02
  -5.600  0.0000E+00  0.0000E+00  0.7200E+02
  -5.590  0.0000E+00  0.0000E+00  0.7200E+02
  -5.580  0.0000E+00  0.0000E+00  0.7200E+02
  -5.570  0.0000E+00  0.0000E+00  0.7200E+02
  -5.560  0.0000E+00  0.0000E+00  0.7200E+02
  -5.550  0.0000E+00  0.0000E+00  0.7200E+02
  -5.540  0.0000E+00  0.0000E+00  0.7200E+02
  -5.530  0.0000E+00  0.0000E+00  0.7200E+02
  -5.520  0.0000E+00  0.0000E+00  0.7200E+02
  -5.510  0.0000E+00  0.0000E+00  0.7200E+02
  -5.500  0.0000E+00  0.0000E+00  0.7200E+02
  -5.490  0.0000E+00  0.0000E+00  0.7200E+02
  -5.480  0.0000E+00  0.0000E+00  0.7200E+02
  -5.470  0.0000E+00  0.0000E+00  0.7200E+02
  -5.460  0.0000E+00  0.0000E+00  0.7200E+02
  -5.450  0.0000E+00  0.0000E+00  0.7200E+02
  -5.440  0.0000E+00  0.0000E+00  0.7200E+02
  -5.430  0.0000E+00  0.0000E+00  0.7200E+02
  -5.420  0.0000E+00  0.0000E+00  0.7200E+02
  -5.410  0.0000E+00  0.0000E+00  0.7200E+02
  -5.400  0.0000E+00  0.0000E+00  0.7200E+02
  -5.390  0.0000E+00  0.0000E+00  0.7200E+02
  -5.380  0.0000E+00  0.0000E+00  0.7200E+02
  -5.370  0.0000E+00  0.0000E+00  0.7200E+02
  -5.360  0.0000E+00  0.0000E+00  0.7200E+02
  -5.350  0.0000E+00  0.0000E+00  0.7200E+02
  -5.340  0.0000E+00  0.0000E+00  0.7200E+02
  -5.330  0.0000E+00  0.0000E+00  0.7200E+02
  -5.320  0.0000E+00  0.0000E+00  0.7200E+02
  -5.310  0.0000E+00  0.0000E+00  0.7200E+02
  -5.300  0.0000E+00  0.0000E+00  0.7200E+02
  -5.290  0.0000E+00  0.0000E+00  0.7200E+02
  -5.280  0.0000E+00  0.0000E+00  0.7200E+02
  -5.270  0.0000E+00  0.0000E+00  0.7200E+02
  -5.260  0.0000E+00  0.0000E+00  0.7200E+02
  -5.250  0.0000E+00  0.0000E+00  0.7200E+02
  -5.240  0.0000E+00  0.0000E+00  0.7200E+02
  -5.230  0.0000E+00  0.0000E+00  0.7200E+02
  -5.220  0.0000E+00  0.0000E+00  0.7200E+02
  -5.210  0.0000E+00  0.0000E+00  0.7200E+02
  -5.200  0.0000E+00  0.0000E+00  0.7200E+02
  -5.190  0.0000E+00  0.0000E+00  0.7200E+02
  -5.180  0.0000E+00  0.0000E+00  0.7200E+02
  -5.170  0.0000E+00  0.0000E+00  0.7200E+02
  -5.160  0.0000E+00  0.0000E+00  0.7200E+02
  -5.150  0.0000E+00  0.0000E+00  0.7200E+02
  -5.140  0.0000E+00  0.0000E+00  0.7200E+02
  -5.130  0.0000E+00  0.0000E+00  0.7200E+02
  -5.120  0.0000E+00  0.0000E+00  0.7200E+02
  -5.110  0.0000E+00  0.0000E+00  0.7200E+02
  -5.100  0.0000E+00  0.0000E+00  0.7200E+02
  -5.090  0.0000E+00  0.0000E+00  0.7200E+02
  -5.080  0.0000E+00  0.0000E+00  0.7200E+02
  -5.070  0.0000E+00  0.0000E+00  0.7200E+02
  -5.060  0.0000E+00  0.0000E+00  0.7200E+02
  -5.050  0.0000E+00  0.0000E+00  0.7200E+02
  -5.040  0.0000E+00  0.0000E+00  0.7200E+02
  -5.030  0.0000E+00  0.0000E+00  0.7200E+02
  -5.020  0.0000E+00  0.0000E+00  0.7200E+02
  -5.010  0.0000E+00  0.0000E+00  0.7200E+02
  -5.000  0.0000E+00  0.0000E+00  0.7200E+02
  -4.990  0.0000E+00  0.0000E+00  0.7200E+02
  -4.980  0.0000E+00  0.0000E+00  0.7200E+02
  -4.970  0.0000E+00  0.0000E+00  0.7200E+02
  -4.960  0.0000E+00  0.0000E+00  0.7200E+02
  -4.950  0.0000E+00  0.0000E+00  0.7200E+02
  -4.940  0.0000E+00  0.0000E+00  0.7200E+02
  -4.930  0.0000E+00  0.0000E+00  0.7200E+02
  -4.920  0.0000E+00  0.0000E+00  0.7200E+02
  -4.910  0.0000E+00  0.0000E+00  0.7200E+02
  -4.900  0.0000E+00  0.0000E+00  0.7200E+02
  -4.890  0.0000E+00  0.0000E+00  0.7200E+02
  -4.880  0.0000E+00  0.0000E+00  0.7200E+02
  -4.870  0.0000E+00  0.0000E+00  0.7200E+02
  -4.860  0.0000E+00  0.0000E+00  0.7200E+02
  -4.850  0.0000E+00  0.0000E+00  0.7200E+02
  -4.840  0.0000E+00  0.0000E+00  0.7200E+02
  -4.830  0.0000E+00  0.0000E+00  0.7200E+02
  -4.820  0.0000E+00  0.0000E+00  0.7200E+02
  -4.810  0.0000E+00  0.0000E+00  0.7200E+02
  -4.800  0.0000E+00  0.0000E+00  0.7200E+02
  -4.790  0.0000E+00  0.0000E+00  0.7200E+02
  -4.780  0.0000E+00  0.0000E+00  0.7200E+02
  -4.770  0.0000E+00  0.0000E+00  0.7200E+02
  -4.760  0.0000E+00  0.0000E+00  0.7200E+02
  -4.750  0.0000E+00  0.0000E+00  0.7200E+02
  -4.740  0.0000E+00  0.0000E+00  0.7200E+02
  -4.730  0.0000E+00  0.0000E+00  0.7200E+02
  -4.720  0.0000E+00  0.0000E+00  0.7200E+02
  -4.710  0.0000E+00  0.0000E+00  0.7200E+02
  -4.700  0.0000E+00  0.0000E+00  0.7200E+02
  -4.690  0.0000E+00  0.0000E+00  0.7200E+02
  -4.680  0.0000E+00  0.0000E+00  0.7200E+02
  -4.670  0.0000E+00  0.0000E+00  0.7200E+02
  -4.660  0.0000E+00  0.0000E+00  0.7200E+02
  -4.650  0.0000E+00  0.0000E+00  0.7200E+02
  -4.640  0.0000E+00  0.0000E+00  0.7200E+02
  -4.630  0.0000E+00  0.0000E+00  0.7200E+02
  -4.620  0.0000E+00  0.0000E+00  0.7200E+02
  -4.610  0.0000E+00  0.0000E+00  0.7200E+02
  -4.600  0.0000E+00  0.0000E+00  0.7200E+02
  -4.590  0.0000E+00  0.0000E+00  0.7200E+02
  -4.580  0.0000E+00  0.0000E+00  0.7200E+02
  -4.570  0.0000E+00  0.0000E+00  0.7200E+02
  -4.560  0.0000E+00  0.0000E+00  0.7200E+02
  -4.550  0.0000E+00  0.0000E+00  0.7200E+02
  -4.540  0.0000E+00  0.0000E+00  0.7200E+02
  -4.530  0.0000E+00  0.0000E+00  0.7200E+02
  -4.520  0.0000E+00  0.0000E+00  0.7200E+02
  -4.510  0.0000E+00  0.0000E+00  0.7200E+02
  -4.500  0.0000E+00  0.0000E+00  0.7200E+02
  -4.490  0.0000E+00  0.0000E+00  0.7200E+02
  -4.480  0.0000E+00  0.0000E+00  0.7200E+02
  -4.470  0.0000E+00  0.0000E+00  0.7200E+02
  -4.460  0.0000E+00  0.0000E+00  0.7200E+02
  -4.450  0.0000E+00  0.0000E+00  0.7200E+02
  -4.440  0.0000E+00  0.0000E+00  0.7200E+02
  -4.430  0.0000E+00  0.0000E+00  0.7200E+02
  -4.420  0.0000E+00  0.0000E+00  0.7200E+02
  -4.410  0.0000E+00  0.0000E+00  0.7200E+02
  -4.400  0.0000E+00  0.0000E+00  0.7200E+02
  -4.390  0.0000E+00  0.0000E+00  0.7200E+02
  -4.380  0.0000E+00  0.0000E+00  0.7200E+02
  -4.370  0.0000E+00  0.0000E+00  0.7200E+02
  -4.360  0.0000E+00  0.0000E+00  0.7200E+02
  -4.350  0.0000E+00  0.0000E+00  0.7200E+02
  -4.340  0.0000E+00  0.0000E+00  0.7200E+02
  -4.330  0.0000E+00  0.0000E+00  0.7200E+02
  -4.320  0.0000E+00  0.0000E+00  0.7200E+02
  -4.310  0.0000E+00  0.0000E+00  0.7200E+02
  -4.300  0.0000E+00  0.0000E+00  0.7200E+02
  -4.290  0.0000E+00  0.0000E+00  0.7200E+02
  -4.280  0.0000E+00  0.0000E+00  0.7200E+02
  -4.270  0.0000E+00  0.0000E+00  0.7200E+02
  -4.260  0.0000E+00  0.0000E+00  0.7200E+02
  -4.250  0.0000E+00  0.0000E+00  0.7200E+02
  -4.240  0.0000E+00  0.0000E+00  0.7200E+02
  -4.230  0.0000E+00  0.0000E+00  0.7200E+02
  -4.220  0.0000E+00  0.0000E+00  0.7200E+02
  -4.210  0.0000E+00  0.0000E+00  0.7200E+02
  -4.200  0.0000E+00  0.0000E+00  0.7200E+02
  -4.190  0.0000E+00  0.0000E+00  0.7200E+02
  -4.180  0.0000E+00  0.0000E+00  0.7200E+02
  -4.170  0.0000E+00  0.0000E+00  0.7200E+02
  -4.160  0.0000E+00  0.0000E+00  0.7200E+02
  -4.150  0.0000E+00  0.0000E+00  0.7200E+02
  -4.140  0.0000E+00  0.0000E+00  0.7200E+02
  -4.130  0.0000E+00  0.0000E+00  0.7200E+02
  -4.120  0.0000E+00  0.0000E+00  0.7200E+02
  -4.110  0.0000E+00  0.0000E+00  0.7200E+02
  -4.100  0.0000E+00  0.0000E+00  0.7200E+02
  -4.090  0.0000E+00  0.0000E+00  0.7200E+02
  -4.080  0.0000E+00  0.0000E+00  0.7200E+02
  -4.070  0.0000E+00  0.0000E+00  0.7200E+02
  -4.060  0.0000E+00  0.0000E+00  0.7200E+02
  -4.050  0.0000E+00  0.0000E+00  0.7200E+02
  -4.040  0.0000E+00  0.0000E+00  0.7200E+02
  -4.030  0.0000E+00  0.0000E+00  0.7200E+02
  -4.020  0.0000E+00  0.0000E+00  0.7200E+02
  -4.010  0.0000E+00  0.0000E+00  0.7200E+02
  -4.000  0.0000E+00  0.0000E+00  0.7200E+02
  -3.990  0.0000E+00  0.0000E+00  0.7200E+02
  -3.980  0.0000E+00  0.0000E+00  0.7200E+02
  -3.970  0.0000E+00  0.0000E+00  0.7200E+02
  -3.960  0.0000E+00  0.0000E+00  0.7200E+02
  -3.950  0.0000E+00  0.0000E+00  0.7200E+02
  -3.940  0.0000E+00  0.0000E+00  0.7200E+02
  -3.930  0.0000E+00  0.0000E+00  0.7200E+02
  -3.920  0.0000E+00  0.0000E+00  0.7200E+02
  -3.910  0.0000E+00  0.0000E+00  0.7200E+02
  -3.900  0.0000E+00  0.0000E+00  0.7200E+02
  -3.890  0.0000E+00  0.0000E+00  0.7200E+02
  -3.880  0.0000E+00  0.0000E+00  0.7200E+02
  -3.870  0.0000E+00  0.0000E+00  0.7200E+02
  -3.860  0.0000E+00  0.0000E+00  0.7200E+02
  -3.850  0.0000E+00  0.0000E+00  0.7200E+02
  -3.840  0.0000E+00  0.0000E+00  0.7200E+02
  -3.830  0.0000E+00  0.0000E+00  0.7200E+02
  -3.820  0.0000E+00  0.0000E+00  0.7200E+02
  -3.810  0.0000E+00  0.0000E+00  0.7200E+02
  -3.800  0.0000E+00  0.0000E+00  0.7200E+02
  -3.790  0.0000E+00  0.0000E+00  0.7200E+02
  -3.780  0.0000E+00  0.0000E+00  0.7200E+02
  -3.770  0.0000E+00  0.0000E+00  0.7200E+02
  -3.760  0.0000E+00  0.0000E+00  0.7200E+02
  -3.750  0.0000E+00  0.0000E+00  0.7200E+02
  -3.740  0.0000E+00  0.0000E+00  0.7200E+02
  -3.730  0.0000E+00  0.0000E+00  0.7200E+02
  -3.720  0.0000E+00  0.0000E+00  0.7200E+02
  -3.710  0.0000E+00  0.0000E+00  0.7200E+02
  -3.700  0.0000E+00  0.0000E+00  0.7200E+02
  -3.690  0.0000E+00  0.0000E+00  0.7200E+02
  -3.680  0.0000E+00  0.0000E+00  0.7200E+02
  -3.670  0.0000E+00  0.0000E+00  0.7200E+02
  -3.660  0.0000E+00  0.0000E+00  0.7200E+02
  -3.650  0.0000E+00  0.0000E+00  0.7200E+02
  -3.640  0.0000E+00  0.0000E+00  0.7200E+02
  -3.630  0.0000E+00  0.0000E+00  0.7200E+02
  -3.620  0.0000E+00  0.0000E+00  0.7200E+02
  -3.610  0.0000E+00  0.0000E+00  0.7200E+02
  -3.600  0.0000E+00  0.0000E+00  0.7200E+02
  -3.590  0.0000E+00  0.0000E+00  0.7200E+02
  -3.580  0.0000E+00  0.0000E+00  0.7200E+02
  -3.570  0.0000E+00  0.0000E+00  0.7200E+02
  -3.560  0.0000E+00  0.0000E+00  0.7200E+02
  -3.550  0.0000E+00  0.0000E+00  0.7200E+02
  -3.540  0.0000E+00  0.0000E+00  0.7200E+02
  -3.530  0.0000E+00  0.0000E+00  0.7200E+02
  -3.520  0.0000E+00  0.0000E+00  0.7200E+02
  -3.510  0.0000E+00  0.0000E+00  0.7200E+02
  -3.500  0.0000E+00  0.0000E+00  0.7200E+02
  -3.490  0.0000E+00  0.0000E+00  0.7200E+02
  -3.480  0.0000E+00  0.0000E+00  0.7200E+02
  -3.470  0.0000E+00  0.0000E+00  0.7200E+02
  -3.460  0.0000E+00  0.0000E+00  0.7200E+02
  -3.450  0.0000E+00  0.0000E+00  0.7200E+02
  -3.440  0.0000E+00  0.0000E+00  0.7200E+02
  -3.430  0.0000E+00  0.0000E+00  0.7200E+02
  -3.420  0.0000E+00  0.0000E+00  0.7200E+02
  -3.410  0.0000E+00  0.0000E+00  0.7200E+02
  -3.400  0.0000E+00  0.0000E+00  0.7200E+02
  -3.390  0.0000E+00  0.0000E+00  0.7200E+02
  -3.380  0.0000E+00  0.0000E+00  0.7200E+02
  -3.370  0.0000E+00  0.0000E+00  0.7200E+02
  -3.360  0.0000E+00  0.0000E+00  0.7200E+02
  -3.350  0.0000E+00  0.0000E+00  0.7200E+02
  -3.340  0.0000E+00  0.0000E+00  0.7200E+02
  -3.330  0.0000E+00  0.0000E+00  0.7200E+02
  -3.320  0.0000E+00  0.0000E+00  0.7200E+02
  -3.310  0.0000E+00  0.0000E+00  0.7200E+02
  -3.300  0.0000E+00  0.0000E+00  0.7200E+02
  -3.290  0.0000E+00  0.0000E+00  0.7200E+02
  -3.280  0.0000E+00  0.0000E+00  0.7200E+02
  -3.270  0.0000E+00  0.0000E+00  0.7200E+02
  -3.260  0.0000E+00  0.0000E+00  0.7200E+02
  -3.250  0.0000E+00  0.0000E+00  0.7200E+02
  -3.240  0.0000E+00  0.0000E+00  0.7200E+02
  -3.230  0.0000E+00  0.0000E+00  0.7200E+02
  -3.220  0.0000E+00  0.0000E+00  0.7200E+02
  -3.210  0.0000E+00  0.0000E+00  0.7200E+02
  -3.200  0.0000E+00  0.0000E+00  0.7200E+02
  -3.190  0.0000E+00  0.0000E+00  0.7200E+02
  -3.180  0.0000E+00  0.0000E+00  0.7200E+02
  -3.170  0.0000E+00  0.0000E+00  0.7200E+02
  -3.160  0.0000E+00  0.0000E+00  0.7200E+02
  -3.150  0.0000E+00  0.0000E+00  0.7200E+02
  -3.140  0.0000E+00  0.0000E+00  0.7200E+02
  -3.130  0.0000E+00  0.0000E+00  0.7200E+02
  -3.120  0.0000E+00  0.0000E+00  0.7200E+02
  -3.110  0.0000E+00  0.0000E+00  0.7200E+02
  -3.100  0.0000E+00  0.0000E+00  0.7200E+02
  -3.090  0.0000E+00  0.0000E+00  0.7200E+02
  -3.080  0.0000E+00  0.0000E+00  0.7200E+02
  -3.070  0.0000E+00  0.0000E+00  0.7200E+02
  -3.060  0.0000E+00  0.0000E+00  0.7200E+02
  -3.050  0.0000E+00  0.0000E+00  0.7200E+02
  -3.040  0.0000E+00  0.0000E+00  0.7200E+02
  -3.030  0.0000E+00  0.0000E+00  0.7200E+02
  -3.020  0.0000E+00  0.0000E+00  0.7200E+02
  -3.010  0.0000E+00  0.0000E+00  0.7200E+02
  -3.000  0.0000E+00  0.0000E+00  0.7200E+02
  -2.990  0.0000E+00  0.0000E+00  0.7200E+02
  -2.980  0.0000E+00  0.0000E+00  0.7200E+02
  -2.970  0.0000E+00  0.0000E+00  0.7200E+02
  -2.960  0.0000E+00  0.0000E+00  0.7200E+02
  -2.950  0.0000E+00  0.0000E+00  0.7200E+02
  -2.940  0.0000E+00  0.0000E+00  0.7200E+02
  -2.930  0.0000E+00  0.0000E+00  0.7200E+02
  -2.920  0.0000E+00  0.0000E+00  0.7200E+02
  -2.910  0.0000E+00  0.0000E+00  0.7200E+02
  -2.900  0.0000E+00  0.0000E+00  0.7200E+02
  -2.890  0.0000E+00  0.0000E+00  0.7200E+02
  -2.880  0.0000E+00  0.0000E+00  0.7200E+02
  -2.870  0.0000E+00  0.0000E+00  0.7200E+02
  -2.860  0.0000E+00  0.0000E+00  0.7200E+02
  -2.850  0.0000E+00  0.0000E+00  0.7200E+02
  -2.840  0.0000E+00  0.0000E+00  0.7200E+02
  -2.830  0.0000E+00  0.0000E+00  0.7200E+02
  -2.820  0.0000E+00  0.0000E+00  0.7200E+02
  -2.810  0.0000E+00  0.0000E+00  0.7200E+02
  -2.800  0.0000E+00  0.0000E+00  0.7200E+02
  -2.790  0.0000E+00  0.0000E+00  0.7200E+02
  -2.780  0.0000E+00  0.0000E+00  0.7200E+02
  -2.770  0.0000E+00  0.0000E+00  0.7200E+02
  -2.760  0.0000E+00  0.0000E+00  0.7200E+02
  -2.750  0.0000E+00  0.0000E+00  0.7200E+02
  -2.740  0.0000E+00  0.0000E+00  0.7200E+02
  -2.730  0.0000E+00  0.0000E+00  0.7200E+02
  -2.720  0.0000E+00  0.0000E+00  0.7200E+02
  -2.710  0.0000E+00  0.0000E+00  0.7200E+02
  -2.700  0.0000E+00  0.0000E+00  0.7200E+02
  -2.690  0.0000E+00  0.0000E+00  0.7200E+02
  -2.680  0.0000E+00  0.0000E+00  0.7200E+02
  -2.670  0.0000E+00  0.0000E+00  0.7200E+02
  -2.660  0.0000E+00  0.0000E+00  0.7200E+02
  -2.650  0.0000E+00  0.0000E+00  0.7200E+02
  -2.640  0.0000E+00  0.0000E+00  0.7200E+02
  -2.630  0.0000E+00  0.0000E+00  0.7200E+02
  -2.620  0.0000E+00  0.0000E+00  0.7200E+02
  -2.610  0.0000E+00  0.0000E+00  0.7200E+02
  -2.600  0.0000E+00  0.0000E+00  0.7200E+02
  -2.590  0.0000E+00  0.0000E+00  0.7200E+02
  -2.580  0.0000E+00  0.0000E+00  0.7200E+02
  -2.570  0.0000E+00  0.0000E+00  0.7200E+02
  -2.560  0.0000E+00  0.0000E+00  0.7200E+02
  -2.550  0.0000E+00  0.0000E+00  0.7200E+02
  -2.540  0.0000E+00  0.0000E+00  0.7200E+02
  -2.530  0.0000E+00  0.0000E+00  0.7200E+02
  -2.520  0.0000E+00  0.0000E+00  0.7200E+02
  -2.510  0.0000E+00  0.0000E+00  0.7200E+02
  -2.500  0.0000E+00  0.0000E+00  0.7200E+02
  -2.490  0.0000E+00  0.0000E+00  0.7200E+02
  -2.480  0.0000E+00  0.0000E+00  0.7200E+02
  -2.470  0.0000E+00  0.0000E+00  0.7200E+02
  -2.460  0.0000E+00  0.0000E+00  0.7200E+02
  -2.450  0.0000E+00  0.0000E+00  0.7200E+02
  -2.440  0.0000E+00  0.0000E+00  0.7200E+02
  -2.430  0.0000E+00  0.0000E+00  0.7200E+02
  -2.420  0.0000E+00  0.0000E+00  0.7200E+02
  -2.410  0.0000E+00  0.0000E+00  0.7200E+02
  -2.400  0.0000E+00  0.0000E+00  0.7200E+02
  -2.390  0.0000E+00  0.0000E+00  0.7200E+02
  -2.380  0.0000E+00  0.0000E+00  0.7200E+02
  -2.370  0.0000E+00  0.0000E+00  0.7200E+02
  -2.360  0.0000E+00  0.0000E+00  0.7200E+02
  -2.350  0.0000E+00  0.0000E+00  0.7200E+02
  -2.340  0.0000E+00  0.0000E+00  0.7200E+02
  -2.330  0.0000E+00  0.0000E+00  0.7200E+02
  -2.320  0.0000E+00  0.0000E+00  0.7200E+02
  -2.310  0.0000E+00  0.0000E+00  0.7200E+02
  -2.300  0.0000E+00  0.0000E+00  0.7200E+02
  -2.290  0.0000E+00  0.0000E+00  0.7200E+02
  -2.280  0.0000E+00  0.0000E+00  0.7200E+02
  -2.270  0.0000E+00  0.0000E+00  0.7200E+02
  -2.260  0.0000E+00  0.0000E+00  0.7200E+02
  -2.250  0.0000E+00  0.0000E+00  0.7200E+02
  -2.240  0.0000E+00  0.0000E+00  0.7200E+02
  -2.230  0.0000E+00  0.0000E+00  0.7200E+02
  -2.220  0.0000E+00  0.0000E+00  0.7200E+02
  -2.210  0.0000E+00  0.0000E+00  0.7200E+02
  -2.200  0.0000E+00  0.0000E+00  0.7200E+02
  -2.190  0.0000E+00  0.0000E+00  0.7200E+02
  -2.180  0.0000E+00  0.0000E+00  0.7200E+02
  -2.170  0.0000E+00  0.0000E+00  0.7200E+02
  -2.160  0.0000E+00  0.0000E+00  0.7200E+02
  -2.150  0.0000E+00  0.0000E+00  0.7200E+02
  -2.140  0.0000E+00  0.0000E+00  0.7200E+02
  -2.130  0.0000E+00  0.0000E+00  0.7200E+02
  -2.120  0.0000E+00  0.0000E+00  0.7200E+02
  -2.110  0.0000E+00  0.0000E+00  0.7200E+02
  -2.100  0.0000E+00  0.0000E+00  0.7200E+02
  -2.090  0.0000E+00  0.0000E+00  0.7200E+02
  -2.080  0.0000E+00  0.0000E+00  0.7200E+02
  -2.070  0.0000E+00  0.0000E+00  0.7200E+02
  -2.060  0.0000E+00  0.0000E+00  0.7200E+02
  -2.050  0.0000E+00  0.0000E+00  0.7200E+02
  -2.040  0.0000E+00  0.0000E+00  0.7200E+02
  -2.030  0.0000E+00  0.0000E+00  0.7200E+02
  -2.020  0.0000E+00  0.0000E+00  0.7200E+02
  -2.010  0.0000E+00  0.0000E+00  0.7200E+02
  -2.000  0.0000E+00  0.0000E+00  0.7200E+02
  -1.990  0.0000E+00  0.0000E+00  0.7200E+02
  -1.980  0.0000E+00  0.0000E+00  0.7200E+02
  -1.970  0.0000E+00  0.0000E+00  0.7200E+02
  -1.960  0.0000E+00  0.0000E+00  0.7200E+02
  -1.950  0.0000E+00  0.0000E+00  0.7200E+02
  -1.940  0.0000E+00  0.0000E+00  0.7200E+02
  -1.930  0.0000E+00  0.0000E+00  0.7200E+02
  -1.920  0.0000E+00  0.0000E+00  0.7200E+02
  -1.910  0.0000E+00  0.0000E+00  0.7200E+02
  -1.900  0.0000E+00  0.0000E+00  0.7200E+02
  -1.890  0.0000E+00  0.0000E+00  0.7200E+02
  -1.880  0.0000E+00  0.0000E+00  0.7200E+02
  -1.870  0.0000E+00  0.0000E+00  0.7200E+02
  -1.860  0.0000E+00  0.0000E+00  0.7200E+02
  -1.850  0.0000E+00  0.0000E+00  0.7200E+02
  -1.840  0.0000E+00  0.0000E+00  0.7200E+02
  -1.830  0.0000E+00  0.0000E+00  0.7200E+02
  -1.820  0.0000E+00  0.0000E+00  0.7200E+02
  -1.810  0.0000E+00  0.0000E+00  0.7200E+02
  -1.800  0.0000E+00  0.0000E+00  0.7200E+02
  -1.790  0.0000E+00  0.0000E+00  0.7200E+02
  -1.780  0.0000E+00  0.0000E+00  0.7200E+02
  -1.770  0.0000E+00  0.0000E+00  0.7200E+02
  -1.760  0.0000E+00  0.0000E+00  0.7200E+02
  -1.750  0.0000E+00  0.0000E+00  0.7200E+02
  -1.740  0.0000E+00  0.0000E+00  0.7200E+02
  -1.730  0.0000E+00  0.0000E+00  0.7200E+02
  -1.720  0.0000E+00  0.0000E+00  0.7200E+02
  -1.710  0.0000E+00  0.0000E+00  0.7200E+02
  -1.700  0.0000E+00  0.0000E+00  0.7200E+02
  -1.690  0.0000E+00  0.0000E+00  0.7200E+02
  -1.680  0.0000E+00  0.0000E+00  0.7200E+02
  -1.670  0.0000E+00  0.0000E+00  0.7200E+02
  -1.660  0.0000E+00  0.0000E+00  0.7200E+02
  -1.650  0.0000E+00  0.0000E+00  0.7200E+02
  -1.640  0.0000E+00  0.0000E+00  0.7200E+02
  -1.630  0.0000E+00  0.0000E+00  0.7200E+02
  -1.620  0.0000E+00  0.0000E+00  0.7200E+02
  -1.610  0.0000E+00  0.0000E+00  0.7200E+02
  -1.600  0.0000E+00  0.0000E+00  0.7200E+02
  -1.590  0.0000E+00  0.0000E+00  0.7200E+02
  -1.580  0.0000E+00  0.0000E+00  0.7200E+02
  -1.570  0.0000E+00  0.0000E+00  0.7200E+02
  -1.560  0.0000E+00  0.0000E+00  0.7200E+02
  -1.550  0.0000E+00  0.0000E+00  0.7200E+02
  -1.540  0.0000E+00  0.0000E+00  0.7200E+02
  -1.530  0.0000E+00  0.0000E+00  0.7200E+02
  -1.520  0.0000E+00  0.0000E+00  0.7200E+02
  -1.510  0.0000E+00  0.0000E+00  0.7200E+02
  -1.500  0.0000E+00  0.0000E+00  0.7200E+02
  -1.490  0.0000E+00  0.0000E+00  0.7200E+02
  -1.480  0.0000E+00  0.0000E+00  0.7200E+02
  -1.470  0.0000E+00  0.0000E+00  0.7200E+02
  -1.460  0.0000E+00  0.0000E+00  0.7200E+02
  -1.450  0.0000E+00  0.0000E+00  0.7200E+02
  -1.440  0.0000E+00  0.0000E+00  0.7200E+02
  -1.430  0.0000E+00  0.0000E+00  0.7200E+02
  -1.420  0.0000E+00  0.0000E+00  0.7200E+02
  -1.410  0.0000E+00  0.0000E+00  0.7200E+02
  -1.400  0.0000E+00  0.0000E+00  0.7200E+02
  -1.390  0.0000E+00  0.0000E+00  0.7200E+02
  -1.380  0.0000E+00  0.0000E+00  0.7200E+02
  -1.370  0.0000E+00  0.0000E+00  0.7200E+02
  -1.360  0.0000E+00  0.0000E+00  0.7200E+02
  -1.350  0.0000E+00  0.0000E+00  0.7200E+02
  -1.340  0.0000E+00  0.0000E+00  0.7200E+02
  -1.330  0.0000E+00  0.0000E+00  0.7200E+02
  -1.320  0.0000E+00  0.0000E+00  0.7200E+02
  -1.310  0.0000E+00  0.0000E+00  0.7200E+02
  -1.300  0.0000E+00  0.0000E+00  0.7200E+02
  -1.290  0.0000E+00  0.0000E+00  0.7200E+02
  -1.280  0.0000E+00  0.0000E+00  0.7200E+02
  -1.270  0.0000E+00  0.0000E+00  0.7200E+02
  -1.260  0.0000E+00  0.0000E+00  0.7200E+02
  -1.250  0.0000E+00  0.0000E+00  0.7200E+02
  -1.240  0.0000E+00  0.0000E+00  0.7200E+02
  -1.230  0.0000E+00  0.0000E+00  0.7200E+02
  -1.220  0.0000E+00  0.0000E+00  0.7200E+02
  -1.210  0.0000E+00  0.0000E+00  0.7200E+02
  -1.200  0.0000E+00  0.0000E+00  0.7200E+02
  -1.190  0.0000E+00  0.0000E+00  0.7200E+02
  -1.180  0.0000E+00  0.0000E+00  0.7200E+02
  -1.170  0.0000E+00  0.0000E+00  0.7200E+02
  -1.160  0.0000E+00  0.0000E+00  0.7200E+02
  -1.150  0.0000E+00  0.0000E+00  0.7200E+02
  -1.140  0.0000E+00  0.0000E+00  0.7200E+02
  -1.130  0.0000E+00  0.0000E+00  0.7200E+02
  -1.120  0.0000E+00  0.0000E+00  0.7200E+02
  -1.110  0.0000E+00  0.0000E+00  0.7200E+02
  -1.100  0.0000E+00  0.0000E+00  0.7200E+02
  -1.090  0.0000E+00  0.0000E+00  0.7200E+02
  -1.080  0.0000E+00  0.0000E+00  0.7200E+02
  -1.070  0.0000E+00  0.0000E+00  0.7200E+02
  -1.060  0.0000E+00  0.0000E+00  0.7200E+02
  -1.050  0.0000E+00  0.0000E+00  0.7200E+02
  -1.040  0.0000E+00  0.0000E+00  0.7200E+02
  -1.030  0.0000E+00  0.0000E+00  0.7200E+02
  -1.020  0.0000E+00  0.0000E+00  0.7200E+02
  -1.010  0.0000E+00  0.0000E+00  0.7200E+02
  -1.000  0.0000E+00  0.0000E+00  0.7200E+02
  -0.990  0.0000E+00  0.0000E+00  0.7200E+02
  -0.980  0.0000E+00  0.0000E+00  0.7200E+02
  -0.970  0.0000E+00  0.0000E+00  0.7200E+02
  -0.960  0.0000E+00  0.0000E+00  0.7200E+02
  -0.950  0.0000E+00  0.0000E+00  0.7200E+02
  -0.940  0.0000E+00  0.0000E+00  0.7200E+02
  -0.930  0.0000E+00  0.0000E+00  0.7200E+02
  -0.920  0.0000E+00  0.0000E+00  0.7200E+02
  -0.910  0.0000E+00  0.0000E+00  0.7200E+02
  -0.900  0.0000E+00  0.0000E+00  0.7200E+02
  -0.890  0.0000E+00  0.0000E+00  0.7200E+02
  -0.880  0.0000E+00  0.0000E+00  0.7200E+02
  -0.870  0.0000E+00  0.0000E+00  0.7200E+02
  -0.860  0.0000E+00  0.0000E+00  0.7200E+02
  -0.850  0.0000E+00  0.0000E+00  0.7200E+02
  -0.840  0.0000E+00  0.0000E+00  0.7200E+02
  -0.830  0.0000E+00  0.0000E+00  0.7200E+02
  -0.820  0.0000E+00  0.0000E+00  0.7200E+02
  -0.810  0.0000E+00  0.0000E+00  0.7200E+02
  -0.800  0.0000E+00  0.0000E+00  0.7200E+02
  -0.790  0.0000E+00  0.0000E+00  0.7200E+02
  -0.780  0.0000E+00  0.0000E+00  0.7200E+02
  -0.770  0.0000E+00  0.0000E+00  0.7200E+02
  -0.760  0.0000E+00  0.0000E+00  0.7200E+02
  -0.750  0.0000E+00  0.0000E+00  0.7200E+02
  -0.740  0.0000E+00  0.0000E+00  0.7200E+02
  -0.730  0.0000E+00  0.0000E+00  0.7200E+02
  -0.720  0.1952E+02  0.6236E+01  0.7205E+02
  -0.710  0.7987E+02  0.7030E+02  0.7297E+02
  -0.700  0.7494E+02  0.7202E+02  0.7445E+02
  -0.690  0.9095E+02  0.8458E+02  0.7605E+02
  -0.680  0.1325E+03  0.1146E+03  0.7805E+02
  -0.670  0.1738E+03  0.2039E+03  0.8135E+02
  -0.660  0.1574E+03  0.1600E+03  0.8475E+02
  -0.650  0.2111E+03  0.2342E+03  0.8838E+02
  -0.640  0.1722E+03  0.1871E+03  0.9228E+02
  -0.630  0.2053E+03  0.1778E+03  0.9580E+02
  -0.620  0.2041E+03  0.1832E+03  0.9952E+02
  -0.610  0.2000E+03  0.1690E+03  0.1033E+03
  -0.600  0.2996E+03  0.2625E+03  0.1080E+03
  -0.590  0.4204E+03  0.3707E+03  0.1146E+03
  -0.580  0.4757E+03  0.5224E+03  0.1244E+03
  -0.570  0.4556E+03  0.4423E+03  0.1336E+03
  -0.560  0.4645E+03  0.4139E+03  0.1423E+03
  -0.550  0.3256E+03  0.3109E+03  0.1517E+03
  -0.540  0.2949E+03  0.4276E+03  0.1577E+03
  -0.530  0.2872E+03  0.3870E+03  0.1637E+03
  -0.520  0.1765E+03  0.2359E+03  0.1692E+03
  -0.510  0.1942E+03  0.1332E+03  0.1725E+03
  -0.500  0.1612E+03  0.1877E+03  0.1768E+03
  -0.490  0.2265E+03  0.2340E+03  0.1807E+03
  -0.480  0.1851E+03  0.2199E+03  0.1847E+03
  -0.470  0.2547E+03  0.1824E+03  0.1888E+03
  -0.460  0.1847E+03  0.2221E+03  0.1934E+03
  -0.450  0.1754E+03  0.1326E+03  0.1964E+03
  -0.440  0.1884E+03  0.3447E+03  0.2004E+03
  -0.430  0.1662E+03  0.2048E+03  0.2048E+03
  -0.420  0.1650E+03  0.2043E+03  0.2082E+03
  -0.410  0.1279E+03  0.1532E+03  0.2119E+03
  -0.400  0.1371E+03  0.1393E+03  0.2145E+03
  -0.390  0.1279E+03  0.1390E+03  0.2174E+03
  -0.380  0.1138E+03  0.1149E+03  0.2198E+03
  -0.370  0.1562E+03  0.1225E+03  0.2222E+03
  -0.360  0.1362E+03  0.1259E+03  0.2251E+03
  -0.350  0.1176E+03  0.1155E+03  0.2275E+03
  -0.340  0.9883E+02  0.1214E+03  0.2300E+03
  -0.330  0.1014E+03  0.9441E+02  0.2319E+03
  -0.320  0.1224E+03  0.1209E+03  0.2342E+03
  -0.310  0.1163E+03  0.1097E+03  0.2364E+03
  -0.300  0.1240E+03  0.1183E+03  0.2388E+03
  -0.290  0.1208E+03  0.1160E+03  0.2411E+03
  -0.280  0.1125E+03  0.1124E+03  0.2433E+03
  -0.270  0.1649E+03  0.1493E+03  0.2460E+03
  -0.260  0.1379E+03  0.1445E+03  0.2491E+03
  -0.250  0.1643E+03  0.1419E+03  0.2521E+03
  -0.240  0.1530E+03  0.1607E+03  0.2552E+03
  -0.230  0.2068E+03  0.3125E+03  0.2598E+03
  -0.220  0.3128E+03  0.2720E+03  0.2650E+03
  -0.210  0.4305E+03  0.4113E+03  0.2732E+03
  -0.200  0.4820E+03  0.4912E+03  0.2817E+03
  -0.190  0.4951E+03  0.4807E+03  0.2920E+03
  -0.180  0.4449E+03  0.5011E+03  0.3025E+03
  -0.170  0.4815E+03  0.4442E+03  0.3103E+03
  -0.160  0.6368E+03  0.4296E+03  0.3188E+03
  -0.150  0.3617E+03  0.4316E+03  0.3283E+03
  -0.140  0.5767E+03  0.3568E+03  0.3353E+03
  -0.130  0.2357E+03  0.2378E+03  0.3429E+03
  -0.120  0.1144E+03  0.1833E+03  0.3469E+03
  -0.110  0.9353E+02  0.9931E+02  0.3492E+03
  -0.100  0.6034E+02  0.6089E+02  0.3507E+03
  -0.090  0.7174E+02  0.6813E+02  0.3520E+03
  -0.080  0.8504E+02  0.7702E+02  0.3535E+03
  -0.070  0.5926E+02  0.6795E+02  0.3550E+03
  -0.060  0.6116E+02  0.5734E+02  0.3562E+03
  -0.050  0.6721E+02  0.6409E+02  0.3574E+03
  -0.040  0.4181E+02  0.4698E+02  0.3585E+03
  -0.030  0.7024E+02  0.6096E+02  0.3596E+03
  -0.020  0.7687E+02  0.8098E+02  0.3611E+03
  -0.010  0.4982E+02  0.7106E+02  0.3625E+03
   0.000  0.6999E+02  0.6143E+02  0.3637E+03
   0.010  0.8208E+02  0.9021E+02  0.3652E+03
   0.020  0.5946E+02  0.6449E+02  0.3667E+03
   0.030  0.7096E+02  0.6998E+02  0.3680E+03
   0.040  0.6802E+02  0.6164E+02  0.3694E+03
   0.050  0.6714E+02  0.6359E+02  0.3706E+03
   0.060  0.8618E+02  0.7581E+02  0.3721E+03
   0.070  0.4815E+02  0.5440E+02  0.3734E+03
   0.080  0.5734E+02  0.5364E+02  0.3744E+03
   0.090  0.7177E+02  0.7165E+02  0.3757E+03
   0.100  0.7393E+02  0.7812E+02  0.3772E+03
   0.110  0.6291E+02  0.6685E+02  0.3786E+03
   0.120  0.4923E+02  0.5708E+02  0.3798E+03
   0.130  0.3157E+02  0.3505E+02  0.3806E+03
   0.140  0.1948E+02  0.2481E+02  0.3812E+03
   0.150  0.1143E+02  0.1309E+02  0.3815E+03
   0.160  0.8368E+01  0.9237E+01  0.3817E+03
   0.170  0.7349E+01  0.7039E+01  0.3819E+03
   0.180  0.1484E+01  0.2835E+01  0.3820E+03
   0.190  0.9560E-03  0.3648E-01  0.3820E+03
   0.200  0.0000E+00  0.0000E+00  0.3820E+03
   0.210  0.0000E+00  0.0000E+00  0.3820E+03
   0.220  0.0000E+00  0.0000E+00  0.3820E+03
   0.230  0.0000E+00  0.0000E+00  0.3820E+03
   0.240  0.0000E+00  0.0000E+00  0.3820E+03
   0.250  0.0000E+00  0.0000E+00  0.3820E+03
   0.260  0.0000E+00  0.0000E+00  0.3820E+03
   0.270  0.0000E+00  0.0000E+00  0.3820E+03
   0.280  0.0000E+00  0.0000E+00  0.3820E+03
   0.290  0.0000E+00  0.0000E+00  0.3820E+03
   0.300  0.0000E+00  0.0000E+00  0.3820E+03
   0.310  0.0000E+00  0.0000E+00  0.3820E+03
   0.320  0.0000E+00  0.0000E+00  0.3820E+03
   0.330  0.0000E+00  0.0000E+00  0.3820E+03
   0.340  0.0000E+00  0.0000E+00  0.3820E+03
   0.350  0.0000E+00  0.0000E+00  0.3820E+03
   0.360  0.3384E-03  0.0000E+00  0.3820E+03
   0.370  0.4907E-02  0.4916E-03  0.3820E+03
   0.380  0.3098E-01  0.7118E-02  0.3820E+03
   0.390  0.8827E-01  0.3860E-01  0.3820E+03
   0.400  0.1772E+00  0.1016E+00  0.3820E+03
   0.410  0.3012E+00  0.1966E+00  0.3820E+03
   0.420  0.4670E+00  0.3273E+00  0.3820E+03
   0.430  0.9981E+00  0.5071E+00  0.3820E+03
   0.440  0.1923E+01  0.1166E+01  0.3820E+03
   0.450  0.2466E+01  0.2061E+01  0.3821E+03
   0.460  0.2578E+01  0.2528E+01  0.3821E+03
   0.470  0.2326E+01  0.2555E+01  0.3822E+03
   0.480  0.2251E+01  0.2272E+01  0.3822E+03
   0.490  0.2425E+01  0.2281E+01  0.3823E+03
   0.500  0.2626E+01  0.2463E+01  0.3823E+03
   0.510  0.2855E+01  0.2671E+01  0.3824E+03
   0.520  0.3428E+01  0.2922E+01  0.3824E+03
   0.530  0.4115E+01  0.3615E+01  0.3825E+03
   0.540  0.4459E+01  0.4125E+01  0.3826E+03
   0.550  0.4409E+01  0.4512E+01  0.3827E+03
   0.560  0.4133E+01  0.4358E+01  0.3828E+03
   0.570  0.4144E+01  0.4100E+01  0.3829E+03
   0.580  0.4292E+01  0.4181E+01  0.3829E+03
   0.590  0.4516E+01  0.4348E+01  0.3830E+03
   0.600  0.4756E+01  0.4581E+01  0.3831E+03
   0.610  0.5029E+01  0.4831E+01  0.3832E+03
   0.620  0.5342E+01  0.5116E+01  0.3833E+03
   0.630  0.5696E+01  0.5441E+01  0.3834E+03
   0.640  0.6088E+01  0.5808E+01  0.3835E+03
   0.650  0.6496E+01  0.6211E+01  0.3837E+03
   0.660  0.6986E+01  0.6630E+01  0.3838E+03
   0.670  0.7744E+01  0.7170E+01  0.3839E+03
   0.680  0.9124E+01  0.8061E+01  0.3841E+03
   0.690  0.9649E+01  0.9660E+01  0.3843E+03
   0.700  0.1031E+02  0.9653E+01  0.3845E+03
   0.710  0.1120E+02  0.1053E+02  0.3847E+03
   0.720  0.1110E+02  0.1125E+02  0.3849E+03
   0.730  0.1100E+02  0.1121E+02  0.3851E+03
   0.740  0.1066E+02  0.1101E+02  0.3853E+03
   0.750  0.9442E+01  0.1052E+02  0.3856E+03
   0.760  0.8764E+01  0.9116E+01  0.3857E+03
   0.770  0.8570E+01  0.8648E+01  0.3859E+03
   0.780  0.8562E+01  0.8490E+01  0.3861E+03
   0.790  0.8720E+01  0.8512E+01  0.3863E+03
   0.800  0.9014E+01  0.8690E+01  0.3864E+03
   0.810  0.9542E+01  0.9034E+01  0.3866E+03
   0.820  0.1022E+02  0.9624E+01  0.3868E+03
   0.830  0.1102E+02  0.1036E+02  0.3870E+03
   0.840  0.1210E+02  0.1121E+02  0.3872E+03
   0.850  0.1359E+02  0.1236E+02  0.3875E+03
   0.860  0.1525E+02  0.1401E+02  0.3878E+03
   0.870  0.1704E+02  0.1565E+02  0.3881E+03
   0.880  0.1878E+02  0.1727E+02  0.3884E+03
   0.890  0.1957E+02  0.1895E+02  0.3888E+03
   0.900  0.2037E+02  0.1978E+02  0.3892E+03
   0.910  0.2089E+02  0.2047E+02  0.3896E+03
   0.920  0.2061E+02  0.2093E+02  0.3900E+03
   0.930  0.1995E+02  0.2054E+02  0.3904E+03
   0.940  0.1869E+02  0.1978E+02  0.3908E+03
   0.950  0.1756E+02  0.1843E+02  0.3912E+03
   0.960  0.1805E+02  0.1776E+02  0.3915E+03
   0.970  0.1762E+02  0.1726E+02  0.3919E+03
   0.980  0.1844E+02  0.1786E+02  0.3922E+03
   0.990  0.2120E+02  0.1883E+02  0.3926E+03
   1.000  0.2617E+02  0.2252E+02  0.3931E+03
   1.010  0.4237E+02  0.2764E+02  0.3936E+03
   1.020  0.4909E+02  0.4093E+02  0.3945E+03
   1.030  0.6208E+02  0.5594E+02  0.3955E+03
   1.040  0.7477E+02  0.6894E+02  0.3968E+03
   1.050  0.8254E+02  0.7632E+02  0.3983E+03
   1.060  0.5223E+02  0.7072E+02  0.3997E+03
   1.070  0.4975E+02  0.6366E+02  0.4008E+03
   1.080  0.6137E+02  0.5048E+02  0.4019E+03
   1.090  0.3544E+02  0.3404E+02  0.4029E+03
   1.100  0.5676E+02  0.3767E+02  0.4037E+03
   1.110  0.3718E+02  0.5036E+02  0.4046E+03
   1.120  0.2948E+02  0.3965E+02  0.4054E+03
   1.130  0.2351E+02  0.2897E+02  0.4060E+03
   1.140  0.1900E+02  0.2178E+02  0.4065E+03
   1.150  0.2009E+02  0.2636E+02  0.4069E+03
   1.160  0.1903E+02  0.1926E+02  0.4073E+03
   1.170  0.2129E+02  0.1904E+02  0.4077E+03
   1.180  0.2280E+02  0.2132E+02  0.4081E+03
   1.190  0.2350E+02  0.2290E+02  0.4086E+03
   1.200  0.2427E+02  0.2338E+02  0.4091E+03
   1.210  0.2455E+02  0.2382E+02  0.4095E+03
   1.220  0.2438E+02  0.2401E+02  0.4100E+03
   1.230  0.2431E+02  0.2377E+02  0.4105E+03
   1.240  0.2299E+02  0.2379E+02  0.4110E+03
   1.250  0.2155E+02  0.2274E+02  0.4114E+03
   1.260  0.2044E+02  0.2115E+02  0.4119E+03
   1.270  0.1958E+02  0.1994E+02  0.4123E+03
   1.280  0.1987E+02  0.1911E+02  0.4127E+03
   1.290  0.2032E+02  0.1944E+02  0.4131E+03
   1.300  0.1983E+02  0.2013E+02  0.4135E+03
   1.310  0.1909E+02  0.1981E+02  0.4139E+03
   1.320  0.1822E+02  0.1892E+02  0.4142E+03
   1.330  0.1791E+02  0.1890E+02  0.4146E+03
   1.340  0.1839E+02  0.1766E+02  0.4150E+03
   1.350  0.1879E+02  0.1802E+02  0.4153E+03
   1.360  0.1893E+02  0.1833E+02  0.4157E+03
   1.370  0.1872E+02  0.1843E+02  0.4161E+03
   1.380  0.1823E+02  0.1828E+02  0.4164E+03
   1.390  0.1806E+02  0.1781E+02  0.4168E+03
   1.400  0.1814E+02  0.1753E+02  0.4172E+03
   1.410  0.1741E+02  0.1745E+02  0.4175E+03
   1.420  0.1643E+02  0.1729E+02  0.4179E+03
   1.430  0.1535E+02  0.1591E+02  0.4182E+03
   1.440  0.1466E+02  0.1567E+02  0.4185E+03
   1.450  0.1420E+02  0.1497E+02  0.4188E+03
   1.460  0.1386E+02  0.1429E+02  0.4191E+03
   1.470  0.1363E+02  0.1375E+02  0.4194E+03
   1.480  0.1340E+02  0.1359E+02  0.4196E+03
   1.490  0.1310E+02  0.1370E+02  0.4199E+03
   1.500  0.1624E+02  0.1368E+02  0.4202E+03
   1.510  0.1426E+02  0.1349E+02  0.4205E+03
   1.520  0.1344E+02  0.1557E+02  0.4207E+03
   1.530  0.1303E+02  0.1401E+02  0.4210E+03
   1.540  0.1247E+02  0.1328E+02  0.4213E+03
   1.550  0.1186E+02  0.1250E+02  0.4215E+03
   1.560  0.1166E+02  0.1174E+02  0.4218E+03
   1.570  0.1151E+02  0.1122E+02  0.4220E+03
   1.580  0.1139E+02  0.1093E+02  0.4222E+03
   1.590  0.1144E+02  0.1092E+02  0.4225E+03
   1.600  0.1165E+02  0.1105E+02  0.4227E+03
   1.610  0.1205E+02  0.1122E+02  0.4229E+03
   1.620  0.1238E+02  0.1152E+02  0.4231E+03
   1.630  0.1263E+02  0.1178E+02  0.4234E+03
   1.640  0.1316E+02  0.1196E+02  0.4236E+03
   1.650  0.1302E+02  0.1211E+02  0.4239E+03
   1.660  0.1233E+02  0.1213E+02  0.4241E+03
   1.670  0.1144E+02  0.1204E+02  0.4244E+03
   1.680  0.1078E+02  0.1182E+02  0.4246E+03
   1.690  0.1032E+02  0.1150E+02  0.4248E+03
   1.700  0.9591E+01  0.1099E+02  0.4250E+03
   1.710  0.8753E+01  0.1054E+02  0.4252E+03
   1.720  0.7991E+01  0.9978E+01  0.4254E+03
   1.730  0.7324E+01  0.9375E+01  0.4256E+03
   1.740  0.6582E+01  0.7666E+01  0.4258E+03
   1.750  0.6751E+01  0.6890E+01  0.4259E+03
   1.760  0.7240E+01  0.6979E+01  0.4260E+03
   1.770  0.7542E+01  0.7247E+01  0.4262E+03
   1.780  0.7664E+01  0.7650E+01  0.4263E+03
   1.790  0.7302E+01  0.7764E+01  0.4265E+03
   1.800  0.7538E+01  0.7499E+01  0.4266E+03
   1.810  0.7783E+01  0.7618E+01  0.4268E+03
   1.820  0.8048E+01  0.7757E+01  0.4269E+03
   1.830  0.8320E+01  0.7881E+01  0.4271E+03
   1.840  0.8443E+01  0.8063E+01  0.4273E+03
   1.850  0.8412E+01  0.8243E+01  0.4274E+03
   1.860  0.8342E+01  0.8301E+01  0.4276E+03
   1.870  0.8271E+01  0.8215E+01  0.4278E+03
   1.880  0.8219E+01  0.8078E+01  0.4279E+03
   1.890  0.9167E+01  0.7973E+01  0.4281E+03
   1.900  0.8310E+01  0.7736E+01  0.4283E+03
   1.910  0.8502E+01  0.8299E+01  0.4284E+03
   1.920  0.8733E+01  0.8044E+01  0.4286E+03
   1.930  0.9061E+01  0.8143E+01  0.4288E+03
   1.940  0.9417E+01  0.8302E+01  0.4289E+03
   1.950  0.9731E+01  0.8532E+01  0.4291E+03
   1.960  0.9983E+01  0.8784E+01  0.4293E+03
   1.970  0.1019E+02  0.9117E+01  0.4295E+03
   1.980  0.1034E+02  0.9493E+01  0.4297E+03
   1.990  0.1041E+02  0.9849E+01  0.4299E+03
   2.000  0.1035E+02  0.1015E+02  0.4301E+03
   2.010  0.1007E+02  0.1032E+02  0.4303E+03
   2.020  0.1010E+02  0.1031E+02  0.4305E+03
   2.030  0.9033E+01  0.1018E+02  0.4307E+03
   2.040  0.8228E+01  0.1006E+02  0.4309E+03
   2.050  0.7957E+01  0.8467E+01  0.4311E+03
   2.060  0.7776E+01  0.7909E+01  0.4312E+03
   2.070  0.7627E+01  0.7676E+01  0.4314E+03
   2.080  0.7521E+01  0.7484E+01  0.4315E+03
   2.090  0.7455E+01  0.7368E+01  0.4317E+03
   2.100  0.7423E+01  0.7290E+01  0.4318E+03
   2.110  0.7451E+01  0.7259E+01  0.4320E+03
   2.120  0.7499E+01  0.7261E+01  0.4321E+03
   2.130  0.7596E+01  0.7321E+01  0.4323E+03
   2.140  0.8089E+01  0.7389E+01  0.4324E+03
   2.150  0.7896E+01  0.7555E+01  0.4326E+03
   2.160  0.7332E+01  0.8020E+01  0.4327E+03
   2.170  0.6749E+01  0.7714E+01  0.4329E+03
   2.180  0.6249E+01  0.6932E+01  0.4330E+03
   2.190  0.5761E+01  0.6603E+01  0.4331E+03
   2.200  0.5350E+01  0.6231E+01  0.4333E+03
   2.210  0.5211E+01  0.5870E+01  0.4334E+03
   2.220  0.5235E+01  0.5551E+01  0.4335E+03
   2.230  0.5297E+01  0.5297E+01  0.4336E+03
   2.240  0.5372E+01  0.5208E+01  0.4337E+03
   2.250  0.5460E+01  0.5236E+01  0.4338E+03
   2.260  0.5601E+01  0.5301E+01  0.4339E+03
   2.270  0.5819E+01  0.5381E+01  0.4340E+03
   2.280  0.6110E+01  0.5500E+01  0.4341E+03
   2.290  0.5969E+01  0.5658E+01  0.4343E+03
   2.300  0.5574E+01  0.5843E+01  0.4344E+03
   2.310  0.5542E+01  0.6066E+01  0.4345E+03
   2.320  0.5469E+01  0.5699E+01  0.4346E+03
   2.330  0.5500E+01  0.5470E+01  0.4347E+03
   2.340  0.5541E+01  0.5350E+01  0.4348E+03
   2.350  0.5600E+01  0.5411E+01  0.4349E+03
   2.360  0.5702E+01  0.5448E+01  0.4350E+03
   2.370  0.5835E+01  0.5449E+01  0.4352E+03
   2.380  0.6188E+01  0.5438E+01  0.4353E+03
   2.390  0.7130E+01  0.5443E+01  0.4354E+03
   2.400  0.7728E+01  0.5539E+01  0.4355E+03
   2.410  0.8124E+01  0.6023E+01  0.4357E+03
   2.420  0.8422E+01  0.6802E+01  0.4358E+03
   2.430  0.8608E+01  0.7290E+01  0.4360E+03
   2.440  0.8676E+01  0.7609E+01  0.4361E+03
   2.450  0.8805E+01  0.7803E+01  0.4363E+03
   2.460  0.9506E+01  0.8111E+01  0.4365E+03
   2.470  0.9644E+01  0.8820E+01  0.4366E+03
   2.480  0.9821E+01  0.9176E+01  0.4368E+03
   2.490  0.1009E+02  0.9579E+01  0.4370E+03
   2.500  0.1025E+02  0.1002E+02  0.4372E+03
   2.510  0.1036E+02  0.1053E+02  0.4374E+03
   2.520  0.1063E+02  0.1100E+02  0.4376E+03
   2.530  0.1106E+02  0.1154E+02  0.4379E+03
   2.540  0.1150E+02  0.1212E+02  0.4381E+03
   2.550  0.1156E+02  0.1260E+02  0.4383E+03
   2.560  0.1201E+02  0.1300E+02  0.4386E+03
   2.570  0.1290E+02  0.1311E+02  0.4388E+03
   2.580  0.1422E+02  0.1357E+02  0.4391E+03
   2.590  0.1492E+02  0.1432E+02  0.4394E+03
   2.600  0.1582E+02  0.1491E+02  0.4397E+03
   2.610  0.1689E+02  0.1515E+02  0.4400E+03
   2.620  0.1756E+02  0.1594E+02  0.4403E+03
   2.630  0.1913E+02  0.1596E+02  0.4407E+03
   2.640  0.2169E+02  0.1813E+02  0.4410E+03
   2.650  0.2443E+02  0.1916E+02  0.4415E+03
   2.660  0.2558E+02  0.2219E+02  0.4419E+03
   2.670  0.2459E+02  0.2355E+02  0.4424E+03
   2.680  0.2336E+02  0.2305E+02  0.4429E+03
   2.690  0.2373E+02  0.2359E+02  0.4433E+03
   2.700  0.2429E+02  0.2248E+02  0.4438E+03
   2.710  0.2558E+02  0.2258E+02  0.4443E+03
   2.720  0.2681E+02  0.2271E+02  0.4448E+03
   2.730  0.2403E+02  0.2476E+02  0.4453E+03
   2.740  0.2260E+02  0.2613E+02  0.4458E+03
   2.750  0.2227E+02  0.2694E+02  0.4462E+03
   2.760  0.2320E+02  0.2418E+02  0.4467E+03
   2.770  0.2386E+02  0.2371E+02  0.4472E+03
   2.780  0.2684E+02  0.2264E+02  0.4477E+03
   2.790  0.2955E+02  0.2340E+02  0.4482E+03
   2.800  0.2872E+02  0.2284E+02  0.4487E+03
   2.810  0.2579E+02  0.2375E+02  0.4492E+03
   2.820  0.2327E+02  0.2439E+02  0.4497E+03
   2.830  0.2272E+02  0.2433E+02  0.4502E+03
   2.840  0.2268E+02  0.2475E+02  0.4507E+03
   2.850  0.2343E+02  0.2265E+02  0.4511E+03
   2.860  0.2750E+02  0.2069E+02  0.4516E+03
   2.870  0.3158E+02  0.2155E+02  0.4521E+03
   2.880  0.2737E+02  0.2030E+02  0.4526E+03
   2.890  0.2624E+02  0.2195E+02  0.4531E+03
   2.900  0.2789E+02  0.2396E+02  0.4536E+03
   2.910  0.2706E+02  0.2717E+02  0.4541E+03
   2.920  0.2406E+02  0.2696E+02  0.4547E+03
   2.930  0.2400E+02  0.2357E+02  0.4551E+03
   2.940  0.2307E+02  0.2306E+02  0.4556E+03
   2.950  0.2074E+02  0.2386E+02  0.4561E+03
   2.960  0.2117E+02  0.2628E+02  0.4565E+03
   2.970  0.2176E+02  0.2519E+02  0.4570E+03
   2.980  0.2230E+02  0.2513E+02  0.4575E+03
   2.990  0.2263E+02  0.2488E+02  0.4579E+03
   3.000  0.2325E+02  0.2432E+02  0.4584E+03
   3.010  0.2489E+02  0.2372E+02  0.4589E+03
   3.020  0.2603E+02  0.2317E+02  0.4594E+03
   3.030  0.2724E+02  0.2448E+02  0.4599E+03
   3.040  0.2881E+02  0.2657E+02  0.4604E+03
   3.050  0.2465E+02  0.2893E+02  0.4610E+03
   3.060  0.2260E+02  0.2446E+02  0.4615E+03
   3.070  0.1874E+02  0.2380E+02  0.4619E+03
   3.080  0.1780E+02  0.2483E+02  0.4623E+03
   3.090  0.1830E+02  0.2523E+02  0.4628E+03
   3.100  0.1868E+02  0.2468E+02  0.4632E+03
   3.110  0.1834E+02  0.2342E+02  0.4636E+03
   3.120  0.1859E+02  0.2172E+02  0.4641E+03
   3.130  0.2098E+02  0.2055E+02  0.4644E+03
   3.140  0.2108E+02  0.1894E+02  0.4649E+03
   3.150  0.2336E+02  0.1815E+02  0.4653E+03
   3.160  0.2258E+02  0.1754E+02  0.4657E+03
   3.170  0.2354E+02  0.1766E+02  0.4661E+03
   3.180  0.2436E+02  0.1839E+02  0.4665E+03
   3.190  0.2451E+02  0.2094E+02  0.4669E+03
   3.200  0.2595E+02  0.2254E+02  0.4674E+03
   3.210  0.2784E+02  0.2372E+02  0.4679E+03
   3.220  0.2481E+02  0.2297E+02  0.4684E+03
   3.230  0.2597E+02  0.1999E+02  0.4689E+03
   3.240  0.2576E+02  0.1979E+02  0.4694E+03
   3.250  0.2749E+02  0.2107E+02  0.4698E+03
   3.260  0.3010E+02  0.2486E+02  0.4703E+03
   3.270  0.3702E+02  0.2542E+02  0.4709E+03
   3.280  0.3496E+02  0.2747E+02  0.4716E+03
   3.290  0.3189E+02  0.2883E+02  0.4722E+03
   3.300  0.2865E+02  0.2916E+02  0.4728E+03
   3.310  0.2629E+02  0.2975E+02  0.4734E+03
   3.320  0.2763E+02  0.3368E+02  0.4740E+03
   3.330  0.2817E+02  0.3212E+02  0.4746E+03
   3.340  0.2724E+02  0.3499E+02  0.4752E+03
   3.350  0.2745E+02  0.3363E+02  0.4758E+03
   3.360  0.2798E+02  0.3505E+02  0.4764E+03
   3.370  0.2863E+02  0.3516E+02  0.4771E+03
   3.380  0.2946E+02  0.3455E+02  0.4777E+03
   3.390  0.3009E+02  0.3282E+02  0.4784E+03
   3.400  0.3034E+02  0.3234E+02  0.4790E+03
   3.410  0.3084E+02  0.3174E+02  0.4796E+03
   3.420  0.3019E+02  0.3226E+02  0.4802E+03
   3.430  0.3070E+02  0.3280E+02  0.4809E+03
   3.440  0.3203E+02  0.3222E+02  0.4815E+03
   3.450  0.3215E+02  0.3146E+02  0.4821E+03
   3.460  0.3048E+02  0.3155E+02  0.4828E+03
   3.470  0.2659E+02  0.3002E+02  0.4834E+03
   3.480  0.2435E+02  0.2858E+02  0.4839E+03
   3.490  0.3357E+02  0.2835E+02  0.4845E+03
   3.500  0.3368E+02  0.2941E+02  0.4851E+03
   3.510  0.3049E+02  0.3413E+02  0.4857E+03
   3.520  0.3158E+02  0.3238E+02  0.4864E+03
   3.530  0.2841E+02  0.2842E+02  0.4870E+03
   3.540  0.2719E+02  0.2875E+02  0.4876E+03
   3.550  0.2686E+02  0.3676E+02  0.4881E+03
   3.560  0.2814E+02  0.2945E+02  0.4887E+03
   3.570  0.3459E+02  0.2913E+02  0.4894E+03
   3.580  0.3738E+02  0.2933E+02  0.4900E+03
   3.590  0.3379E+02  0.3153E+02  0.4907E+03
   3.600  0.3633E+02  0.3319E+02  0.4913E+03
   3.610  0.3796E+02  0.3510E+02  0.4921E+03
   3.620  0.3144E+02  0.3670E+02  0.4928E+03
   3.630  0.2891E+02  0.3690E+02  0.4934E+03
   3.640  0.2766E+02  0.3415E+02  0.4941E+03
   3.650  0.3093E+02  0.2817E+02  0.4947E+03
   3.660  0.3272E+02  0.2888E+02  0.4953E+03
   3.670  0.3063E+02  0.2997E+02  0.4959E+03
   3.680  0.3454E+02  0.2925E+02  0.4965E+03
   3.690  0.3447E+02  0.2773E+02  0.4971E+03
   3.700  0.3215E+02  0.2930E+02  0.4978E+03
   3.710  0.2890E+02  0.3063E+02  0.4984E+03
   3.720  0.2621E+02  0.4012E+02  0.4990E+03
   3.730  0.2647E+02  0.3041E+02  0.4996E+03
   3.740  0.2738E+02  0.2712E+02  0.5002E+03
   3.750  0.2709E+02  0.2551E+02  0.5007E+03
   3.760  0.2918E+02  0.2435E+02  0.5013E+03
   3.770  0.3295E+02  0.2539E+02  0.5018E+03
   3.780  0.3023E+02  0.2747E+02  0.5024E+03
   3.790  0.3030E+02  0.3033E+02  0.5030E+03
   3.800  0.3039E+02  0.2704E+02  0.5036E+03
   3.810  0.2918E+02  0.2630E+02  0.5041E+03
   3.820  0.2893E+02  0.2626E+02  0.5047E+03
   3.830  0.2853E+02  0.3321E+02  0.5053E+03
   3.840  0.3014E+02  0.3250E+02  0.5059E+03
   3.850  0.3366E+02  0.3172E+02  0.5066E+03
   3.860  0.3189E+02  0.3305E+02  0.5072E+03
   3.870  0.3078E+02  0.3193E+02  0.5079E+03
   3.880  0.3168E+02  0.3553E+02  0.5085E+03
   3.890  0.2632E+02  0.3316E+02  0.5091E+03
   3.900  0.3622E+02  0.3086E+02  0.5098E+03
   3.910  0.3263E+02  0.3381E+02  0.5105E+03
   3.920  0.3194E+02  0.3579E+02  0.5111E+03
   3.930  0.3193E+02  0.3131E+02  0.5118E+03
   3.940  0.2867E+02  0.2868E+02  0.5124E+03
   3.950  0.2930E+02  0.2898E+02  0.5130E+03
   3.960  0.3050E+02  0.2937E+02  0.5136E+03
   3.970  0.3129E+02  0.2885E+02  0.5142E+03
   3.980  0.3159E+02  0.2944E+02  0.5148E+03
   3.990  0.3699E+02  0.2880E+02  0.5154E+03
   4.000  0.3412E+02  0.2875E+02  0.5160E+03
   4.010  0.3431E+02  0.3225E+02  0.5167E+03
   4.020  0.3328E+02  0.2976E+02  0.5173E+03
   4.030  0.3320E+02  0.3149E+02  0.5180E+03
   4.040  0.3303E+02  0.3062E+02  0.5186E+03
   4.050  0.3347E+02  0.2908E+02  0.5192E+03
   4.060  0.3042E+02  0.2961E+02  0.5198E+03
   4.070  0.3157E+02  0.2878E+02  0.5205E+03
   4.080  0.2996E+02  0.3037E+02  0.5211E+03
   4.090  0.2924E+02  0.3117E+02  0.5217E+03
   4.100  0.2998E+02  0.3133E+02  0.5223E+03
   4.110  0.2730E+02  0.3196E+02  0.5229E+03
   4.120  0.2763E+02  0.3301E+02  0.5235E+03
   4.130  0.2867E+02  0.3444E+02  0.5241E+03
   4.140  0.2965E+02  0.3290E+02  0.5247E+03
   4.150  0.3083E+02  0.3184E+02  0.5254E+03
   4.160  0.3304E+02  0.3148E+02  0.5260E+03
   4.170  0.3422E+02  0.3310E+02  0.5266E+03
   4.180  0.3514E+02  0.3765E+02  0.5273E+03
   4.190  0.3194E+02  0.3908E+02  0.5281E+03
   4.200  0.3063E+02  0.3558E+02  0.5287E+03
   4.210  0.2958E+02  0.3215E+02  0.5294E+03
   4.220  0.2675E+02  0.2793E+02  0.5300E+03
   4.230  0.2707E+02  0.2836E+02  0.5305E+03
   4.240  0.2866E+02  0.2788E+02  0.5311E+03
   4.250  0.3195E+02  0.2660E+02  0.5316E+03
   4.260  0.3386E+02  0.2876E+02  0.5322E+03
   4.270  0.2718E+02  0.3585E+02  0.5329E+03
   4.280  0.2403E+02  0.3289E+02  0.5335E+03
   4.290  0.2804E+02  0.2564E+02  0.5340E+03
   4.300  0.3113E+02  0.2461E+02  0.5346E+03
   4.310  0.3013E+02  0.2990E+02  0.5351E+03
   4.320  0.2468E+02  0.3356E+02  0.5357E+03
   4.330  0.2261E+02  0.2945E+02  0.5363E+03
   4.340  0.2362E+02  0.2444E+02  0.5368E+03
   4.350  0.2500E+02  0.2374E+02  0.5373E+03
   4.360  0.2551E+02  0.2387E+02  0.5378E+03
   4.370  0.3098E+02  0.2341E+02  0.5383E+03
   4.380  0.3491E+02  0.2253E+02  0.5388E+03
   4.390  0.3180E+02  0.2342E+02  0.5394E+03
   4.400  0.2692E+02  0.2473E+02  0.5399E+03
   4.410  0.2861E+02  0.2805E+02  0.5405E+03
   4.420  0.2801E+02  0.2958E+02  0.5410E+03
   4.430  0.2700E+02  0.2868E+02  0.5416E+03
   4.440  0.3026E+02  0.2715E+02  0.5422E+03
   4.450  0.3376E+02  0.2860E+02  0.5428E+03
   4.460  0.3588E+02  0.3003E+02  0.5434E+03
   4.470  0.3754E+02  0.3093E+02  0.5441E+03
   4.480  0.3900E+02  0.3205E+02  0.5448E+03
   4.490  0.4305E+02  0.3422E+02  0.5455E+03
   4.500  0.4329E+02  0.3480E+02  0.5463E+03
   4.510  0.3719E+02  0.3615E+02  0.5471E+03
   4.520  0.2607E+02  0.3911E+02  0.5478E+03
   4.530  0.2385E+02  0.3723E+02  0.5484E+03
   4.540  0.2194E+02  0.4224E+02  0.5490E+03
   4.550  0.2375E+02  0.3655E+02  0.5496E+03
   4.560  0.2703E+02  0.3529E+02  0.5502E+03
   4.570  0.2882E+02  0.2790E+02  0.5508E+03
   4.580  0.3124E+02  0.2350E+02  0.5514E+03
   4.590  0.2785E+02  0.2339E+02  0.5519E+03
   4.600  0.2572E+02  0.2460E+02  0.5524E+03
   4.610  0.2459E+02  0.2522E+02  0.5529E+03
   4.620  0.2428E+02  0.2979E+02  0.5534E+03
   4.630  0.2454E+02  0.2907E+02  0.5540E+03
   4.640  0.2696E+02  0.2695E+02  0.5545E+03
   4.650  0.3142E+02  0.2692E+02  0.5551E+03
   4.660  0.2973E+02  0.2702E+02  0.5557E+03
   4.670  0.3825E+02  0.3374E+02  0.5563E+03
   4.680  0.2011E+02  0.3228E+02  0.5569E+03
   4.690  0.2296E+02  0.2736E+02  0.5574E+03
   4.700  0.2646E+02  0.2113E+02  0.5579E+03
   4.710  0.2763E+02  0.1997E+02  0.5584E+03
   4.720  0.3202E+02  0.2102E+02  0.5589E+03
   4.730  0.2939E+02  0.2352E+02  0.5594E+03
   4.740  0.2609E+02  0.2640E+02  0.5600E+03
   4.750  0.2461E+02  0.2672E+02  0.5605E+03
   4.760  0.1942E+02  0.3061E+02  0.5610E+03
   4.770  0.1795E+02  0.2626E+02  0.5615E+03
   4.780  0.1730E+02  0.2115E+02  0.5619E+03
   4.790  0.1666E+02  0.1920E+02  0.5622E+03
   4.800  0.1677E+02  0.1829E+02  0.5626E+03
   4.810  0.1782E+02  0.1655E+02  0.5629E+03
   4.820  0.2060E+02  0.1615E+02  0.5633E+03
   4.830  0.2052E+02  0.1722E+02  0.5637E+03
   4.840  0.2064E+02  0.1588E+02  0.5640E+03
   4.850  0.1994E+02  0.1685E+02  0.5644E+03
   4.860  0.2033E+02  0.1845E+02  0.5648E+03
   4.870  0.2105E+02  0.1983E+02  0.5652E+03
   4.880  0.1966E+02  0.1973E+02  0.5656E+03
   4.890  0.1945E+02  0.1962E+02  0.5660E+03
   4.900  0.2185E+02  0.1897E+02  0.5664E+03
   4.910  0.2781E+02  0.1787E+02  0.5668E+03
   4.920  0.2995E+02  0.1626E+02  0.5673E+03
   4.930  0.2256E+02  0.1737E+02  0.5677E+03
   4.940  0.1980E+02  0.2110E+02  0.5681E+03
   4.950  0.1836E+02  0.2718E+02  0.5685E+03
   4.960  0.1781E+02  0.2472E+02  0.5690E+03
   4.970  0.1751E+02  0.2430E+02  0.5694E+03
   4.980  0.1726E+02  0.2231E+02  0.5698E+03
   4.990  0.1743E+02  0.1676E+02  0.5702E+03
   5.000  0.1589E+02  0.1717E+02  0.5705E+03
   5.010  0.1553E+02  0.1870E+02  0.5708E+03
   5.020  0.1755E+02  0.2073E+02  0.5712E+03
   5.030  0.1467E+02  0.2004E+02  0.5716E+03
   5.040  0.1306E+02  0.2098E+02  0.5719E+03
   5.050  0.1159E+02  0.1746E+02  0.5722E+03
   5.060  0.1009E+02  0.1668E+02  0.5725E+03
   5.070  0.8973E+01  0.1399E+02  0.5728E+03
   5.080  0.7825E+01  0.1229E+02  0.5730E+03
   5.090  0.7183E+01  0.1101E+02  0.5732E+03
   5.100  0.7975E+01  0.1007E+02  0.5733E+03
   5.110  0.1209E+02  0.9273E+01  0.5735E+03
   5.120  0.1304E+02  0.9114E+01  0.5738E+03
   5.130  0.1233E+02  0.9054E+01  0.5740E+03
   5.140  0.1308E+02  0.6998E+01  0.5742E+03
   5.150  0.1336E+02  0.6295E+01  0.5744E+03
   5.160  0.1459E+02  0.7502E+01  0.5746E+03
   5.170  0.1348E+02  0.8354E+01  0.5748E+03
   5.180  0.1307E+02  0.8699E+01  0.5750E+03
   5.190  0.1645E+02  0.9540E+01  0.5752E+03
   5.200  0.1103E+02  0.1071E+02  0.5755E+03
   5.210  0.1092E+02  0.1240E+02  0.5757E+03
   5.220  0.1099E+02  0.1300E+02  0.5760E+03
   5.230  0.1038E+02  0.1242E+02  0.5762E+03
   5.240  0.9594E+01  0.1273E+02  0.5764E+03
   5.250  0.8806E+01  0.1320E+02  0.5766E+03
   5.260  0.7863E+01  0.1391E+02  0.5769E+03
   5.270  0.6609E+01  0.1769E+02  0.5771E+03
   5.280  0.5583E+01  0.1636E+02  0.5773E+03
   5.290  0.4891E+01  0.1120E+02  0.5775E+03
   5.300  0.3583E+01  0.8873E+01  0.5777E+03
   5.310  0.2891E+01  0.7456E+01  0.5778E+03
   5.320  0.2154E+01  0.5528E+01  0.5779E+03
   5.330  0.2147E+01  0.3347E+01  0.5779E+03
   5.340  0.5477E+01  0.2099E+01  0.5780E+03
   5.350  0.8024E+01  0.1481E+01  0.5781E+03
   5.360  0.9458E+01  0.1030E+01  0.5782E+03
   5.370  0.1093E+02  0.6929E+00  0.5783E+03
   5.380  0.1173E+02  0.3834E+00  0.5784E+03
   5.390  0.1178E+02  0.1401E+00  0.5785E+03
   5.400  0.9368E+01  0.1783E-01  0.5786E+03
   5.410  0.7046E+01  0.0000E+00  0.5787E+03
   5.420  0.5091E+01  0.0000E+00  0.5788E+03
   5.430  0.3106E+01  0.0000E+00  0.5788E+03
   5.440  0.2627E+01  0.0000E+00  0.5789E+03
   5.450  0.2836E+01  0.0000E+00  0.5789E+03
   5.460  0.3839E+01  0.0000E+00  0.5789E+03
   5.470  0.5133E+01  0.0000E+00  0.5790E+03
   5.480  0.6522E+01  0.0000E+00  0.5790E+03
   5.490  0.7742E+01  0.0000E+00  0.5791E+03
   5.500  0.1110E+02  0.0000E+00  0.5792E+03
   5.510  0.1178E+02  0.1188E-02  0.5793E+03
   5.520  0.1449E+02  0.7577E-01  0.5794E+03
   5.530  0.1614E+02  0.3095E+00  0.5796E+03
   5.540  0.2050E+02  0.7151E+00  0.5798E+03
   5.550  0.2044E+02  0.1473E+01  0.5800E+03
   5.560  0.1500E+02  0.7960E+01  0.5802E+03
   5.570  0.1363E+02  0.1612E+02  0.5805E+03
   5.580  0.1172E+02  0.1682E+02  0.5808E+03
   5.590  0.9505E+01  0.1498E+02  0.5810E+03
   5.600  0.1083E+02  0.1181E+02  0.5813E+03
   5.610  0.7727E+01  0.7445E+01  0.5815E+03
   5.620  0.6225E+01  0.4343E+01  0.5816E+03
   5.630  0.4809E+01  0.3489E+01  0.5817E+03
   5.640  0.3943E+01  0.2942E+01  0.5818E+03
   5.650  0.3112E+01  0.5347E+01  0.5818E+03
   5.660  0.3121E+01  0.8161E+01  0.5819E+03
   5.670  0.2467E+01  0.1024E+02  0.5820E+03
   5.680  0.8449E+00  0.1265E+02  0.5822E+03
   5.690  0.1105E+00  0.1566E+02  0.5823E+03
   5.700  0.3419E-02  0.1956E+02  0.5825E+03
   5.710  0.5287E-03  0.1955E+02  0.5827E+03
   5.720  0.6710E-06  0.2772E+02  0.5829E+03
   5.730  0.0000E+00  0.3530E+02  0.5832E+03
   5.740  0.0000E+00  0.1869E+02  0.5835E+03
   5.750  0.0000E+00  0.1470E+02  0.5837E+03
   5.760  0.0000E+00  0.8762E+01  0.5838E+03
   5.770  0.0000E+00  0.6032E+01  0.5839E+03
   5.780  0.0000E+00  0.4414E+01  0.5839E+03
   5.790  0.0000E+00  0.4076E+01  0.5840E+03
   5.800  0.0000E+00  0.2626E+01  0.5840E+03
   5.810  0.0000E+00  0.3078E+00  0.5840E+03
   5.820  0.0000E+00  0.5180E-02  0.5840E+03
   5.830  0.0000E+00  0.3474E-03  0.5840E+03
   5.840  0.0000E+00  0.0000E+00  0.5840E+03
   5.850  0.0000E+00  0.0000E+00  0.5840E+03
   5.860  0.0000E+00  0.0000E+00  0.5840E+03
   5.870  0.0000E+00  0.0000E+00  0.5840E+03
   5.880  0.0000E+00  0.0000E+00  0.5840E+03
   5.890  0.0000E+00  0.0000E+00  0.5840E+03
   5.900  0.0000E+00  0.0000E+00  0.5840E+03
   5.910  0.0000E+00  0.0000E+00  0.5840E+03
   5.920  0.0000E+00  0.0000E+00  0.5840E+03
   5.930  0.0000E+00  0.0000E+00  0.5840E+03
   5.940  0.0000E+00  0.0000E+00  0.5840E+03
   5.950  0.0000E+00  0.0000E+00  0.5840E+03
   5.960  0.0000E+00  0.0000E+00  0.5840E+03
   5.970  0.0000E+00  0.0000E+00  0.5840E+03
   5.980  0.0000E+00  0.0000E+00  0.5840E+03
   5.990  0.0000E+00  0.0000E+00  0.5840E+03
   6.000  0.0000E+00  0.0000E+00  0.5840E+03
   6.010  0.0000E+00  0.0000E+00  0.5840E+03
   6.020  0.0000E+00  0.0000E+00  0.5840E+03
   6.030  0.0000E+00  0.0000E+00  0.5840E+03
   6.040  0.0000E+00  0.0000E+00  0.5840E+03
   6.050  0.0000E+00  0.0000E+00  0.5840E+03
   6.060  0.0000E+00  0.0000E+00  0.5840E+03
   6.070  0.0000E+00  0.0000E+00  0.5840E+03
   6.080  0.0000E+00  0.0000E+00  0.5840E+03
   6.090  0.0000E+00  0.0000E+00  0.5840E+03
   6.100  0.0000E+00  0.0000E+00  0.5840E+03
   6.110  0.0000E+00  0.0000E+00  0.5840E+03
   6.120  0.0000E+00  0.0000E+00  0.5840E+03
   6.130  0.0000E+00  0.0000E+00  0.5840E+03
   6.140  0.0000E+00  0.0000E+00  0.5840E+03
   6.150  0.0000E+00  0.0000E+00  0.5840E+03
   6.160  0.0000E+00  0.0000E+00  0.5840E+03
   6.170  0.0000E+00  0.0000E+00  0.5840E+03
   6.180  0.0000E+00  0.0000E+00  0.5840E+03
   6.190  0.0000E+00  0.0000E+00  0.5840E+03
   6.200  0.0000E+00  0.0000E+00  0.5840E+03
   6.210  0.0000E+00  0.0000E+00  0.5840E+03
   6.220  0.0000E+00  0.0000E+00  0.5840E+03
   6.230  0.0000E+00  0.0000E+00  0.5840E+03
   6.240  0.0000E+00  0.0000E+00  0.5840E+03
   6.250  0.0000E+00  0.0000E+00  0.5840E+03
   6.260  0.0000E+00  0.0000E+00  0.5840E+03
   6.270  0.0000E+00  0.0000E+00  0.5840E+03
   6.280  0.0000E+00  0.0000E+00  0.5840E+03
   6.290  0.0000E+00  0.0000E+00  0.5840E+03
   6.300  0.0000E+00  0.0000E+00  0.5840E+03
   6.310  0.0000E+00  0.0000E+00  0.5840E+03
   6.320  0.0000E+00  0.0000E+00  0.5840E+03
   6.330  0.0000E+00  0.0000E+00  0.5840E+03
   6.340  0.0000E+00  0.0000E+00  0.5840E+03
   6.350  0.0000E+00  0.0000E+00  0.5840E+03
   6.360  0.0000E+00  0.0000E+00  0.5840E+03
   6.370  0.0000E+00  0.0000E+00  0.5840E+03
   6.380  0.0000E+00  0.0000E+00  0.5840E+03
   6.390  0.0000E+00  0.0000E+00  0.5840E+03
   6.400  0.0000E+00  0.0000E+00  0.5840E+03
   6.410  0.0000E+00  0.0000E+00  0.5840E+03
   6.420  0.0000E+00  0.0000E+00  0.5840E+03
   6.430  0.0000E+00  0.0000E+00  0.5840E+03
   6.440  0.0000E+00  0.0000E+00  0.5840E+03
   6.450  0.0000E+00  0.0000E+00  0.5840E+03
   6.460  0.0000E+00  0.0000E+00  0.5840E+03
   6.470  0.0000E+00  0.0000E+00  0.5840E+03
   6.480  0.0000E+00  0.0000E+00  0.5840E+03
   6.490  0.0000E+00  0.0000E+00  0.5840E+03
   6.500  0.0000E+00  0.0000E+00  0.5840E+03
   6.510  0.0000E+00  0.0000E+00  0.5840E+03
   6.520  0.0000E+00  0.0000E+00  0.5840E+03
   6.530  0.0000E+00  0.0000E+00  0.5840E+03
   6.540  0.0000E+00  0.0000E+00  0.5840E+03
   6.550  0.0000E+00  0.0000E+00  0.5840E+03
   6.560  0.0000E+00  0.0000E+00  0.5840E+03
   6.570  0.0000E+00  0.0000E+00  0.5840E+03
   6.580  0.0000E+00  0.0000E+00  0.5840E+03
   6.590  0.0000E+00  0.0000E+00  0.5840E+03
   6.600  0.0000E+00  0.0000E+00  0.5840E+03
   6.610  0.0000E+00  0.0000E+00  0.5840E+03
   6.620  0.0000E+00  0.0000E+00  0.5840E+03
   6.630  0.0000E+00  0.0000E+00  0.5840E+03
   6.640  0.0000E+00  0.0000E+00  0.5840E+03
   6.650  0.0000E+00  0.0000E+00  0.5840E+03
   6.660  0.0000E+00  0.0000E+00  0.5840E+03
   6.670  0.0000E+00  0.0000E+00  0.5840E+03
   6.680  0.0000E+00  0.0000E+00  0.5840E+03
   6.690  0.0000E+00  0.0000E+00  0.5840E+03
   6.700  0.0000E+00  0.0000E+00  0.5840E+03
   6.710  0.0000E+00  0.0000E+00  0.5840E+03
   6.720  0.0000E+00  0.0000E+00  0.5840E+03
   6.730  0.0000E+00  0.0000E+00  0.5840E+03
   6.740  0.0000E+00  0.0000E+00  0.5840E+03
   6.750  0.0000E+00  0.0000E+00  0.5840E+03
   6.760  0.0000E+00  0.0000E+00  0.5840E+03
   6.770  0.0000E+00  0.0000E+00  0.5840E+03
   6.780  0.0000E+00  0.0000E+00  0.5840E+03
   6.790  0.0000E+00  0.0000E+00  0.5840E+03
   6.800  0.0000E+00  0.0000E+00  0.5840E+03
   6.810  0.0000E+00  0.0000E+00  0.5840E+03
   6.820  0.0000E+00  0.0000E+00  0.5840E+03
   6.830  0.0000E+00  0.0000E+00  0.5840E+03
   6.840  0.0000E+00  0.0000E+00  0.5840E+03
   6.850  0.0000E+00  0.0000E+00  0.5840E+03
   6.860  0.0000E+00  0.0000E+00  0.5840E+03
   6.870  0.0000E+00  0.0000E+00  0.5840E+03
   6.880  0.0000E+00  0.0000E+00  0.5840E+03
   6.890  0.0000E+00  0.0000E+00  0.5840E+03
   6.900  0.0000E+00  0.0000E+00  0.5840E+03
   6.910  0.0000E+00  0.0000E+00  0.5840E+03
   6.920  0.0000E+00  0.0000E+00  0.5840E+03
   6.930  0.0000E+00  0.0000E+00  0.5840E+03
   6.940  0.0000E+00  0.0000E+00  0.5840E+03
   6.950  0.0000E+00  0.0000E+00  0.5840E+03
   6.960  0.0000E+00  0.0000E+00  0.5840E+03
   6.970  0.0000E+00  0.0000E+00  0.5840E+03
   6.980  0.0000E+00  0.0000E+00  0.5840E+03
   6.990  0.0000E+00  0.0000E+00  0.5840E+03
   7.000  0.0000E+00  0.0000E+00  0.5840E+03
   7.010  0.0000E+00  0.0000E+00  0.5840E+03
   7.020  0.0000E+00  0.0000E+00  0.5840E+03
   7.030  0.0000E+00  0.0000E+00  0.5840E+03
   7.040  0.0000E+00  0.0000E+00  0.5840E+03
   7.050  0.0000E+00  0.0000E+00  0.5840E+03
   7.060  0.0000E+00  0.0000E+00  0.5840E+03
   7.070  0.0000E+00  0.0000E+00  0.5840E+03
   7.080  0.0000E+00  0.0000E+00  0.5840E+03
   7.090  0.0000E+00  0.0000E+00  0.5840E+03
   7.100  0.0000E+00  0.0000E+00  0.5840E+03
   7.110  0.0000E+00  0.0000E+00  0.5840E+03
   7.120  0.0000E+00  0.0000E+00  0.5840E+03
   7.130  0.0000E+00  0.0000E+00  0.5840E+03
   7.140  0.0000E+00  0.0000E+00  0.5840E+03
   7.150  0.0000E+00  0.0000E+00  0.5840E+03
   7.160  0.0000E+00  0.0000E+00  0.5840E+03
   7.170  0.0000E+00  0.0000E+00  0.5840E+03
   7.180  0.0000E+00  0.0000E+00  0.5840E+03
   7.190  0.0000E+00  0.0000E+00  0.5840E+03
   7.200  0.0000E+00  0.0000E+00  0.5840E+03
   7.210  0.0000E+00  0.0000E+00  0.5840E+03
   7.220  0.0000E+00  0.0000E+00  0.5840E+03
   7.230  0.0000E+00  0.0000E+00  0.5840E+03
   7.240  0.0000E+00  0.0000E+00  0.5840E+03
   7.250  0.0000E+00  0.0000E+00  0.5840E+03
   7.260  0.0000E+00  0.0000E+00  0.5840E+03
   7.270  0.0000E+00  0.0000E+00  0.5840E+03
   7.280  0.0000E+00  0.0000E+00  0.5840E+03
   7.290  0.0000E+00  0.0000E+00  0.5840E+03
   7.300  0.0000E+00  0.0000E+00  0.5840E+03
   7.310  0.0000E+00  0.0000E+00  0.5840E+03
   7.320  0.0000E+00  0.0000E+00  0.5840E+03
   7.330  0.0000E+00  0.0000E+00  0.5840E+03
   7.340  0.0000E+00  0.0000E+00  0.5840E+03
   7.350  0.0000E+00  0.0000E+00  0.5840E+03
   7.360  0.0000E+00  0.0000E+00  0.5840E+03
   7.370  0.0000E+00  0.0000E+00  0.5840E+03
   7.380  0.0000E+00  0.0000E+00  0.5840E+03
   7.390  0.0000E+00  0.0000E+00  0.5840E+03
   7.400  0.0000E+00  0.0000E+00  0.5840E+03
   7.410  0.0000E+00  0.0000E+00  0.5840E+03
   7.420  0.0000E+00  0.0000E+00  0.5840E+03
   7.430  0.0000E+00  0.0000E+00  0.5840E+03
   7.440  0.0000E+00  0.0000E+00  0.5840E+03
   7.450  0.0000E+00  0.0000E+00  0.5840E+03
   7.460  0.0000E+00  0.0000E+00  0.5840E+03
   7.470  0.0000E+00  0.0000E+00  0.5840E+03
   7.480  0.0000E+00  0.0000E+00  0.5840E+03
   7.490  0.0000E+00  0.0000E+00  0.5840E+03
   7.500  0.2949E-06  0.0000E+00  0.5840E+03
   7.510  0.7333E-04  0.1549E-04  0.5840E+03
   7.520  0.2750E-03  0.1415E-03  0.5840E+03
   7.530  0.6200E-03  0.3943E-03  0.5840E+03
   7.540  0.1470E-02  0.8879E-03  0.5840E+03
   7.550  0.2981E-02  0.2000E-02  0.5840E+03
   7.560  0.5154E-02  0.3762E-02  0.5840E+03
   7.570  0.7988E-02  0.6171E-02  0.5840E+03
   7.580  0.1148E-01  0.9230E-02  0.5840E+03
   7.590  0.1564E-01  0.1294E-01  0.5840E+03
   7.600  0.2046E-01  0.1729E-01  0.5840E+03
   7.610  0.2594E-01  0.2230E-01  0.5840E+03
   7.620  0.3208E-01  0.2795E-01  0.5840E+03
   7.630  0.3888E-01  0.3425E-01  0.5840E+03
   7.640  0.4634E-01  0.4121E-01  0.5840E+03
   7.650  0.5447E-01  0.4881E-01  0.5840E+03
   7.660  0.6325E-01  0.5705E-01  0.5840E+03
   7.670  0.7270E-01  0.6595E-01  0.5840E+03
   7.680  0.8281E-01  0.7550E-01  0.5840E+03
   7.690  0.9358E-01  0.8569E-01  0.5840E+03
   7.700  0.1038E+00  0.9637E-01  0.5840E+03
   7.710  0.1142E+00  0.1064E+00  0.5840E+03
   7.720  0.1250E+00  0.1168E+00  0.5840E+03
   7.730  0.1367E+00  0.1276E+00  0.5840E+03
   7.740  0.1480E+00  0.1394E+00  0.5840E+03
   7.750  0.1586E+00  0.1504E+00  0.5840E+03
   7.760  0.1688E+00  0.1609E+00  0.5840E+03
   7.770  0.1786E+00  0.1709E+00  0.5840E+03
   7.780  0.1879E+00  0.1805E+00  0.5840E+03
   7.790  0.1968E+00  0.1897E+00  0.5840E+03
   7.800  0.2053E+00  0.1984E+00  0.5840E+03
   7.810  0.2133E+00  0.2067E+00  0.5840E+03
   7.820  0.2209E+00  0.2146E+00  0.5841E+03
   7.830  0.2281E+00  0.2221E+00  0.5841E+03
   7.840  0.2348E+00  0.2292E+00  0.5841E+03
   7.850  0.2411E+00  0.2358E+00  0.5841E+03
   7.860  0.2466E+00  0.2420E+00  0.5841E+03
   7.870  0.2508E+00  0.2471E+00  0.5841E+03
   7.880  0.2542E+00  0.2510E+00  0.5841E+03
   7.890  0.2576E+00  0.2543E+00  0.5841E+03
   7.900  0.2620E+00  0.2581E+00  0.5841E+03
   7.910  0.2665E+00  0.2624E+00  0.5841E+03
   7.920  0.2715E+00  0.2670E+00  0.5841E+03
   7.930  0.2769E+00  0.2720E+00  0.5841E+03
   7.940  0.2828E+00  0.2776E+00  0.5841E+03
   7.950  0.2892E+00  0.2836E+00  0.5841E+03
   7.960  0.2961E+00  0.2900E+00  0.5841E+03
   7.970  0.3034E+00  0.2970E+00  0.5841E+03
   7.980  0.3113E+00  0.3044E+00  0.5841E+03
   7.990  0.3196E+00  0.3124E+00  0.5841E+03
   8.000  0.3283E+00  0.3208E+00  0.5841E+03
   8.010  0.3373E+00  0.3296E+00  0.5842E+03
   8.020  0.3466E+00  0.3386E+00  0.5842E+03
   8.030  0.3561E+00  0.3480E+00  0.5842E+03
   8.040  0.3656E+00  0.3574E+00  0.5842E+03
   8.050  0.3753E+00  0.3669E+00  0.5842E+03
   8.060  0.3851E+00  0.3766E+00  0.5842E+03
   8.070  0.3950E+00  0.3864E+00  0.5842E+03
   8.080  0.4051E+00  0.3964E+00  0.5842E+03
   8.090  0.4154E+00  0.4065E+00  0.5842E+03
   8.100  0.4258E+00  0.4168E+00  0.5842E+03
   8.110  0.4364E+00  0.4272E+00  0.5842E+03
   8.120  0.4472E+00  0.4378E+00  0.5842E+03
   8.130  0.4581E+00  0.4486E+00  0.5842E+03
   8.140  0.4692E+00  0.4595E+00  0.5843E+03
   8.150  0.4804E+00  0.4706E+00  0.5843E+03
   8.160  0.4918E+00  0.4819E+00  0.5843E+03
   8.170  0.5039E+00  0.4934E+00  0.5843E+03
   8.180  0.5157E+00  0.5055E+00  0.5843E+03
   8.190  0.5269E+00  0.5172E+00  0.5843E+03
   8.200  0.5360E+00  0.5281E+00  0.5843E+03
   8.210  0.5426E+00  0.5368E+00  0.5843E+03
   8.220  0.5480E+00  0.5432E+00  0.5843E+03
   8.230  0.5530E+00  0.5484E+00  0.5843E+03
   8.240  0.5578E+00  0.5534E+00  0.5844E+03
   8.250  0.5621E+00  0.5582E+00  0.5844E+03
   8.260  0.5660E+00  0.5624E+00  0.5844E+03
   8.270  0.5707E+00  0.5661E+00  0.5844E+03
   8.280  0.5791E+00  0.5715E+00  0.5844E+03
   8.290  0.5902E+00  0.5803E+00  0.5844E+03
   8.300  0.6028E+00  0.5920E+00  0.5844E+03
   8.310  0.6157E+00  0.6047E+00  0.5844E+03
   8.320  0.6269E+00  0.6178E+00  0.5845E+03
   8.330  0.6334E+00  0.6280E+00  0.5845E+03
   8.340  0.6385E+00  0.6341E+00  0.5845E+03
   8.350  0.6452E+00  0.6391E+00  0.5845E+03
   8.360  0.6561E+00  0.6467E+00  0.5845E+03
   8.370  0.6681E+00  0.6580E+00  0.5845E+03
   8.380  0.6798E+00  0.6700E+00  0.5845E+03
   8.390  0.6917E+00  0.6817E+00  0.5845E+03
   8.400  0.7038E+00  0.6937E+00  0.5846E+03
   8.410  0.7160E+00  0.7058E+00  0.5846E+03
   8.420  0.7284E+00  0.7181E+00  0.5846E+03
   8.430  0.7411E+00  0.7305E+00  0.5846E+03
   8.440  0.7543E+00  0.7433E+00  0.5846E+03
   8.450  0.7679E+00  0.7566E+00  0.5846E+03
   8.460  0.7821E+00  0.7704E+00  0.5846E+03
   8.470  0.7966E+00  0.7846E+00  0.5847E+03
   8.480  0.8117E+00  0.7993E+00  0.5847E+03
   8.490  0.8272E+00  0.8145E+00  0.5847E+03
   8.500  0.8433E+00  0.8302E+00  0.5847E+03
   8.510  0.8597E+00  0.8463E+00  0.5847E+03
   8.520  0.8767E+00  0.8630E+00  0.5847E+03
   8.530  0.8943E+00  0.8801E+00  0.5848E+03
   8.540  0.9092E+00  0.8977E+00  0.5848E+03
   8.550  0.9204E+00  0.9116E+00  0.5848E+03
   8.560  0.9265E+00  0.9221E+00  0.5848E+03
   8.570  0.9339E+00  0.9275E+00  0.5848E+03
   8.580  0.9490E+00  0.9359E+00  0.5849E+03
   8.590  0.9681E+00  0.9526E+00  0.5849E+03
   8.600  0.9897E+00  0.9722E+00  0.5849E+03
   8.610  0.1012E+01  0.9940E+00  0.5849E+03
   8.620  0.1035E+01  0.1016E+01  0.5849E+03
   8.630  0.1061E+01  0.1040E+01  0.5850E+03
   8.640  0.1088E+01  0.1066E+01  0.5850E+03
   8.650  0.1119E+01  0.1095E+01  0.5850E+03
   8.660  0.1152E+01  0.1126E+01  0.5850E+03
   8.670  0.1187E+01  0.1159E+01  0.5850E+03
   8.680  0.1226E+01  0.1196E+01  0.5851E+03
   8.690  0.1267E+01  0.1235E+01  0.5851E+03
   8.700  0.1309E+01  0.1276E+01  0.5851E+03
   8.710  0.1352E+01  0.1319E+01  0.5851E+03
   8.720  0.1396E+01  0.1361E+01  0.5852E+03
   8.730  0.1442E+01  0.1406E+01  0.5852E+03
   8.740  0.1488E+01  0.1453E+01  0.5852E+03
   8.750  0.1529E+01  0.1500E+01  0.5853E+03
   8.760  0.1571E+01  0.1542E+01  0.5853E+03
   8.770  0.1615E+01  0.1586E+01  0.5853E+03
   8.780  0.1662E+01  0.1633E+01  0.5854E+03
   8.790  0.1720E+01  0.1683E+01  0.5854E+03
   8.800  0.1806E+01  0.1750E+01  0.5854E+03
   8.810  0.1921E+01  0.1848E+01  0.5855E+03
   8.820  0.2063E+01  0.1975E+01  0.5855E+03
   8.830  0.2228E+01  0.2127E+01  0.5855E+03
   8.840  0.2410E+01  0.2302E+01  0.5856E+03
   8.850  0.2621E+01  0.2495E+01  0.5856E+03
   8.860  0.2889E+01  0.2726E+01  0.5857E+03
   8.870  0.3216E+01  0.3024E+01  0.5857E+03
   8.880  0.3574E+01  0.3367E+01  0.5858E+03
   8.890  0.4243E+01  0.3819E+01  0.5859E+03
   8.900  0.5046E+01  0.4813E+01  0.5860E+03
   8.910  0.4836E+01  0.4972E+01  0.5861E+03
   8.920  0.6455E+01  0.4549E+01  0.5862E+03
   8.930  0.7169E+01  0.6902E+01  0.5863E+03
   8.940  0.8320E+01  0.7546E+01  0.5865E+03
   8.950  0.8839E+01  0.8802E+01  0.5866E+03
   8.960  0.8815E+01  0.8967E+01  0.5868E+03
   8.970  0.8587E+01  0.8841E+01  0.5870E+03
   8.980  0.8102E+01  0.8507E+01  0.5871E+03
   8.990  0.7464E+01  0.7896E+01  0.5873E+03
   9.000  0.7446E+01  0.7385E+01  0.5875E+03
   9.010  0.6655E+01  0.7342E+01  0.5876E+03
   9.020  0.6426E+01  0.6404E+01  0.5877E+03
   9.030  0.6406E+01  0.6462E+01  0.5879E+03
   9.040  0.6348E+01  0.6391E+01  0.5880E+03
   9.050  0.6354E+01  0.6359E+01  0.5881E+03
   9.060  0.6382E+01  0.6376E+01  0.5882E+03
   9.070  0.6432E+01  0.6408E+01  0.5884E+03
   9.080  0.6505E+01  0.6467E+01  0.5885E+03
   9.090  0.6602E+01  0.6540E+01  0.5886E+03
   9.100  0.6813E+01  0.6663E+01  0.5888E+03
   9.110  0.7146E+01  0.6931E+01  0.5889E+03
   9.120  0.7243E+01  0.7182E+01  0.5890E+03
   9.130  0.7274E+01  0.7199E+01  0.5892E+03
   9.140  0.7351E+01  0.7283E+01  0.5893E+03
   9.150  0.7486E+01  0.7331E+01  0.5895E+03
   9.160  0.7716E+01  0.7556E+01  0.5896E+03
   9.170  0.8030E+01  0.7821E+01  0.5898E+03
   9.180  0.8374E+01  0.8146E+01  0.5900E+03
   9.190  0.8812E+01  0.8519E+01  0.5901E+03
   9.200  0.9355E+01  0.9000E+01  0.5903E+03
   9.210  0.9966E+01  0.9580E+01  0.5905E+03
   9.220  0.1055E+02  0.1019E+02  0.5907E+03
   9.230  0.1111E+02  0.1075E+02  0.5909E+03
   9.240  0.1164E+02  0.1129E+02  0.5911E+03
   9.250  0.1220E+02  0.1181E+02  0.5914E+03
   9.260  0.1290E+02  0.1242E+02  0.5916E+03
   9.270  0.1363E+02  0.1317E+02  0.5919E+03
   9.280  0.1416E+02  0.1383E+02  0.5921E+03
   9.290  0.1451E+02  0.1430E+02  0.5924E+03
   9.300  0.1480E+02  0.1455E+02  0.5927E+03
   9.310  0.1397E+02  0.1549E+02  0.5930E+03
   9.320  0.1362E+02  0.1386E+02  0.5933E+03
   9.330  0.1481E+02  0.1352E+02  0.5936E+03
   9.340  0.1271E+02  0.1300E+02  0.5939E+03
   9.350  0.1230E+02  0.1257E+02  0.5941E+03
   9.360  0.1214E+02  0.1222E+02  0.5944E+03
   9.370  0.1228E+02  0.1218E+02  0.5946E+03
   9.380  0.1249E+02  0.1236E+02  0.5948E+03
   9.390  0.1291E+02  0.1266E+02  0.5951E+03
   9.400  0.1348E+02  0.1313E+02  0.5954E+03
   9.410  0.1437E+02  0.1383E+02  0.5956E+03
   9.420  0.1573E+02  0.1497E+02  0.5959E+03
   9.430  0.1735E+02  0.1630E+02  0.5962E+03
   9.440  0.1937E+02  0.1812E+02  0.5966E+03
   9.450  0.2074E+02  0.1997E+02  0.5970E+03
   9.460  0.1968E+02  0.2077E+02  0.5974E+03
   9.470  0.1688E+02  0.1829E+02  0.5978E+03
   9.480  0.1532E+02  0.1605E+02  0.5981E+03
   9.490  0.1461E+02  0.1485E+02  0.5984E+03
   9.500  0.1522E+02  0.1452E+02  0.5987E+03
   9.510  0.1317E+02  0.1504E+02  0.5990E+03
   9.520  0.1166E+02  0.1253E+02  0.5993E+03
   9.530  0.1087E+02  0.1130E+02  0.5995E+03
   9.540  0.1085E+02  0.1074E+02  0.5997E+03
   9.550  0.1096E+02  0.1075E+02  0.5999E+03
   9.560  0.1117E+02  0.1103E+02  0.6002E+03
   9.570  0.9740E+01  0.1165E+02  0.6004E+03
   9.580  0.9975E+01  0.9836E+01  0.6006E+03
   9.590  0.1049E+02  0.1021E+02  0.6008E+03
   9.600  0.1127E+02  0.1089E+02  0.6010E+03
   9.610  0.1211E+02  0.1171E+02  0.6012E+03
   9.620  0.1311E+02  0.1257E+02  0.6015E+03
   9.630  0.1431E+02  0.1356E+02  0.6017E+03
   9.640  0.1649E+02  0.1512E+02  0.6020E+03
   9.650  0.1882E+02  0.1770E+02  0.6024E+03
   9.660  0.2006E+02  0.1915E+02  0.6027E+03
   9.670  0.2128E+02  0.2067E+02  0.6032E+03
   9.680  0.2168E+02  0.2139E+02  0.6036E+03
   9.690  0.2191E+02  0.2129E+02  0.6040E+03
   9.700  0.2216E+02  0.2223E+02  0.6045E+03
   9.710  0.2229E+02  0.2138E+02  0.6049E+03
   9.720  0.2581E+02  0.2363E+02  0.6054E+03
   9.730  0.3163E+02  0.2741E+02  0.6059E+03
   9.740  0.2915E+02  0.3136E+02  0.6065E+03
   9.750  0.3371E+02  0.2986E+02  0.6071E+03
   9.760  0.3563E+02  0.3486E+02  0.6078E+03
   9.770  0.3369E+02  0.3542E+02  0.6085E+03
   9.780  0.2845E+02  0.3215E+02  0.6091E+03
   9.790  0.2273E+02  0.2553E+02  0.6097E+03
   9.800  0.1959E+02  0.2159E+02  0.6101E+03
   9.810  0.1816E+02  0.1898E+02  0.6105E+03
   9.820  0.1807E+02  0.1803E+02  0.6109E+03
   9.830  0.1902E+02  0.1820E+02  0.6112E+03
   9.840  0.1923E+02  0.1910E+02  0.6116E+03
   9.850  0.2101E+02  0.1931E+02  0.6120E+03
   9.860  0.2453E+02  0.2234E+02  0.6124E+03
   9.870  0.2717E+02  0.2626E+02  0.6129E+03
   9.880  0.2832E+02  0.2859E+02  0.6135E+03
   9.890  0.2754E+02  0.2781E+02  0.6141E+03
   9.900  0.2667E+02  0.2722E+02  0.6146E+03
   9.910  0.2597E+02  0.2659E+02  0.6151E+03
   9.920  0.2637E+02  0.2602E+02  0.6157E+03
   9.930  0.3130E+02  0.2791E+02  0.6162E+03
   9.940  0.3283E+02  0.3285E+02  0.6169E+03
   9.950  0.3296E+02  0.3270E+02  0.6175E+03
   9.960  0.3404E+02  0.3331E+02  0.6182E+03
   9.970  0.3605E+02  0.3422E+02  0.6189E+03
   9.980  0.3658E+02  0.3576E+02  0.6196E+03
   9.990  0.3691E+02  0.3723E+02  0.6203E+03
  10.000  0.3795E+02  0.3651E+02  0.6211E+03
  10.010  0.3807E+02  0.3772E+02  0.6218E+03
  10.020  0.3633E+02  0.3671E+02  0.6226E+03
  10.030  0.3438E+02  0.3582E+02  0.6233E+03
  10.040  0.3353E+02  0.3322E+02  0.6240E+03
  10.050  0.3147E+02  0.3253E+02  0.6246E+03
  10.060  0.3025E+02  0.3073E+02  0.6252E+03
  10.070  0.3009E+02  0.3002E+02  0.6258E+03
  10.080  0.3040E+02  0.3004E+02  0.6264E+03
  10.090  0.3003E+02  0.3062E+02  0.6270E+03
  10.100  0.2957E+02  0.2984E+02  0.6276E+03
  10.110  0.2946E+02  0.2940E+02  0.6282E+03
  10.120  0.2682E+02  0.2906E+02  0.6288E+03
  10.130  0.2555E+02  0.2636E+02  0.6294E+03
  10.140  0.2542E+02  0.2567E+02  0.6299E+03
  10.150  0.2671E+02  0.2592E+02  0.6304E+03
  10.160  0.2936E+02  0.2766E+02  0.6309E+03
  10.170  0.3032E+02  0.3070E+02  0.6315E+03
  10.180  0.2847E+02  0.3006E+02  0.6321E+03
  10.190  0.2759E+02  0.2836E+02  0.6327E+03
  10.200  0.2487E+02  0.2691E+02  0.6332E+03
  10.210  0.2585E+02  0.2484E+02  0.6338E+03
  10.220  0.2528E+02  0.2531E+02  0.6343E+03
  10.230  0.2489E+02  0.2488E+02  0.6348E+03
  10.240  0.2640E+02  0.2491E+02  0.6353E+03
  10.250  0.2819E+02  0.2655E+02  0.6358E+03
  10.260  0.2722E+02  0.2749E+02  0.6364E+03
  10.270  0.2250E+02  0.2659E+02  0.6369E+03
  10.280  0.2169E+02  0.2219E+02  0.6373E+03
  10.290  0.2181E+02  0.2149E+02  0.6378E+03
  10.300  0.2407E+02  0.2228E+02  0.6382E+03
  10.310  0.2727E+02  0.2418E+02  0.6387E+03
  10.320  0.2930E+02  0.2847E+02  0.6393E+03
  10.330  0.2867E+02  0.2853E+02  0.6398E+03
  10.340  0.2662E+02  0.2794E+02  0.6404E+03
  10.350  0.2433E+02  0.2662E+02  0.6409E+03
  10.360  0.2251E+02  0.2402E+02  0.6414E+03
  10.370  0.2089E+02  0.2216E+02  0.6419E+03
  10.380  0.2020E+02  0.2066E+02  0.6423E+03
  10.390  0.1838E+02  0.1981E+02  0.6427E+03
  10.400  0.1775E+02  0.1815E+02  0.6431E+03
  10.410  0.1651E+02  0.1973E+02  0.6434E+03
  10.420  0.1584E+02  0.1612E+02  0.6437E+03
  10.430  0.1558E+02  0.1582E+02  0.6441E+03
  10.440  0.1494E+02  0.1532E+02  0.6444E+03
  10.450  0.1460E+02  0.1490E+02  0.6447E+03
  10.460  0.1439E+02  0.1477E+02  0.6450E+03
  10.470  0.1446E+02  0.1466E+02  0.6453E+03
  10.480  0.1488E+02  0.1465E+02  0.6455E+03
  10.490  0.1669E+02  0.1540E+02  0.6459E+03
  10.500  0.1798E+02  0.1716E+02  0.6462E+03
  10.510  0.2155E+02  0.1802E+02  0.6466E+03
  10.520  0.1986E+02  0.2196E+02  0.6470E+03
  10.530  0.1821E+02  0.1834E+02  0.6474E+03
  10.540  0.1799E+02  0.1802E+02  0.6477E+03
  10.550  0.1747E+02  0.1771E+02  0.6481E+03
  10.560  0.1733E+02  0.1722E+02  0.6484E+03
  10.570  0.1766E+02  0.1717E+02  0.6488E+03
  10.580  0.1823E+02  0.1765E+02  0.6491E+03
  10.590  0.1862E+02  0.1805E+02  0.6495E+03
  10.600  0.1788E+02  0.1830E+02  0.6499E+03
  10.610  0.1734E+02  0.1767E+02  0.6502E+03
  10.620  0.1678E+02  0.1709E+02  0.6506E+03
  10.630  0.1627E+02  0.1667E+02  0.6509E+03
  10.640  0.1574E+02  0.1612E+02  0.6512E+03
  10.650  0.1549E+02  0.1563E+02  0.6515E+03
  10.660  0.1536E+02  0.1540E+02  0.6518E+03
  10.670  0.1542E+02  0.1524E+02  0.6521E+03
  10.680  0.1754E+02  0.1524E+02  0.6525E+03
  10.690  0.1684E+02  0.1608E+02  0.6528E+03
  10.700  0.1626E+02  0.1775E+02  0.6531E+03
  10.710  0.1507E+02  0.1714E+02  0.6535E+03
  10.720  0.1339E+02  0.1482E+02  0.6538E+03
  10.730  0.1171E+02  0.1291E+02  0.6540E+03
  10.740  0.1053E+02  0.1117E+02  0.6543E+03
  10.750  0.1051E+02  0.1021E+02  0.6545E+03
  10.760  0.1209E+02  0.1039E+02  0.6547E+03
  10.770  0.1345E+02  0.1147E+02  0.6549E+03
  10.780  0.1443E+02  0.1271E+02  0.6552E+03
  10.790  0.1496E+02  0.1374E+02  0.6555E+03
  10.800  0.1520E+02  0.1565E+02  0.6558E+03
  10.810  0.1499E+02  0.1637E+02  0.6561E+03
  10.820  0.1428E+02  0.1592E+02  0.6564E+03
  10.830  0.1482E+02  0.1547E+02  0.6567E+03
  10.840  0.1057E+02  0.1389E+02  0.6570E+03
  10.850  0.1061E+02  0.9548E+01  0.6572E+03
  10.860  0.9898E+01  0.9573E+01  0.6574E+03
  10.870  0.1128E+02  0.1010E+02  0.6576E+03
  10.880  0.1230E+02  0.1130E+02  0.6578E+03
  10.890  0.1268E+02  0.1232E+02  0.6581E+03
  10.900  0.1234E+02  0.1270E+02  0.6583E+03
  10.910  0.1183E+02  0.1265E+02  0.6586E+03
  10.920  0.1270E+02  0.1217E+02  0.6588E+03
  10.930  0.1315E+02  0.1258E+02  0.6590E+03
  10.940  0.1502E+02  0.1382E+02  0.6593E+03
  10.950  0.1612E+02  0.1606E+02  0.6596E+03
  10.960  0.1548E+02  0.1631E+02  0.6599E+03
  10.970  0.1504E+02  0.1552E+02  0.6603E+03
  10.980  0.1485E+02  0.1497E+02  0.6606E+03
  10.990  0.1504E+02  0.1474E+02  0.6609E+03
  11.000  0.1528E+02  0.1475E+02  0.6612E+03
  11.010  0.1626E+02  0.1465E+02  0.6615E+03
  11.020  0.1632E+02  0.1576E+02  0.6618E+03
  11.030  0.1556E+02  0.1605E+02  0.6621E+03
  11.040  0.1450E+02  0.1592E+02  0.6624E+03
  11.050  0.1373E+02  0.1458E+02  0.6627E+03
  11.060  0.1329E+02  0.1378E+02  0.6630E+03
  11.070  0.1401E+02  0.1346E+02  0.6633E+03
  11.080  0.1334E+02  0.1405E+02  0.6635E+03
  11.090  0.1274E+02  0.1308E+02  0.6638E+03
  11.100  0.1240E+02  0.1256E+02  0.6640E+03
  11.110  0.1246E+02  0.1212E+02  0.6643E+03
  11.120  0.1215E+02  0.1185E+02  0.6645E+03
  11.130  0.1187E+02  0.1198E+02  0.6648E+03
  11.140  0.1159E+02  0.1233E+02  0.6650E+03
  11.150  0.1069E+02  0.1138E+02  0.6652E+03
  11.160  0.1111E+02  0.1044E+02  0.6655E+03
  11.170  0.1180E+02  0.1044E+02  0.6657E+03
  11.180  0.1150E+02  0.1114E+02  0.6659E+03
  11.190  0.1140E+02  0.1189E+02  0.6661E+03
  11.200  0.1077E+02  0.1165E+02  0.6664E+03
  11.210  0.1062E+02  0.1087E+02  0.6666E+03
  11.220  0.1071E+02  0.1084E+02  0.6668E+03
  11.230  0.1087E+02  0.1097E+02  0.6670E+03
  11.240  0.1084E+02  0.1105E+02  0.6672E+03
  11.250  0.1084E+02  0.1103E+02  0.6675E+03
  11.260  0.1099E+02  0.1103E+02  0.6677E+03
  11.270  0.1116E+02  0.1114E+02  0.6679E+03
  11.280  0.1149E+02  0.1130E+02  0.6681E+03
  11.290  0.1192E+02  0.1239E+02  0.6684E+03
  11.300  0.1199E+02  0.1198E+02  0.6686E+03
  11.310  0.1240E+02  0.1214E+02  0.6688E+03
  11.320  0.1340E+02  0.1258E+02  0.6691E+03
  11.330  0.1392E+02  0.1366E+02  0.6694E+03
  11.340  0.1466E+02  0.1419E+02  0.6696E+03
  11.350  0.1547E+02  0.1488E+02  0.6699E+03
  11.360  0.1643E+02  0.1558E+02  0.6703E+03
  11.370  0.1701E+02  0.1652E+02  0.6706E+03
  11.380  0.1716E+02  0.1746E+02  0.6709E+03
  11.390  0.1770E+02  0.1768E+02  0.6713E+03
  11.400  0.1812E+02  0.1815E+02  0.6716E+03
  11.410  0.1840E+02  0.1843E+02  0.6720E+03
  11.420  0.1878E+02  0.1862E+02  0.6724E+03
  11.430  0.1945E+02  0.1891E+02  0.6727E+03
  11.440  0.2113E+02  0.1965E+02  0.6731E+03
  11.450  0.2219E+02  0.2143E+02  0.6736E+03
  11.460  0.2380E+02  0.2330E+02  0.6740E+03
  11.470  0.2256E+02  0.2376E+02  0.6745E+03
  11.480  0.2369E+02  0.2176E+02  0.6749E+03
  11.490  0.2524E+02  0.2389E+02  0.6754E+03
  11.500  0.2541E+02  0.2503E+02  0.6759E+03
  11.510  0.2597E+02  0.2651E+02  0.6764E+03
  11.520  0.2478E+02  0.2496E+02  0.6769E+03
  11.530  0.2538E+02  0.2451E+02  0.6774E+03
  11.540  0.2667E+02  0.2484E+02  0.6780E+03
  11.550  0.2615E+02  0.2635E+02  0.6785E+03
  11.560  0.2519E+02  0.2664E+02  0.6790E+03
  11.570  0.2459E+02  0.2533E+02  0.6795E+03
  11.580  0.2384E+02  0.2443E+02  0.6800E+03
  11.590  0.2319E+02  0.2341E+02  0.6805E+03
  11.600  0.2439E+02  0.2329E+02  0.6809E+03
  11.610  0.2606E+02  0.2506E+02  0.6814E+03
  11.620  0.2777E+02  0.2638E+02  0.6820E+03
  11.630  0.2851E+02  0.2809E+02  0.6825E+03
  11.640  0.2863E+02  0.2842E+02  0.6831E+03
  11.650  0.2957E+02  0.2889E+02  0.6837E+03
  11.660  0.2974E+02  0.2975E+02  0.6842E+03
  11.670  0.2790E+02  0.2885E+02  0.6848E+03
  11.680  0.2520E+02  0.2616E+02  0.6854E+03
  11.690  0.2383E+02  0.2446E+02  0.6859E+03
  11.700  0.2389E+02  0.2309E+02  0.6863E+03
  11.710  0.2526E+02  0.2277E+02  0.6868E+03
  11.720  0.2554E+02  0.2536E+02  0.6873E+03
  11.730  0.2591E+02  0.2576E+02  0.6878E+03
  11.740  0.2659E+02  0.2665E+02  0.6884E+03
  11.750  0.2719E+02  0.2772E+02  0.6889E+03
  11.760  0.2785E+02  0.2867E+02  0.6895E+03
  11.770  0.2582E+02  0.2871E+02  0.6900E+03
  11.780  0.2649E+02  0.2628E+02  0.6905E+03
  11.790  0.2535E+02  0.2572E+02  0.6911E+03
  11.800  0.2453E+02  0.2583E+02  0.6916E+03
  11.810  0.2334E+02  0.2391E+02  0.6921E+03
  11.820  0.2264E+02  0.2302E+02  0.6925E+03
  11.830  0.2172E+02  0.2225E+02  0.6930E+03
  11.840  0.2123E+02  0.2141E+02  0.6934E+03
  11.850  0.2202E+02  0.2109E+02  0.6938E+03
  11.860  0.2317E+02  0.2232E+02  0.6943E+03
  11.870  0.2392E+02  0.2349E+02  0.6947E+03
  11.880  0.2193E+02  0.2291E+02  0.6952E+03
  11.890  0.1873E+02  0.2142E+02  0.6956E+03
  11.900  0.1586E+02  0.1728E+02  0.6960E+03
  11.910  0.1471E+02  0.1552E+02  0.6963E+03
  11.920  0.1351E+02  0.1472E+02  0.6966E+03
  11.930  0.1213E+02  0.1361E+02  0.6969E+03
  11.940  0.1110E+02  0.1219E+02  0.6971E+03
  11.950  0.1045E+02  0.1120E+02  0.6973E+03
  11.960  0.9918E+01  0.1065E+02  0.6976E+03
  11.970  0.9435E+01  0.1014E+02  0.6978E+03
  11.980  0.8972E+01  0.9617E+01  0.6979E+03
  11.990  0.8535E+01  0.9100E+01  0.6981E+03
  12.000  0.8138E+01  0.8628E+01  0.6983E+03
  12.010  0.7806E+01  0.8210E+01  0.6985E+03
  12.020  0.7544E+01  0.7888E+01  0.6986E+03
  12.030  0.7349E+01  0.7653E+01  0.6988E+03
  12.040  0.7313E+01  0.7485E+01  0.6989E+03
  12.050  0.7366E+01  0.7525E+01  0.6991E+03
  12.060  0.7344E+01  0.7618E+01  0.6992E+03
  12.070  0.6944E+01  0.7398E+01  0.6994E+03
  12.080  0.5566E+01  0.6256E+01  0.6995E+03
  12.090  0.4556E+01  0.5210E+01  0.6996E+03
  12.100  0.3622E+01  0.4239E+01  0.6997E+03
  12.110  0.2881E+01  0.3331E+01  0.6998E+03
  12.120  0.2261E+01  0.2653E+01  0.6998E+03
  12.130  0.1781E+01  0.2080E+01  0.6999E+03
  12.140  0.1400E+01  0.1643E+01  0.6999E+03
  12.150  0.1062E+01  0.1275E+01  0.6999E+03
  12.160  0.7759E+00  0.9557E+00  0.6999E+03
  12.170  0.5398E+00  0.6871E+00  0.7000E+03
  12.180  0.3543E+00  0.4690E+00  0.7000E+03
  12.190  0.2193E+00  0.3016E+00  0.7000E+03
  12.200  0.1348E+00  0.1847E+00  0.7000E+03
  12.210  0.9407E-01  0.1177E+00  0.7000E+03
  12.220  0.7935E-01  0.8830E-01  0.7000E+03
  12.230  0.7283E-01  0.7804E-01  0.7000E+03
  12.240  0.6713E-01  0.7205E-01  0.7000E+03
  12.250  0.6166E-01  0.6633E-01  0.7000E+03
  12.260  0.5643E-01  0.6085E-01  0.7000E+03
  12.270  0.5142E-01  0.5560E-01  0.7000E+03
  12.280  0.4665E-01  0.5059E-01  0.7000E+03
  12.290  0.4211E-01  0.4582E-01  0.7000E+03
  12.300  0.3781E-01  0.4128E-01  0.7000E+03
  12.310  0.3373E-01  0.3698E-01  0.7000E+03
  12.320  0.2989E-01  0.3291E-01  0.7000E+03
  12.330  0.2628E-01  0.2909E-01  0.7000E+03
  12.340  0.2290E-01  0.2550E-01  0.7000E+03
  12.350  0.1976E-01  0.2214E-01  0.7000E+03
  12.360  0.1685E-01  0.1902E-01  0.7000E+03
  12.370  0.1417E-01  0.1614E-01  0.7000E+03
  12.380  0.1172E-01  0.1350E-01  0.7000E+03
  12.390  0.9500E-02  0.1109E-01  0.7000E+03
  12.400  0.7516E-02  0.8916E-02  0.7000E+03
  12.410  0.5764E-02  0.6981E-02  0.7000E+03
  12.420  0.4244E-02  0.5282E-02  0.7000E+03
  12.430  0.2956E-02  0.3820E-02  0.7000E+03
  12.440  0.1901E-02  0.2594E-02  0.7000E+03
  12.450  0.1078E-02  0.1605E-02  0.7000E+03
  12.460  0.4868E-03  0.8521E-03  0.7000E+03
  12.470  0.1280E-03  0.3359E-03  0.7000E+03
  12.480  0.1091E-05  0.5611E-04  0.7000E+03
  12.490  0.0000E+00  0.0000E+00  0.7000E+03
  12.500  0.0000E+00  0.0000E+00  0.7000E+03
  12.510  0.0000E+00  0.0000E+00  0.7000E+03
  12.520  0.0000E+00  0.0000E+00  0.7000E+03
  12.530  0.0000E+00  0.0000E+00  0.7000E+03
  12.540  0.0000E+00  0.0000E+00  0.7000E+03
  12.550  0.0000E+00  0.0000E+00  0.7000E+03
  12.560  0.0000E+00  0.0000E+00  0.7000E+03
  12.570  0.0000E+00  0.0000E+00  0.7000E+03
  12.580  0.0000E+00  0.0000E+00  0.7000E+03
  12.590  0.0000E+00  0.0000E+00  0.7000E+03
  12.600  0.0000E+00  0.0000E+00  0.7000E+03
  12.610  0.0000E+00  0.0000E+00  0.7000E+03
  12.620  0.0000E+00  0.0000E+00  0.7000E+03
  12.630  0.0000E+00  0.0000E+00  0.7000E+03
  12.640  0.0000E+00  0.0000E+00  0.7000E+03
  12.650  0.0000E+00  0.0000E+00  0.7000E+03
  12.660  0.0000E+00  0.0000E+00  0.7000E+03
  12.670  0.0000E+00  0.0000E+00  0.7000E+03
  12.680  0.0000E+00  0.0000E+00  0.7000E+03
  12.690  0.0000E+00  0.0000E+00  0.7000E+03
  12.700  0.0000E+00  0.0000E+00  0.7000E+03
  12.710  0.0000E+00  0.0000E+00  0.7000E+03
  12.720  0.0000E+00  0.0000E+00  0.7000E+03
  12.730  0.0000E+00  0.0000E+00  0.7000E+03
  12.740  0.0000E+00  0.0000E+00  0.7000E+03
  12.750  0.0000E+00  0.0000E+00  0.7000E+03
  12.760  0.0000E+00  0.0000E+00  0.7000E+03
  12.770  0.0000E+00  0.0000E+00  0.7000E+03
  12.780  0.0000E+00  0.0000E+00  0.7000E+03
  12.790  0.0000E+00  0.0000E+00  0.7000E+03
  12.800  0.0000E+00  0.0000E+00  0.7000E+03
  12.810  0.0000E+00  0.0000E+00  0.7000E+03
  12.820  0.0000E+00  0.0000E+00  0.7000E+03
  12.830  0.0000E+00  0.0000E+00  0.7000E+03
  12.840  0.0000E+00  0.0000E+00  0.7000E+03
  12.850  0.0000E+00  0.0000E+00  0.7000E+03
  12.860  0.0000E+00  0.0000E+00  0.7000E+03
  12.870  0.0000E+00  0.0000E+00  0.7000E+03
  12.880  0.0000E+00  0.0000E+00  0.7000E+03
  12.890  0.0000E+00  0.0000E+00  0.7000E+03
  12.900  0.0000E+00  0.0000E+00  0.7000E+03
  12.910  0.0000E+00  0.0000E+00  0.7000E+03
  12.920  0.0000E+00  0.0000E+00  0.7000E+03
  12.930  0.0000E+00  0.0000E+00  0.7000E+03
  12.940  0.0000E+00  0.0000E+00  0.7000E+03
  12.950  0.0000E+00  0.0000E+00  0.7000E+03
  12.960  0.0000E+00  0.0000E+00  0.7000E+03
  12.970  0.0000E+00  0.0000E+00  0.7000E+03
  12.980  0.0000E+00  0.0000E+00  0.7000E+03
  12.990  0.0000E+00  0.0000E+00  0.7000E+03
  13.000  0.0000E+00  0.0000E+00  0.7000E+03
  13.010  0.0000E+00  0.0000E+00  0.7000E+03
  13.020  0.0000E+00  0.0000E+00  0.7000E+03
  13.030  0.0000E+00  0.0000E+00  0.7000E+03
  13.040  0.0000E+00  0.0000E+00  0.7000E+03
  13.050  0.0000E+00  0.0000E+00  0.7000E+03
  13.060  0.0000E+00  0.0000E+00  0.7000E+03
  13.070  0.0000E+00  0.0000E+00  0.7000E+03
  13.080  0.0000E+00  0.0000E+00  0.7000E+03
  13.090  0.0000E+00  0.0000E+00  0.7000E+03
  13.100  0.0000E+00  0.0000E+00  0.7000E+03
  13.110  0.0000E+00  0.0000E+00  0.7000E+03
  13.120  0.0000E+00  0.0000E+00  0.7000E+03
  13.130  0.0000E+00  0.0000E+00  0.7000E+03
  13.140  0.0000E+00  0.0000E+00  0.7000E+03
  13.150  0.0000E+00  0.0000E+00  0.7000E+03
  13.160  0.0000E+00  0.0000E+00  0.7000E+03
  13.170  0.0000E+00  0.0000E+00  0.7000E+03
  13.180  0.0000E+00  0.0000E+00  0.7000E+03
  13.190  0.0000E+00  0.0000E+00  0.7000E+03
  13.200  0.0000E+00  0.0000E+00  0.7000E+03
  13.210  0.0000E+00  0.0000E+00  0.7000E+03
  13.220  0.0000E+00  0.0000E+00  0.7000E+03
  13.230  0.0000E+00  0.0000E+00  0.7000E+03
  13.240  0.0000E+00  0.0000E+00  0.7000E+03
  13.250  0.0000E+00  0.0000E+00  0.7000E+03
  13.260  0.0000E+00  0.0000E+00  0.7000E+03
  13.270  0.0000E+00  0.0000E+00  0.7000E+03
  13.280  0.0000E+00  0.0000E+00  0.7000E+03
  13.290  0.0000E+00  0.0000E+00  0.7000E+03
  13.300  0.0000E+00  0.0000E+00  0.7000E+03
  13.310  0.0000E+00  0.0000E+00  0.7000E+03
  13.320  0.0000E+00  0.0000E+00  0.7000E+03
  13.330  0.0000E+00  0.0000E+00  0.7000E+03
  13.340  0.0000E+00  0.0000E+00  0.7000E+03
  13.350  0.0000E+00  0.0000E+00  0.7000E+03
  13.360  0.0000E+00  0.0000E+00  0.7000E+03
  13.370  0.0000E+00  0.0000E+00  0.7000E+03
  13.380  0.0000E+00  0.0000E+00  0.7000E+03
  13.390  0.0000E+00  0.0000E+00  0.7000E+03
  13.400  0.0000E+00  0.0000E+00  0.7000E+03
  13.410  0.0000E+00  0.0000E+00  0.7000E+03
  13.420  0.0000E+00  0.0000E+00  0.7000E+03
  13.430  0.0000E+00  0.0000E+00  0.7000E+03
  13.440  0.0000E+00  0.0000E+00  0.7000E+03
  13.450  0.0000E+00  0.0000E+00  0.7000E+03
  13.460  0.0000E+00  0.0000E+00  0.7000E+03
  13.470  0.0000E+00  0.0000E+00  0.7000E+03
  13.480  0.0000E+00  0.0000E+00  0.7000E+03
  13.490  0.0000E+00  0.0000E+00  0.7000E+03
  13.500  0.0000E+00  0.0000E+00  0.7000E+03
  13.510  0.0000E+00  0.0000E+00  0.7000E+03
  13.520  0.0000E+00  0.0000E+00  0.7000E+03
  13.530  0.0000E+00  0.0000E+00  0.7000E+03
  13.540  0.0000E+00  0.0000E+00  0.7000E+03
  13.550  0.0000E+00  0.0000E+00  0.7000E+03
  13.560  0.0000E+00  0.0000E+00  0.7000E+03
  13.570  0.0000E+00  0.0000E+00  0.7000E+03
  13.580  0.0000E+00  0.0000E+00  0.7000E+03
  13.590  0.0000E+00  0.0000E+00  0.7000E+03
  13.600  0.0000E+00  0.0000E+00  0.7000E+03
  13.610  0.0000E+00  0.0000E+00  0.7000E+03
  13.620  0.0000E+00  0.0000E+00  0.7000E+03
  13.630  0.0000E+00  0.0000E+00  0.7000E+03
  13.640  0.0000E+00  0.0000E+00  0.7000E+03
  13.650  0.0000E+00  0.0000E+00  0.7000E+03
  13.660  0.0000E+00  0.0000E+00  0.7000E+03
  13.670  0.0000E+00  0.0000E+00  0.7000E+03
  13.680  0.0000E+00  0.0000E+00  0.7000E+03
  13.690  0.0000E+00  0.0000E+00  0.7000E+03
  13.700  0.0000E+00  0.0000E+00  0.7000E+03
  13.710  0.0000E+00  0.0000E+00  0.7000E+03
  13.720  0.0000E+00  0.0000E+00  0.7000E+03
  13.730  0.0000E+00  0.0000E+00  0.7000E+03
  13.740  0.0000E+00  0.0000E+00  0.7000E+03
  13.750  0.0000E+00  0.0000E+00  0.7000E+03
  13.760  0.0000E+00  0.0000E+00  0.7000E+03
  13.770  0.0000E+00  0.0000E+00  0.7000E+03
  13.780  0.0000E+00  0.0000E+00  0.7000E+03
  13.790  0.0000E+00  0.0000E+00  0.7000E+03
  13.800  0.0000E+00  0.0000E+00  0.7000E+03
  13.810  0.0000E+00  0.0000E+00  0.7000E+03
  13.820  0.0000E+00  0.0000E+00  0.7000E+03
  13.830  0.0000E+00  0.0000E+00  0.7000E+03
  13.840  0.0000E+00  0.0000E+00  0.7000E+03
  13.850  0.0000E+00  0.0000E+00  0.7000E+03
  13.860  0.0000E+00  0.0000E+00  0.7000E+03
  13.870  0.0000E+00  0.0000E+00  0.7000E+03
  13.880  0.0000E+00  0.0000E+00  0.7000E+03
  13.890  0.0000E+00  0.0000E+00  0.7000E+03
  13.900  0.0000E+00  0.0000E+00  0.7000E+03
  13.910  0.0000E+00  0.0000E+00  0.7000E+03
  13.920  0.0000E+00  0.0000E+00  0.7000E+03
  13.930  0.0000E+00  0.0000E+00  0.7000E+03
  13.940  0.0000E+00  0.0000E+00  0.7000E+03
  13.950  0.0000E+00  0.0000E+00  0.7000E+03
  13.960  0.0000E+00  0.0000E+00  0.7000E+03
  13.970  0.0000E+00  0.0000E+00  0.7000E+03
  13.980  0.0000E+00  0.0000E+00  0.7000E+03
  13.990  0.0000E+00  0.0000E+00  0.7000E+03
  14.000  0.0000E+00  0.0000E+00  0.7000E+03
  14.010  0.0000E+00  0.0000E+00  0.7000E+03
  14.020  0.0000E+00  0.0000E+00  0.7000E+03
  14.030  0.0000E+00  0.0000E+00  0.7000E+03
  14.040  0.0000E+00  0.0000E+00  0.7000E+03
  14.050  0.0000E+00  0.0000E+00  0.7000E+03
  14.060  0.0000E+00  0.0000E+00  0.7000E+03
  14.070  0.0000E+00  0.0000E+00  0.7000E+03
  14.080  0.0000E+00  0.0000E+00  0.7000E+03
  14.090  0.0000E+00  0.0000E+00  0.7000E+03
  14.100  0.0000E+00  0.0000E+00  0.7000E+03
  14.110  0.0000E+00  0.0000E+00  0.7000E+03
  14.120  0.0000E+00  0.0000E+00  0.7000E+03
  14.130  0.0000E+00  0.0000E+00  0.7000E+03
  14.140  0.0000E+00  0.0000E+00  0.7000E+03
  14.150  0.0000E+00  0.0000E+00  0.7000E+03
  14.160  0.0000E+00  0.0000E+00  0.7000E+03
  14.170  0.0000E+00  0.0000E+00  0.7000E+03
  14.180  0.0000E+00  0.0000E+00  0.7000E+03
  14.190  0.0000E+00  0.0000E+00  0.7000E+03
  14.200  0.0000E+00  0.0000E+00  0.7000E+03
  14.210  0.0000E+00  0.0000E+00  0.7000E+03
  14.220  0.0000E+00  0.0000E+00  0.7000E+03
  14.230  0.0000E+00  0.0000E+00  0.7000E+03
  14.240  0.0000E+00  0.0000E+00  0.7000E+03
  14.250  0.0000E+00  0.0000E+00  0.7000E+03
  14.260  0.0000E+00  0.0000E+00  0.7000E+03
  14.270  0.0000E+00  0.0000E+00  0.7000E+03
  14.280  0.0000E+00  0.0000E+00  0.7000E+03
  14.290  0.0000E+00  0.0000E+00  0.7000E+03
  14.300  0.0000E+00  0.0000E+00  0.7000E+03
  14.310  0.0000E+00  0.0000E+00  0.7000E+03
  14.320  0.0000E+00  0.0000E+00  0.7000E+03
  14.330  0.0000E+00  0.0000E+00  0.7000E+03
  14.340  0.0000E+00  0.0000E+00  0.7000E+03
  14.350  0.0000E+00  0.0000E+00  0.7000E+03
  14.360  0.0000E+00  0.0000E+00  0.7000E+03
  14.370  0.0000E+00  0.0000E+00  0.7000E+03
  14.380  0.0000E+00  0.0000E+00  0.7000E+03
  14.390  0.0000E+00  0.0000E+00  0.7000E+03
  14.400  0.0000E+00  0.0000E+00  0.7000E+03
  14.410  0.0000E+00  0.0000E+00  0.7000E+03
  14.420  0.0000E+00  0.0000E+00  0.7000E+03
  14.430  0.0000E+00  0.0000E+00  0.7000E+03
  14.440  0.0000E+00  0.0000E+00  0.7000E+03
  14.450  0.0000E+00  0.0000E+00  0.7000E+03
  14.460  0.0000E+00  0.0000E+00  0.7000E+03
  14.470  0.0000E+00  0.0000E+00  0.7000E+03
  14.480  0.0000E+00  0.0000E+00  0.7000E+03
  14.490  0.0000E+00  0.0000E+00  0.7000E+03
  14.500  0.0000E+00  0.0000E+00  0.7000E+03
  14.510  0.0000E+00  0.0000E+00  0.7000E+03
  14.520  0.0000E+00  0.0000E+00  0.7000E+03
  14.530  0.0000E+00  0.0000E+00  0.7000E+03
  14.540  0.0000E+00  0.0000E+00  0.7000E+03
  14.550  0.0000E+00  0.0000E+00  0.7000E+03
  14.560  0.0000E+00  0.0000E+00  0.7000E+03
  14.570  0.0000E+00  0.0000E+00  0.7000E+03
  14.580  0.0000E+00  0.0000E+00  0.7000E+03
  14.590  0.0000E+00  0.0000E+00  0.7000E+03
  14.600  0.0000E+00  0.0000E+00  0.7000E+03
  14.610  0.0000E+00  0.0000E+00  0.7000E+03
  14.620  0.0000E+00  0.0000E+00  0.7000E+03
  14.630  0.0000E+00  0.0000E+00  0.7000E+03
  14.640  0.0000E+00  0.0000E+00  0.7000E+03
  14.650  0.0000E+00  0.0000E+00  0.7000E+03
  14.660  0.0000E+00  0.0000E+00  0.7000E+03
  14.670  0.0000E+00  0.0000E+00  0.7000E+03
  14.680  0.0000E+00  0.0000E+00  0.7000E+03
  14.690  0.0000E+00  0.0000E+00  0.7000E+03
  14.700  0.0000E+00  0.0000E+00  0.7000E+03
  14.710  0.0000E+00  0.0000E+00  0.7000E+03
  14.720  0.0000E+00  0.0000E+00  0.7000E+03
  14.730  0.0000E+00  0.0000E+00  0.7000E+03
  14.740  0.0000E+00  0.0000E+00  0.7000E+03
  14.750  0.0000E+00  0.0000E+00  0.7000E+03
  14.760  0.0000E+00  0.0000E+00  0.7000E+03
  14.770  0.0000E+00  0.0000E+00  0.7000E+03
  14.780  0.0000E+00  0.0000E+00  0.7000E+03
  14.790  0.0000E+00  0.0000E+00  0.7000E+03
  14.800  0.0000E+00  0.0000E+00  0.7000E+03
  14.810  0.0000E+00  0.0000E+00  0.7000E+03
  14.820  0.0000E+00  0.0000E+00  0.7000E+03
  14.830  0.0000E+00  0.0000E+00  0.7000E+03
  14.840  0.0000E+00  0.0000E+00  0.7000E+03
  14.850  0.0000E+00  0.0000E+00  0.7000E+03
  14.860  0.0000E+00  0.0000E+00  0.7000E+03
  14.870  0.0000E+00  0.0000E+00  0.7000E+03
  14.880  0.0000E+00  0.0000E+00  0.7000E+03
  14.890  0.0000E+00  0.0000E+00  0.7000E+03
  14.900  0.0000E+00  0.0000E+00  0.7000E+03
  14.910  0.0000E+00  0.0000E+00  0.7000E+03
  14.920  0.0000E+00  0.0000E+00  0.7000E+03
  14.930  0.0000E+00  0.0000E+00  0.7000E+03
  14.940  0.0000E+00  0.0000E+00  0.7000E+03
  14.950  0.0000E+00  0.0000E+00  0.7000E+03
  14.960  0.0000E+00  0.0000E+00  0.7000E+03
  14.970  0.0000E+00  0.0000E+00  0.7000E+03
  14.980  0.0000E+00  0.0000E+00  0.7000E+03
  14.990  0.0000E+00  0.0000E+00  0.7000E+03
  15.000  0.0000E+00  0.0000E+00  0.7000E+03
