#  E (eV)   dosup(E)     dosdw(E)   Int dos(E) EFermi =    5.653 eV
 -15.000  0.0000E+00  0.0000E+00  0.8000E+01
 -14.990  0.0000E+00  0.0000E+00  0.8000E+01
 -14.980  0.0000E+00  0.0000E+00  0.8000E+01
 -14.970  0.0000E+00  0.0000E+00  0.8000E+01
 -14.960  0.0000E+00  0.0000E+00  0.8000E+01
 -14.950  0.0000E+00  0.0000E+00  0.8000E+01
 -14.940  0.0000E+00  0.0000E+00  0.8000E+01
 -14.930  0.0000E+00  0.0000E+00  0.8000E+01
 -14.920  0.0000E+00  0.0000E+00  0.8000E+01
 -14.910  0.0000E+00  0.0000E+00  0.8000E+01
 -14.900  0.0000E+00  0.0000E+00  0.8000E+01
 -14.890  0.0000E+00  0.0000E+00  0.8000E+01
 -14.880  0.0000E+00  0.0000E+00  0.8000E+01
 -14.870  0.0000E+00  0.0000E+00  0.8000E+01
 -14.860  0.0000E+00  0.0000E+00  0.8000E+01
 -14.850  0.0000E+00  0.0000E+00  0.8000E+01
 -14.840  0.0000E+00  0.0000E+00  0.8000E+01
 -14.830  0.0000E+00  0.0000E+00  0.8000E+01
 -14.820  0.0000E+00  0.0000E+00  0.8000E+01
 -14.810  0.0000E+00  0.0000E+00  0.8000E+01
 -14.800  0.0000E+00  0.0000E+00  0.8000E+01
 -14.790  0.0000E+00  0.0000E+00  0.8000E+01
 -14.780  0.0000E+00  0.0000E+00  0.8000E+01
 -14.770  0.0000E+00  0.0000E+00  0.8000E+01
 -14.760  0.0000E+00  0.0000E+00  0.8000E+01
 -14.750  0.0000E+00  0.0000E+00  0.8000E+01
 -14.740  0.0000E+00  0.0000E+00  0.8000E+01
 -14.730  0.0000E+00  0.0000E+00  0.8000E+01
 -14.720  0.0000E+00  0.0000E+00  0.8000E+01
 -14.710  0.0000E+00  0.0000E+00  0.8000E+01
 -14.700  0.0000E+00  0.0000E+00  0.8000E+01
 -14.690  0.0000E+00  0.0000E+00  0.8000E+01
 -14.680  0.0000E+00  0.0000E+00  0.8000E+01
 -14.670  0.0000E+00  0.0000E+00  0.8000E+01
 -14.660  0.0000E+00  0.0000E+00  0.8000E+01
 -14.650  0.0000E+00  0.0000E+00  0.8000E+01
 -14.640  0.0000E+00  0.0000E+00  0.8000E+01
 -14.630  0.0000E+00  0.0000E+00  0.8000E+01
 -14.620  0.0000E+00  0.0000E+00  0.8000E+01
 -14.610  0.0000E+00  0.0000E+00  0.8000E+01
 -14.600  0.0000E+00  0.0000E+00  0.8000E+01
 -14.590  0.0000E+00  0.0000E+00  0.8000E+01
 -14.580  0.0000E+00  0.0000E+00  0.8000E+01
 -14.570  0.0000E+00  0.0000E+00  0.8000E+01
 -14.560  0.0000E+00  0.0000E+00  0.8000E+01
 -14.550  0.0000E+00  0.0000E+00  0.8000E+01
 -14.540  0.0000E+00  0.0000E+00  0.8000E+01
 -14.530  0.0000E+00  0.0000E+00  0.8000E+01
 -14.520  0.0000E+00  0.0000E+00  0.8000E+01
 -14.510  0.0000E+00  0.0000E+00  0.8000E+01
 -14.500  0.0000E+00  0.0000E+00  0.8000E+01
 -14.490  0.0000E+00  0.0000E+00  0.8000E+01
 -14.480  0.0000E+00  0.0000E+00  0.8000E+01
 -14.470  0.0000E+00  0.0000E+00  0.8000E+01
 -14.460  0.0000E+00  0.0000E+00  0.8000E+01
 -14.450  0.0000E+00  0.0000E+00  0.8000E+01
 -14.440  0.0000E+00  0.0000E+00  0.8000E+01
 -14.430  0.0000E+00  0.0000E+00  0.8000E+01
 -14.420  0.0000E+00  0.0000E+00  0.8000E+01
 -14.410  0.0000E+00  0.0000E+00  0.8000E+01
 -14.400  0.0000E+00  0.0000E+00  0.8000E+01
 -14.390  0.0000E+00  0.0000E+00  0.8000E+01
 -14.380  0.0000E+00  0.0000E+00  0.8000E+01
 -14.370  0.0000E+00  0.0000E+00  0.8000E+01
 -14.360  0.0000E+00  0.0000E+00  0.8000E+01
 -14.350  0.0000E+00  0.0000E+00  0.8000E+01
 -14.340  0.0000E+00  0.0000E+00  0.8000E+01
 -14.330  0.0000E+00  0.0000E+00  0.8000E+01
 -14.320  0.0000E+00  0.0000E+00  0.8000E+01
 -14.310  0.0000E+00  0.0000E+00  0.8000E+01
 -14.300  0.0000E+00  0.0000E+00  0.8000E+01
 -14.290  0.0000E+00  0.0000E+00  0.8000E+01
 -14.280  0.0000E+00  0.0000E+00  0.8000E+01
 -14.270  0.0000E+00  0.0000E+00  0.8000E+01
 -14.260  0.0000E+00  0.0000E+00  0.8000E+01
 -14.250  0.0000E+00  0.0000E+00  0.8000E+01
 -14.240  0.0000E+00  0.0000E+00  0.8000E+01
 -14.230  0.0000E+00  0.0000E+00  0.8000E+01
 -14.220  0.0000E+00  0.0000E+00  0.8000E+01
 -14.210  0.0000E+00  0.0000E+00  0.8000E+01
 -14.200  0.0000E+00  0.0000E+00  0.8000E+01
 -14.190  0.0000E+00  0.0000E+00  0.8000E+01
 -14.180  0.0000E+00  0.0000E+00  0.8000E+01
 -14.170  0.0000E+00  0.0000E+00  0.8000E+01
 -14.160  0.0000E+00  0.0000E+00  0.8000E+01
 -14.150  0.0000E+00  0.0000E+00  0.8000E+01
 -14.140  0.0000E+00  0.0000E+00  0.8000E+01
 -14.130  0.0000E+00  0.0000E+00  0.8000E+01
 -14.120  0.0000E+00  0.0000E+00  0.8000E+01
 -14.110  0.0000E+00  0.0000E+00  0.8000E+01
 -14.100  0.0000E+00  0.0000E+00  0.8000E+01
 -14.090  0.0000E+00  0.0000E+00  0.8000E+01
 -14.080  0.0000E+00  0.0000E+00  0.8000E+01
 -14.070  0.0000E+00  0.0000E+00  0.8000E+01
 -14.060  0.0000E+00  0.0000E+00  0.8000E+01
 -14.050  0.0000E+00  0.0000E+00  0.8000E+01
 -14.040  0.0000E+00  0.0000E+00  0.8000E+01
 -14.030  0.0000E+00  0.0000E+00  0.8000E+01
 -14.020  0.0000E+00  0.0000E+00  0.8000E+01
 -14.010  0.0000E+00  0.0000E+00  0.8000E+01
 -14.000  0.0000E+00  0.0000E+00  0.8000E+01
 -13.990  0.0000E+00  0.0000E+00  0.8000E+01
 -13.980  0.0000E+00  0.0000E+00  0.8000E+01
 -13.970  0.0000E+00  0.0000E+00  0.8000E+01
 -13.960  0.0000E+00  0.0000E+00  0.8000E+01
 -13.950  0.0000E+00  0.0000E+00  0.8000E+01
 -13.940  0.0000E+00  0.0000E+00  0.8000E+01
 -13.930  0.0000E+00  0.0000E+00  0.8000E+01
 -13.920  0.0000E+00  0.0000E+00  0.8000E+01
 -13.910  0.0000E+00  0.0000E+00  0.8000E+01
 -13.900  0.0000E+00  0.0000E+00  0.8000E+01
 -13.890  0.0000E+00  0.0000E+00  0.8000E+01
 -13.880  0.0000E+00  0.0000E+00  0.8000E+01
 -13.870  0.0000E+00  0.0000E+00  0.8000E+01
 -13.860  0.0000E+00  0.0000E+00  0.8000E+01
 -13.850  0.0000E+00  0.0000E+00  0.8000E+01
 -13.840  0.0000E+00  0.0000E+00  0.8000E+01
 -13.830  0.0000E+00  0.0000E+00  0.8000E+01
 -13.820  0.0000E+00  0.0000E+00  0.8000E+01
 -13.810  0.0000E+00  0.0000E+00  0.8000E+01
 -13.800  0.0000E+00  0.0000E+00  0.8000E+01
 -13.790  0.0000E+00  0.0000E+00  0.8000E+01
 -13.780  0.0000E+00  0.0000E+00  0.8000E+01
 -13.770  0.0000E+00  0.0000E+00  0.8000E+01
 -13.760  0.0000E+00  0.0000E+00  0.8000E+01
 -13.750  0.0000E+00  0.0000E+00  0.8000E+01
 -13.740  0.0000E+00  0.0000E+00  0.8000E+01
 -13.730  0.0000E+00  0.0000E+00  0.8000E+01
 -13.720  0.0000E+00  0.0000E+00  0.8000E+01
 -13.710  0.0000E+00  0.0000E+00  0.8000E+01
 -13.700  0.0000E+00  0.0000E+00  0.8000E+01
 -13.690  0.0000E+00  0.0000E+00  0.8000E+01
 -13.680  0.0000E+00  0.0000E+00  0.8000E+01
 -13.670  0.0000E+00  0.0000E+00  0.8000E+01
 -13.660  0.0000E+00  0.0000E+00  0.8000E+01
 -13.650  0.0000E+00  0.0000E+00  0.8000E+01
 -13.640  0.0000E+00  0.0000E+00  0.8000E+01
 -13.630  0.0000E+00  0.0000E+00  0.8000E+01
 -13.620  0.0000E+00  0.0000E+00  0.8000E+01
 -13.610  0.0000E+00  0.0000E+00  0.8000E+01
 -13.600  0.0000E+00  0.0000E+00  0.8000E+01
 -13.590  0.0000E+00  0.0000E+00  0.8000E+01
 -13.580  0.0000E+00  0.0000E+00  0.8000E+01
 -13.570  0.0000E+00  0.0000E+00  0.8000E+01
 -13.560  0.0000E+00  0.0000E+00  0.8000E+01
 -13.550  0.0000E+00  0.0000E+00  0.8000E+01
 -13.540  0.0000E+00  0.0000E+00  0.8000E+01
 -13.530  0.0000E+00  0.0000E+00  0.8000E+01
 -13.520  0.0000E+00  0.0000E+00  0.8000E+01
 -13.510  0.0000E+00  0.0000E+00  0.8000E+01
 -13.500  0.0000E+00  0.0000E+00  0.8000E+01
 -13.490  0.0000E+00  0.0000E+00  0.8000E+01
 -13.480  0.0000E+00  0.0000E+00  0.8000E+01
 -13.470  0.0000E+00  0.0000E+00  0.8000E+01
 -13.460  0.0000E+00  0.0000E+00  0.8000E+01
 -13.450  0.0000E+00  0.0000E+00  0.8000E+01
 -13.440  0.0000E+00  0.0000E+00  0.8000E+01
 -13.430  0.0000E+00  0.0000E+00  0.8000E+01
 -13.420  0.0000E+00  0.0000E+00  0.8000E+01
 -13.410  0.0000E+00  0.0000E+00  0.8000E+01
 -13.400  0.0000E+00  0.0000E+00  0.8000E+01
 -13.390  0.0000E+00  0.0000E+00  0.8000E+01
 -13.380  0.0000E+00  0.0000E+00  0.8000E+01
 -13.370  0.0000E+00  0.0000E+00  0.8000E+01
 -13.360  0.0000E+00  0.0000E+00  0.8000E+01
 -13.350  0.0000E+00  0.0000E+00  0.8000E+01
 -13.340  0.0000E+00  0.0000E+00  0.8000E+01
 -13.330  0.0000E+00  0.0000E+00  0.8000E+01
 -13.320  0.0000E+00  0.0000E+00  0.8000E+01
 -13.310  0.0000E+00  0.0000E+00  0.8000E+01
 -13.300  0.0000E+00  0.0000E+00  0.8000E+01
 -13.290  0.0000E+00  0.0000E+00  0.8000E+01
 -13.280  0.0000E+00  0.0000E+00  0.8000E+01
 -13.270  0.0000E+00  0.0000E+00  0.8000E+01
 -13.260  0.0000E+00  0.0000E+00  0.8000E+01
 -13.250  0.0000E+00  0.0000E+00  0.8000E+01
 -13.240  0.0000E+00  0.0000E+00  0.8000E+01
 -13.230  0.0000E+00  0.0000E+00  0.8000E+01
 -13.220  0.0000E+00  0.0000E+00  0.8000E+01
 -13.210  0.0000E+00  0.0000E+00  0.8000E+01
 -13.200  0.0000E+00  0.0000E+00  0.8000E+01
 -13.190  0.0000E+00  0.0000E+00  0.8000E+01
 -13.180  0.0000E+00  0.0000E+00  0.8000E+01
 -13.170  0.0000E+00  0.0000E+00  0.8000E+01
 -13.160  0.0000E+00  0.0000E+00  0.8000E+01
 -13.150  0.0000E+00  0.0000E+00  0.8000E+01
 -13.140  0.0000E+00  0.0000E+00  0.8000E+01
 -13.130  0.0000E+00  0.0000E+00  0.8000E+01
 -13.120  0.0000E+00  0.0000E+00  0.8000E+01
 -13.110  0.0000E+00  0.0000E+00  0.8000E+01
 -13.100  0.0000E+00  0.0000E+00  0.8000E+01
 -13.090  0.0000E+00  0.0000E+00  0.8000E+01
 -13.080  0.0000E+00  0.0000E+00  0.8000E+01
 -13.070  0.0000E+00  0.0000E+00  0.8000E+01
 -13.060  0.0000E+00  0.0000E+00  0.8000E+01
 -13.050  0.0000E+00  0.0000E+00  0.8000E+01
 -13.040  0.0000E+00  0.0000E+00  0.8000E+01
 -13.030  0.0000E+00  0.0000E+00  0.8000E+01
 -13.020  0.0000E+00  0.0000E+00  0.8000E+01
 -13.010  0.0000E+00  0.0000E+00  0.8000E+01
 -13.000  0.0000E+00  0.0000E+00  0.8000E+01
 -12.990  0.0000E+00  0.0000E+00  0.8000E+01
 -12.980  0.0000E+00  0.0000E+00  0.8000E+01
 -12.970  0.0000E+00  0.0000E+00  0.8000E+01
 -12.960  0.0000E+00  0.0000E+00  0.8000E+01
 -12.950  0.0000E+00  0.0000E+00  0.8000E+01
 -12.940  0.0000E+00  0.0000E+00  0.8000E+01
 -12.930  0.0000E+00  0.0000E+00  0.8000E+01
 -12.920  0.0000E+00  0.0000E+00  0.8000E+01
 -12.910  0.0000E+00  0.0000E+00  0.8000E+01
 -12.900  0.0000E+00  0.0000E+00  0.8000E+01
 -12.890  0.0000E+00  0.0000E+00  0.8000E+01
 -12.880  0.0000E+00  0.0000E+00  0.8000E+01
 -12.870  0.0000E+00  0.0000E+00  0.8000E+01
 -12.860  0.0000E+00  0.0000E+00  0.8000E+01
 -12.850  0.0000E+00  0.0000E+00  0.8000E+01
 -12.840  0.0000E+00  0.0000E+00  0.8000E+01
 -12.830  0.0000E+00  0.0000E+00  0.8000E+01
 -12.820  0.0000E+00  0.0000E+00  0.8000E+01
 -12.810  0.0000E+00  0.0000E+00  0.8000E+01
 -12.800  0.0000E+00  0.0000E+00  0.8000E+01
 -12.790  0.0000E+00  0.0000E+00  0.8000E+01
 -12.780  0.0000E+00  0.0000E+00  0.8000E+01
 -12.770  0.0000E+00  0.0000E+00  0.8000E+01
 -12.760  0.0000E+00  0.0000E+00  0.8000E+01
 -12.750  0.0000E+00  0.0000E+00  0.8000E+01
 -12.740  0.0000E+00  0.0000E+00  0.8000E+01
 -12.730  0.0000E+00  0.0000E+00  0.8000E+01
 -12.720  0.0000E+00  0.0000E+00  0.8000E+01
 -12.710  0.0000E+00  0.0000E+00  0.8000E+01
 -12.700  0.0000E+00  0.0000E+00  0.8000E+01
 -12.690  0.0000E+00  0.0000E+00  0.8000E+01
 -12.680  0.0000E+00  0.0000E+00  0.8000E+01
 -12.670  0.0000E+00  0.0000E+00  0.8000E+01
 -12.660  0.0000E+00  0.0000E+00  0.8000E+01
 -12.650  0.0000E+00  0.0000E+00  0.8000E+01
 -12.640  0.0000E+00  0.0000E+00  0.8000E+01
 -12.630  0.0000E+00  0.0000E+00  0.8000E+01
 -12.620  0.0000E+00  0.0000E+00  0.8000E+01
 -12.610  0.0000E+00  0.0000E+00  0.8000E+01
 -12.600  0.0000E+00  0.0000E+00  0.8000E+01
 -12.590  0.0000E+00  0.0000E+00  0.8000E+01
 -12.580  0.0000E+00  0.0000E+00  0.8000E+01
 -12.570  0.0000E+00  0.0000E+00  0.8000E+01
 -12.560  0.0000E+00  0.0000E+00  0.8000E+01
 -12.550  0.0000E+00  0.0000E+00  0.8000E+01
 -12.540  0.0000E+00  0.0000E+00  0.8000E+01
 -12.530  0.0000E+00  0.0000E+00  0.8000E+01
 -12.520  0.0000E+00  0.0000E+00  0.8000E+01
 -12.510  0.0000E+00  0.0000E+00  0.8000E+01
 -12.500  0.0000E+00  0.0000E+00  0.8000E+01
 -12.490  0.0000E+00  0.0000E+00  0.8000E+01
 -12.480  0.0000E+00  0.0000E+00  0.8000E+01
 -12.470  0.0000E+00  0.0000E+00  0.8000E+01
 -12.460  0.0000E+00  0.0000E+00  0.8000E+01
 -12.450  0.0000E+00  0.0000E+00  0.8000E+01
 -12.440  0.0000E+00  0.0000E+00  0.8000E+01
 -12.430  0.0000E+00  0.0000E+00  0.8000E+01
 -12.420  0.0000E+00  0.0000E+00  0.8000E+01
 -12.410  0.0000E+00  0.0000E+00  0.8000E+01
 -12.400  0.0000E+00  0.0000E+00  0.8000E+01
 -12.390  0.0000E+00  0.0000E+00  0.8000E+01
 -12.380  0.0000E+00  0.0000E+00  0.8000E+01
 -12.370  0.0000E+00  0.0000E+00  0.8000E+01
 -12.360  0.0000E+00  0.0000E+00  0.8000E+01
 -12.350  0.0000E+00  0.0000E+00  0.8000E+01
 -12.340  0.0000E+00  0.0000E+00  0.8000E+01
 -12.330  0.0000E+00  0.0000E+00  0.8000E+01
 -12.320  0.0000E+00  0.0000E+00  0.8000E+01
 -12.310  0.0000E+00  0.0000E+00  0.8000E+01
 -12.300  0.0000E+00  0.0000E+00  0.8000E+01
 -12.290  0.0000E+00  0.0000E+00  0.8000E+01
 -12.280  0.0000E+00  0.0000E+00  0.8000E+01
 -12.270  0.0000E+00  0.0000E+00  0.8000E+01
 -12.260  0.0000E+00  0.0000E+00  0.8000E+01
 -12.250  0.0000E+00  0.0000E+00  0.8000E+01
 -12.240  0.0000E+00  0.0000E+00  0.8000E+01
 -12.230  0.0000E+00  0.0000E+00  0.8000E+01
 -12.220  0.0000E+00  0.0000E+00  0.8000E+01
 -12.210  0.0000E+00  0.0000E+00  0.8000E+01
 -12.200  0.0000E+00  0.0000E+00  0.8000E+01
 -12.190  0.0000E+00  0.0000E+00  0.8000E+01
 -12.180  0.0000E+00  0.0000E+00  0.8000E+01
 -12.170  0.0000E+00  0.0000E+00  0.8000E+01
 -12.160  0.0000E+00  0.0000E+00  0.8000E+01
 -12.150  0.0000E+00  0.0000E+00  0.8000E+01
 -12.140  0.0000E+00  0.0000E+00  0.8000E+01
 -12.130  0.0000E+00  0.0000E+00  0.8000E+01
 -12.120  0.0000E+00  0.0000E+00  0.8000E+01
 -12.110  0.0000E+00  0.0000E+00  0.8000E+01
 -12.100  0.0000E+00  0.0000E+00  0.8000E+01
 -12.090  0.0000E+00  0.0000E+00  0.8000E+01
 -12.080  0.0000E+00  0.0000E+00  0.8000E+01
 -12.070  0.0000E+00  0.0000E+00  0.8000E+01
 -12.060  0.0000E+00  0.0000E+00  0.8000E+01
 -12.050  0.0000E+00  0.0000E+00  0.8000E+01
 -12.040  0.0000E+00  0.0000E+00  0.8000E+01
 -12.030  0.0000E+00  0.0000E+00  0.8000E+01
 -12.020  0.0000E+00  0.0000E+00  0.8000E+01
 -12.010  0.0000E+00  0.0000E+00  0.8000E+01
 -12.000  0.0000E+00  0.0000E+00  0.8000E+01
 -11.990  0.0000E+00  0.0000E+00  0.8000E+01
 -11.980  0.0000E+00  0.0000E+00  0.8000E+01
 -11.970  0.0000E+00  0.0000E+00  0.8000E+01
 -11.960  0.0000E+00  0.0000E+00  0.8000E+01
 -11.950  0.0000E+00  0.0000E+00  0.8000E+01
 -11.940  0.0000E+00  0.0000E+00  0.8000E+01
 -11.930  0.0000E+00  0.0000E+00  0.8000E+01
 -11.920  0.0000E+00  0.0000E+00  0.8000E+01
 -11.910  0.0000E+00  0.0000E+00  0.8000E+01
 -11.900  0.0000E+00  0.0000E+00  0.8000E+01
 -11.890  0.0000E+00  0.0000E+00  0.8000E+01
 -11.880  0.0000E+00  0.0000E+00  0.8000E+01
 -11.870  0.0000E+00  0.0000E+00  0.8000E+01
 -11.860  0.0000E+00  0.0000E+00  0.8000E+01
 -11.850  0.0000E+00  0.0000E+00  0.8000E+01
 -11.840  0.0000E+00  0.0000E+00  0.8000E+01
 -11.830  0.0000E+00  0.0000E+00  0.8000E+01
 -11.820  0.0000E+00  0.0000E+00  0.8000E+01
 -11.810  0.0000E+00  0.0000E+00  0.8000E+01
 -11.800  0.0000E+00  0.0000E+00  0.8000E+01
 -11.790  0.0000E+00  0.0000E+00  0.8000E+01
 -11.780  0.0000E+00  0.0000E+00  0.8000E+01
 -11.770  0.0000E+00  0.0000E+00  0.8000E+01
 -11.760  0.0000E+00  0.0000E+00  0.8000E+01
 -11.750  0.0000E+00  0.0000E+00  0.8000E+01
 -11.740  0.0000E+00  0.0000E+00  0.8000E+01
 -11.730  0.0000E+00  0.0000E+00  0.8000E+01
 -11.720  0.0000E+00  0.0000E+00  0.8000E+01
 -11.710  0.0000E+00  0.0000E+00  0.8000E+01
 -11.700  0.0000E+00  0.0000E+00  0.8000E+01
 -11.690  0.0000E+00  0.0000E+00  0.8000E+01
 -11.680  0.0000E+00  0.0000E+00  0.8000E+01
 -11.670  0.0000E+00  0.0000E+00  0.8000E+01
 -11.660  0.0000E+00  0.0000E+00  0.8000E+01
 -11.650  0.0000E+00  0.0000E+00  0.8000E+01
 -11.640  0.0000E+00  0.0000E+00  0.8000E+01
 -11.630  0.0000E+00  0.0000E+00  0.8000E+01
 -11.620  0.0000E+00  0.0000E+00  0.8000E+01
 -11.610  0.0000E+00  0.0000E+00  0.8000E+01
 -11.600  0.0000E+00  0.0000E+00  0.8000E+01
 -11.590  0.0000E+00  0.0000E+00  0.8000E+01
 -11.580  0.0000E+00  0.0000E+00  0.8000E+01
 -11.570  0.0000E+00  0.0000E+00  0.8000E+01
 -11.560  0.0000E+00  0.0000E+00  0.8000E+01
 -11.550  0.0000E+00  0.0000E+00  0.8000E+01
 -11.540  0.0000E+00  0.0000E+00  0.8000E+01
 -11.530  0.0000E+00  0.0000E+00  0.8000E+01
 -11.520  0.0000E+00  0.0000E+00  0.8000E+01
 -11.510  0.0000E+00  0.0000E+00  0.8000E+01
 -11.500  0.0000E+00  0.0000E+00  0.8000E+01
 -11.490  0.0000E+00  0.0000E+00  0.8000E+01
 -11.480  0.0000E+00  0.0000E+00  0.8000E+01
 -11.470  0.0000E+00  0.0000E+00  0.8000E+01
 -11.460  0.0000E+00  0.0000E+00  0.8000E+01
 -11.450  0.0000E+00  0.0000E+00  0.8000E+01
 -11.440  0.0000E+00  0.0000E+00  0.8000E+01
 -11.430  0.0000E+00  0.0000E+00  0.8000E+01
 -11.420  0.0000E+00  0.0000E+00  0.8000E+01
 -11.410  0.0000E+00  0.0000E+00  0.8000E+01
 -11.400  0.0000E+00  0.0000E+00  0.8000E+01
 -11.390  0.0000E+00  0.0000E+00  0.8000E+01
 -11.380  0.0000E+00  0.0000E+00  0.8000E+01
 -11.370  0.0000E+00  0.0000E+00  0.8000E+01
 -11.360  0.0000E+00  0.0000E+00  0.8000E+01
 -11.350  0.0000E+00  0.0000E+00  0.8000E+01
 -11.340  0.0000E+00  0.0000E+00  0.8000E+01
 -11.330  0.0000E+00  0.0000E+00  0.8000E+01
 -11.320  0.0000E+00  0.0000E+00  0.8000E+01
 -11.310  0.0000E+00  0.0000E+00  0.8000E+01
 -11.300  0.0000E+00  0.0000E+00  0.8000E+01
 -11.290  0.0000E+00  0.0000E+00  0.8000E+01
 -11.280  0.0000E+00  0.0000E+00  0.8000E+01
 -11.270  0.0000E+00  0.0000E+00  0.8000E+01
 -11.260  0.0000E+00  0.0000E+00  0.8000E+01
 -11.250  0.0000E+00  0.0000E+00  0.8000E+01
 -11.240  0.0000E+00  0.0000E+00  0.8000E+01
 -11.230  0.0000E+00  0.0000E+00  0.8000E+01
 -11.220  0.0000E+00  0.0000E+00  0.8000E+01
 -11.210  0.0000E+00  0.0000E+00  0.8000E+01
 -11.200  0.0000E+00  0.0000E+00  0.8000E+01
 -11.190  0.0000E+00  0.0000E+00  0.8000E+01
 -11.180  0.0000E+00  0.0000E+00  0.8000E+01
 -11.170  0.0000E+00  0.0000E+00  0.8000E+01
 -11.160  0.0000E+00  0.0000E+00  0.8000E+01
 -11.150  0.0000E+00  0.0000E+00  0.8000E+01
 -11.140  0.0000E+00  0.0000E+00  0.8000E+01
 -11.130  0.0000E+00  0.0000E+00  0.8000E+01
 -11.120  0.0000E+00  0.0000E+00  0.8000E+01
 -11.110  0.0000E+00  0.0000E+00  0.8000E+01
 -11.100  0.0000E+00  0.0000E+00  0.8000E+01
 -11.090  0.0000E+00  0.0000E+00  0.8000E+01
 -11.080  0.0000E+00  0.0000E+00  0.8000E+01
 -11.070  0.0000E+00  0.0000E+00  0.8000E+01
 -11.060  0.0000E+00  0.0000E+00  0.8000E+01
 -11.050  0.0000E+00  0.0000E+00  0.8000E+01
 -11.040  0.0000E+00  0.0000E+00  0.8000E+01
 -11.030  0.0000E+00  0.0000E+00  0.8000E+01
 -11.020  0.0000E+00  0.0000E+00  0.8000E+01
 -11.010  0.0000E+00  0.0000E+00  0.8000E+01
 -11.000  0.0000E+00  0.0000E+00  0.8000E+01
 -10.990  0.0000E+00  0.0000E+00  0.8000E+01
 -10.980  0.0000E+00  0.0000E+00  0.8000E+01
 -10.970  0.0000E+00  0.0000E+00  0.8000E+01
 -10.960  0.0000E+00  0.0000E+00  0.8000E+01
 -10.950  0.0000E+00  0.0000E+00  0.8000E+01
 -10.940  0.0000E+00  0.0000E+00  0.8000E+01
 -10.930  0.0000E+00  0.0000E+00  0.8000E+01
 -10.920  0.0000E+00  0.0000E+00  0.8000E+01
 -10.910  0.0000E+00  0.0000E+00  0.8000E+01
 -10.900  0.0000E+00  0.0000E+00  0.8000E+01
 -10.890  0.0000E+00  0.0000E+00  0.8000E+01
 -10.880  0.0000E+00  0.0000E+00  0.8000E+01
 -10.870  0.0000E+00  0.0000E+00  0.8000E+01
 -10.860  0.0000E+00  0.0000E+00  0.8000E+01
 -10.850  0.0000E+00  0.0000E+00  0.8000E+01
 -10.840  0.0000E+00  0.0000E+00  0.8000E+01
 -10.830  0.0000E+00  0.0000E+00  0.8000E+01
 -10.820  0.0000E+00  0.0000E+00  0.8000E+01
 -10.810  0.0000E+00  0.0000E+00  0.8000E+01
 -10.800  0.0000E+00  0.0000E+00  0.8000E+01
 -10.790  0.0000E+00  0.0000E+00  0.8000E+01
 -10.780  0.0000E+00  0.0000E+00  0.8000E+01
 -10.770  0.0000E+00  0.0000E+00  0.8000E+01
 -10.760  0.0000E+00  0.0000E+00  0.8000E+01
 -10.750  0.0000E+00  0.0000E+00  0.8000E+01
 -10.740  0.0000E+00  0.0000E+00  0.8000E+01
 -10.730  0.0000E+00  0.0000E+00  0.8000E+01
 -10.720  0.0000E+00  0.0000E+00  0.8000E+01
 -10.710  0.0000E+00  0.0000E+00  0.8000E+01
 -10.700  0.0000E+00  0.0000E+00  0.8000E+01
 -10.690  0.0000E+00  0.0000E+00  0.8000E+01
 -10.680  0.0000E+00  0.0000E+00  0.8000E+01
 -10.670  0.0000E+00  0.0000E+00  0.8000E+01
 -10.660  0.0000E+00  0.0000E+00  0.8000E+01
 -10.650  0.0000E+00  0.0000E+00  0.8000E+01
 -10.640  0.0000E+00  0.0000E+00  0.8000E+01
 -10.630  0.0000E+00  0.0000E+00  0.8000E+01
 -10.620  0.0000E+00  0.0000E+00  0.8000E+01
 -10.610  0.0000E+00  0.0000E+00  0.8000E+01
 -10.600  0.0000E+00  0.0000E+00  0.8000E+01
 -10.590  0.0000E+00  0.0000E+00  0.8000E+01
 -10.580  0.0000E+00  0.0000E+00  0.8000E+01
 -10.570  0.0000E+00  0.0000E+00  0.8000E+01
 -10.560  0.0000E+00  0.0000E+00  0.8000E+01
 -10.550  0.0000E+00  0.0000E+00  0.8000E+01
 -10.540  0.0000E+00  0.0000E+00  0.8000E+01
 -10.530  0.0000E+00  0.0000E+00  0.8000E+01
 -10.520  0.0000E+00  0.0000E+00  0.8000E+01
 -10.510  0.0000E+00  0.0000E+00  0.8000E+01
 -10.500  0.0000E+00  0.0000E+00  0.8000E+01
 -10.490  0.0000E+00  0.0000E+00  0.8000E+01
 -10.480  0.0000E+00  0.0000E+00  0.8000E+01
 -10.470  0.0000E+00  0.0000E+00  0.8000E+01
 -10.460  0.0000E+00  0.0000E+00  0.8000E+01
 -10.450  0.0000E+00  0.0000E+00  0.8000E+01
 -10.440  0.0000E+00  0.0000E+00  0.8000E+01
 -10.430  0.0000E+00  0.0000E+00  0.8000E+01
 -10.420  0.0000E+00  0.0000E+00  0.8000E+01
 -10.410  0.0000E+00  0.0000E+00  0.8000E+01
 -10.400  0.0000E+00  0.0000E+00  0.8000E+01
 -10.390  0.0000E+00  0.0000E+00  0.8000E+01
 -10.380  0.0000E+00  0.0000E+00  0.8000E+01
 -10.370  0.0000E+00  0.0000E+00  0.8000E+01
 -10.360  0.0000E+00  0.0000E+00  0.8000E+01
 -10.350  0.0000E+00  0.0000E+00  0.8000E+01
 -10.340  0.0000E+00  0.0000E+00  0.8000E+01
 -10.330  0.0000E+00  0.0000E+00  0.8000E+01
 -10.320  0.0000E+00  0.0000E+00  0.8000E+01
 -10.310  0.0000E+00  0.0000E+00  0.8000E+01
 -10.300  0.0000E+00  0.0000E+00  0.8000E+01
 -10.290  0.0000E+00  0.0000E+00  0.8000E+01
 -10.280  0.0000E+00  0.0000E+00  0.8000E+01
 -10.270  0.0000E+00  0.0000E+00  0.8000E+01
 -10.260  0.0000E+00  0.0000E+00  0.8000E+01
 -10.250  0.0000E+00  0.0000E+00  0.8000E+01
 -10.240  0.0000E+00  0.0000E+00  0.8000E+01
 -10.230  0.0000E+00  0.0000E+00  0.8000E+01
 -10.220  0.0000E+00  0.0000E+00  0.8000E+01
 -10.210  0.0000E+00  0.0000E+00  0.8000E+01
 -10.200  0.0000E+00  0.0000E+00  0.8000E+01
 -10.190  0.0000E+00  0.0000E+00  0.8000E+01
 -10.180  0.0000E+00  0.0000E+00  0.8000E+01
 -10.170  0.0000E+00  0.0000E+00  0.8000E+01
 -10.160  0.0000E+00  0.0000E+00  0.8000E+01
 -10.150  0.0000E+00  0.0000E+00  0.8000E+01
 -10.140  0.0000E+00  0.0000E+00  0.8000E+01
 -10.130  0.0000E+00  0.0000E+00  0.8000E+01
 -10.120  0.0000E+00  0.0000E+00  0.8000E+01
 -10.110  0.0000E+00  0.0000E+00  0.8000E+01
 -10.100  0.0000E+00  0.0000E+00  0.8000E+01
 -10.090  0.0000E+00  0.0000E+00  0.8000E+01
 -10.080  0.0000E+00  0.0000E+00  0.8000E+01
 -10.070  0.0000E+00  0.0000E+00  0.8000E+01
 -10.060  0.0000E+00  0.0000E+00  0.8000E+01
 -10.050  0.0000E+00  0.0000E+00  0.8000E+01
 -10.040  0.0000E+00  0.0000E+00  0.8000E+01
 -10.030  0.0000E+00  0.0000E+00  0.8000E+01
 -10.020  0.0000E+00  0.0000E+00  0.8000E+01
 -10.010  0.0000E+00  0.0000E+00  0.8000E+01
 -10.000  0.0000E+00  0.0000E+00  0.8000E+01
  -9.990  0.0000E+00  0.0000E+00  0.8000E+01
  -9.980  0.0000E+00  0.0000E+00  0.8000E+01
  -9.970  0.0000E+00  0.0000E+00  0.8000E+01
  -9.960  0.0000E+00  0.0000E+00  0.8000E+01
  -9.950  0.0000E+00  0.0000E+00  0.8000E+01
  -9.940  0.0000E+00  0.0000E+00  0.8000E+01
  -9.930  0.0000E+00  0.0000E+00  0.8000E+01
  -9.920  0.0000E+00  0.0000E+00  0.8000E+01
  -9.910  0.0000E+00  0.0000E+00  0.8000E+01
  -9.900  0.0000E+00  0.0000E+00  0.8000E+01
  -9.890  0.0000E+00  0.0000E+00  0.8000E+01
  -9.880  0.0000E+00  0.0000E+00  0.8000E+01
  -9.870  0.0000E+00  0.0000E+00  0.8000E+01
  -9.860  0.0000E+00  0.0000E+00  0.8000E+01
  -9.850  0.0000E+00  0.0000E+00  0.8000E+01
  -9.840  0.0000E+00  0.0000E+00  0.8000E+01
  -9.830  0.0000E+00  0.0000E+00  0.8000E+01
  -9.820  0.0000E+00  0.0000E+00  0.8000E+01
  -9.810  0.0000E+00  0.0000E+00  0.8000E+01
  -9.800  0.0000E+00  0.0000E+00  0.8000E+01
  -9.790  0.0000E+00  0.0000E+00  0.8000E+01
  -9.780  0.0000E+00  0.0000E+00  0.8000E+01
  -9.770  0.0000E+00  0.0000E+00  0.8000E+01
  -9.760  0.0000E+00  0.0000E+00  0.8000E+01
  -9.750  0.0000E+00  0.0000E+00  0.8000E+01
  -9.740  0.0000E+00  0.0000E+00  0.8000E+01
  -9.730  0.0000E+00  0.0000E+00  0.8000E+01
  -9.720  0.0000E+00  0.0000E+00  0.8000E+01
  -9.710  0.0000E+00  0.0000E+00  0.8000E+01
  -9.700  0.0000E+00  0.0000E+00  0.8000E+01
  -9.690  0.0000E+00  0.0000E+00  0.8000E+01
  -9.680  0.0000E+00  0.0000E+00  0.8000E+01
  -9.670  0.0000E+00  0.0000E+00  0.8000E+01
  -9.660  0.0000E+00  0.0000E+00  0.8000E+01
  -9.650  0.0000E+00  0.0000E+00  0.8000E+01
  -9.640  0.0000E+00  0.0000E+00  0.8000E+01
  -9.630  0.0000E+00  0.0000E+00  0.8000E+01
  -9.620  0.0000E+00  0.0000E+00  0.8000E+01
  -9.610  0.0000E+00  0.0000E+00  0.8000E+01
  -9.600  0.0000E+00  0.0000E+00  0.8000E+01
  -9.590  0.0000E+00  0.0000E+00  0.8000E+01
  -9.580  0.0000E+00  0.0000E+00  0.8000E+01
  -9.570  0.0000E+00  0.0000E+00  0.8000E+01
  -9.560  0.0000E+00  0.0000E+00  0.8000E+01
  -9.550  0.0000E+00  0.0000E+00  0.8000E+01
  -9.540  0.0000E+00  0.0000E+00  0.8000E+01
  -9.530  0.0000E+00  0.0000E+00  0.8000E+01
  -9.520  0.0000E+00  0.0000E+00  0.8000E+01
  -9.510  0.0000E+00  0.0000E+00  0.8000E+01
  -9.500  0.0000E+00  0.0000E+00  0.8000E+01
  -9.490  0.0000E+00  0.0000E+00  0.8000E+01
  -9.480  0.0000E+00  0.0000E+00  0.8000E+01
  -9.470  0.0000E+00  0.0000E+00  0.8000E+01
  -9.460  0.0000E+00  0.0000E+00  0.8000E+01
  -9.450  0.0000E+00  0.0000E+00  0.8000E+01
  -9.440  0.0000E+00  0.0000E+00  0.8000E+01
  -9.430  0.0000E+00  0.0000E+00  0.8000E+01
  -9.420  0.0000E+00  0.0000E+00  0.8000E+01
  -9.410  0.0000E+00  0.0000E+00  0.8000E+01
  -9.400  0.0000E+00  0.0000E+00  0.8000E+01
  -9.390  0.0000E+00  0.0000E+00  0.8000E+01
  -9.380  0.0000E+00  0.0000E+00  0.8000E+01
  -9.370  0.0000E+00  0.0000E+00  0.8000E+01
  -9.360  0.0000E+00  0.0000E+00  0.8000E+01
  -9.350  0.0000E+00  0.0000E+00  0.8000E+01
  -9.340  0.0000E+00  0.0000E+00  0.8000E+01
  -9.330  0.0000E+00  0.0000E+00  0.8000E+01
  -9.320  0.0000E+00  0.0000E+00  0.8000E+01
  -9.310  0.0000E+00  0.0000E+00  0.8000E+01
  -9.300  0.0000E+00  0.0000E+00  0.8000E+01
  -9.290  0.0000E+00  0.0000E+00  0.8000E+01
  -9.280  0.0000E+00  0.0000E+00  0.8000E+01
  -9.270  0.0000E+00  0.0000E+00  0.8000E+01
  -9.260  0.0000E+00  0.0000E+00  0.8000E+01
  -9.250  0.0000E+00  0.0000E+00  0.8000E+01
  -9.240  0.0000E+00  0.0000E+00  0.8000E+01
  -9.230  0.0000E+00  0.0000E+00  0.8000E+01
  -9.220  0.0000E+00  0.0000E+00  0.8000E+01
  -9.210  0.0000E+00  0.0000E+00  0.8000E+01
  -9.200  0.0000E+00  0.0000E+00  0.8000E+01
  -9.190  0.0000E+00  0.0000E+00  0.8000E+01
  -9.180  0.0000E+00  0.0000E+00  0.8000E+01
  -9.170  0.0000E+00  0.0000E+00  0.8000E+01
  -9.160  0.0000E+00  0.0000E+00  0.8000E+01
  -9.150  0.0000E+00  0.0000E+00  0.8000E+01
  -9.140  0.0000E+00  0.0000E+00  0.8000E+01
  -9.130  0.0000E+00  0.0000E+00  0.8000E+01
  -9.120  0.0000E+00  0.0000E+00  0.8000E+01
  -9.110  0.0000E+00  0.0000E+00  0.8000E+01
  -9.100  0.0000E+00  0.0000E+00  0.8000E+01
  -9.090  0.0000E+00  0.0000E+00  0.8000E+01
  -9.080  0.0000E+00  0.0000E+00  0.8000E+01
  -9.070  0.0000E+00  0.0000E+00  0.8000E+01
  -9.060  0.0000E+00  0.0000E+00  0.8000E+01
  -9.050  0.0000E+00  0.0000E+00  0.8000E+01
  -9.040  0.0000E+00  0.0000E+00  0.8000E+01
  -9.030  0.0000E+00  0.0000E+00  0.8000E+01
  -9.020  0.0000E+00  0.0000E+00  0.8000E+01
  -9.010  0.0000E+00  0.0000E+00  0.8000E+01
  -9.000  0.0000E+00  0.0000E+00  0.8000E+01
  -8.990  0.0000E+00  0.0000E+00  0.8000E+01
  -8.980  0.0000E+00  0.0000E+00  0.8000E+01
  -8.970  0.0000E+00  0.0000E+00  0.8000E+01
  -8.960  0.0000E+00  0.0000E+00  0.8000E+01
  -8.950  0.0000E+00  0.0000E+00  0.8000E+01
  -8.940  0.0000E+00  0.0000E+00  0.8000E+01
  -8.930  0.0000E+00  0.0000E+00  0.8000E+01
  -8.920  0.0000E+00  0.0000E+00  0.8000E+01
  -8.910  0.0000E+00  0.0000E+00  0.8000E+01
  -8.900  0.0000E+00  0.0000E+00  0.8000E+01
  -8.890  0.0000E+00  0.0000E+00  0.8000E+01
  -8.880  0.0000E+00  0.0000E+00  0.8000E+01
  -8.870  0.0000E+00  0.0000E+00  0.8000E+01
  -8.860  0.0000E+00  0.0000E+00  0.8000E+01
  -8.850  0.0000E+00  0.0000E+00  0.8000E+01
  -8.840  0.0000E+00  0.0000E+00  0.8000E+01
  -8.830  0.0000E+00  0.0000E+00  0.8000E+01
  -8.820  0.0000E+00  0.0000E+00  0.8000E+01
  -8.810  0.0000E+00  0.0000E+00  0.8000E+01
  -8.800  0.0000E+00  0.0000E+00  0.8000E+01
  -8.790  0.0000E+00  0.0000E+00  0.8000E+01
  -8.780  0.0000E+00  0.0000E+00  0.8000E+01
  -8.770  0.0000E+00  0.0000E+00  0.8000E+01
  -8.760  0.0000E+00  0.0000E+00  0.8000E+01
  -8.750  0.0000E+00  0.0000E+00  0.8000E+01
  -8.740  0.0000E+00  0.0000E+00  0.8000E+01
  -8.730  0.0000E+00  0.0000E+00  0.8000E+01
  -8.720  0.0000E+00  0.0000E+00  0.8000E+01
  -8.710  0.0000E+00  0.0000E+00  0.8000E+01
  -8.700  0.0000E+00  0.0000E+00  0.8000E+01
  -8.690  0.0000E+00  0.0000E+00  0.8000E+01
  -8.680  0.0000E+00  0.0000E+00  0.8000E+01
  -8.670  0.0000E+00  0.0000E+00  0.8000E+01
  -8.660  0.0000E+00  0.0000E+00  0.8000E+01
  -8.650  0.0000E+00  0.0000E+00  0.8000E+01
  -8.640  0.0000E+00  0.0000E+00  0.8000E+01
  -8.630  0.0000E+00  0.0000E+00  0.8000E+01
  -8.620  0.0000E+00  0.0000E+00  0.8000E+01
  -8.610  0.0000E+00  0.0000E+00  0.8000E+01
  -8.600  0.0000E+00  0.0000E+00  0.8000E+01
  -8.590  0.0000E+00  0.0000E+00  0.8000E+01
  -8.580  0.0000E+00  0.0000E+00  0.8000E+01
  -8.570  0.0000E+00  0.0000E+00  0.8000E+01
  -8.560  0.0000E+00  0.0000E+00  0.8000E+01
  -8.550  0.0000E+00  0.0000E+00  0.8000E+01
  -8.540  0.0000E+00  0.0000E+00  0.8000E+01
  -8.530  0.0000E+00  0.0000E+00  0.8000E+01
  -8.520  0.0000E+00  0.0000E+00  0.8000E+01
  -8.510  0.0000E+00  0.0000E+00  0.8000E+01
  -8.500  0.0000E+00  0.0000E+00  0.8000E+01
  -8.490  0.0000E+00  0.0000E+00  0.8000E+01
  -8.480  0.0000E+00  0.0000E+00  0.8000E+01
  -8.470  0.0000E+00  0.0000E+00  0.8000E+01
  -8.460  0.0000E+00  0.0000E+00  0.8000E+01
  -8.450  0.0000E+00  0.0000E+00  0.8000E+01
  -8.440  0.0000E+00  0.0000E+00  0.8000E+01
  -8.430  0.0000E+00  0.0000E+00  0.8000E+01
  -8.420  0.0000E+00  0.0000E+00  0.8000E+01
  -8.410  0.0000E+00  0.0000E+00  0.8000E+01
  -8.400  0.0000E+00  0.0000E+00  0.8000E+01
  -8.390  0.0000E+00  0.0000E+00  0.8000E+01
  -8.380  0.0000E+00  0.0000E+00  0.8000E+01
  -8.370  0.0000E+00  0.0000E+00  0.8000E+01
  -8.360  0.0000E+00  0.0000E+00  0.8000E+01
  -8.350  0.0000E+00  0.0000E+00  0.8000E+01
  -8.340  0.0000E+00  0.0000E+00  0.8000E+01
  -8.330  0.0000E+00  0.0000E+00  0.8000E+01
  -8.320  0.0000E+00  0.0000E+00  0.8000E+01
  -8.310  0.0000E+00  0.0000E+00  0.8000E+01
  -8.300  0.0000E+00  0.0000E+00  0.8000E+01
  -8.290  0.0000E+00  0.0000E+00  0.8000E+01
  -8.280  0.0000E+00  0.0000E+00  0.8000E+01
  -8.270  0.0000E+00  0.0000E+00  0.8000E+01
  -8.260  0.0000E+00  0.0000E+00  0.8000E+01
  -8.250  0.0000E+00  0.0000E+00  0.8000E+01
  -8.240  0.0000E+00  0.0000E+00  0.8000E+01
  -8.230  0.0000E+00  0.0000E+00  0.8000E+01
  -8.220  0.0000E+00  0.0000E+00  0.8000E+01
  -8.210  0.0000E+00  0.0000E+00  0.8000E+01
  -8.200  0.0000E+00  0.0000E+00  0.8000E+01
  -8.190  0.0000E+00  0.0000E+00  0.8000E+01
  -8.180  0.0000E+00  0.0000E+00  0.8000E+01
  -8.170  0.0000E+00  0.0000E+00  0.8000E+01
  -8.160  0.0000E+00  0.0000E+00  0.8000E+01
  -8.150  0.0000E+00  0.0000E+00  0.8000E+01
  -8.140  0.0000E+00  0.0000E+00  0.8000E+01
  -8.130  0.0000E+00  0.0000E+00  0.8000E+01
  -8.120  0.0000E+00  0.0000E+00  0.8000E+01
  -8.110  0.0000E+00  0.0000E+00  0.8000E+01
  -8.100  0.0000E+00  0.0000E+00  0.8000E+01
  -8.090  0.0000E+00  0.0000E+00  0.8000E+01
  -8.080  0.0000E+00  0.0000E+00  0.8000E+01
  -8.070  0.0000E+00  0.0000E+00  0.8000E+01
  -8.060  0.0000E+00  0.0000E+00  0.8000E+01
  -8.050  0.0000E+00  0.0000E+00  0.8000E+01
  -8.040  0.0000E+00  0.0000E+00  0.8000E+01
  -8.030  0.0000E+00  0.0000E+00  0.8000E+01
  -8.020  0.0000E+00  0.0000E+00  0.8000E+01
  -8.010  0.0000E+00  0.0000E+00  0.8000E+01
  -8.000  0.0000E+00  0.0000E+00  0.8000E+01
  -7.990  0.0000E+00  0.0000E+00  0.8000E+01
  -7.980  0.0000E+00  0.0000E+00  0.8000E+01
  -7.970  0.0000E+00  0.0000E+00  0.8000E+01
  -7.960  0.0000E+00  0.0000E+00  0.8000E+01
  -7.950  0.0000E+00  0.0000E+00  0.8000E+01
  -7.940  0.0000E+00  0.0000E+00  0.8000E+01
  -7.930  0.0000E+00  0.0000E+00  0.8000E+01
  -7.920  0.0000E+00  0.0000E+00  0.8000E+01
  -7.910  0.0000E+00  0.0000E+00  0.8000E+01
  -7.900  0.0000E+00  0.0000E+00  0.8000E+01
  -7.890  0.0000E+00  0.0000E+00  0.8000E+01
  -7.880  0.0000E+00  0.0000E+00  0.8000E+01
  -7.870  0.0000E+00  0.0000E+00  0.8000E+01
  -7.860  0.0000E+00  0.0000E+00  0.8000E+01
  -7.850  0.0000E+00  0.0000E+00  0.8000E+01
  -7.840  0.0000E+00  0.0000E+00  0.8000E+01
  -7.830  0.0000E+00  0.0000E+00  0.8000E+01
  -7.820  0.0000E+00  0.0000E+00  0.8000E+01
  -7.810  0.0000E+00  0.0000E+00  0.8000E+01
  -7.800  0.0000E+00  0.0000E+00  0.8000E+01
  -7.790  0.0000E+00  0.0000E+00  0.8000E+01
  -7.780  0.0000E+00  0.0000E+00  0.8000E+01
  -7.770  0.0000E+00  0.0000E+00  0.8000E+01
  -7.760  0.0000E+00  0.0000E+00  0.8000E+01
  -7.750  0.0000E+00  0.0000E+00  0.8000E+01
  -7.740  0.0000E+00  0.0000E+00  0.8000E+01
  -7.730  0.0000E+00  0.0000E+00  0.8000E+01
  -7.720  0.0000E+00  0.0000E+00  0.8000E+01
  -7.710  0.0000E+00  0.0000E+00  0.8000E+01
  -7.700  0.0000E+00  0.0000E+00  0.8000E+01
  -7.690  0.0000E+00  0.0000E+00  0.8000E+01
  -7.680  0.0000E+00  0.0000E+00  0.8000E+01
  -7.670  0.0000E+00  0.0000E+00  0.8000E+01
  -7.660  0.0000E+00  0.0000E+00  0.8000E+01
  -7.650  0.0000E+00  0.0000E+00  0.8000E+01
  -7.640  0.0000E+00  0.0000E+00  0.8000E+01
  -7.630  0.0000E+00  0.0000E+00  0.8000E+01
  -7.620  0.0000E+00  0.0000E+00  0.8000E+01
  -7.610  0.0000E+00  0.0000E+00  0.8000E+01
  -7.600  0.0000E+00  0.0000E+00  0.8000E+01
  -7.590  0.0000E+00  0.0000E+00  0.8000E+01
  -7.580  0.0000E+00  0.0000E+00  0.8000E+01
  -7.570  0.0000E+00  0.0000E+00  0.8000E+01
  -7.560  0.0000E+00  0.0000E+00  0.8000E+01
  -7.550  0.0000E+00  0.0000E+00  0.8000E+01
  -7.540  0.0000E+00  0.0000E+00  0.8000E+01
  -7.530  0.0000E+00  0.0000E+00  0.8000E+01
  -7.520  0.0000E+00  0.0000E+00  0.8000E+01
  -7.510  0.0000E+00  0.0000E+00  0.8000E+01
  -7.500  0.7153E-03  0.0000E+00  0.8000E+01
  -7.490  0.7898E-01  0.0000E+00  0.8000E+01
  -7.480  0.4769E+00  0.0000E+00  0.8003E+01
  -7.470  0.1228E+01  0.0000E+00  0.8011E+01
  -7.460  0.2142E+01  0.0000E+00  0.8028E+01
  -7.450  0.2807E+01  0.3206E-03  0.8053E+01
  -7.440  0.3304E+01  0.3046E-01  0.8084E+01
  -7.430  0.3710E+01  0.2808E+00  0.8120E+01
  -7.420  0.4149E+01  0.8414E+00  0.8165E+01
  -7.410  0.4557E+01  0.1652E+01  0.8220E+01
  -7.400  0.5329E+01  0.2304E+01  0.8289E+01
  -7.390  0.6555E+01  0.2679E+01  0.8374E+01
  -7.380  0.7616E+01  0.2859E+01  0.8472E+01
  -7.370  0.8047E+01  0.2938E+01  0.8580E+01
  -7.360  0.7635E+01  0.3080E+01  0.8689E+01
  -7.350  0.6942E+01  0.3210E+01  0.8794E+01
  -7.340  0.6806E+01  0.3460E+01  0.8895E+01
  -7.330  0.6806E+01  0.3904E+01  0.9001E+01
  -7.320  0.6260E+01  0.4432E+01  0.9107E+01
  -7.310  0.5377E+01  0.5005E+01  0.9213E+01
  -7.300  0.3825E+01  0.5682E+01  0.9313E+01
  -7.290  0.2809E+01  0.5972E+01  0.9404E+01
  -7.280  0.2576E+01  0.5802E+01  0.9490E+01
  -7.270  0.2608E+01  0.5334E+01  0.9571E+01
  -7.260  0.2973E+01  0.5056E+01  0.9650E+01
  -7.250  0.4059E+01  0.5248E+01  0.9735E+01
  -7.240  0.5475E+01  0.6031E+01  0.9839E+01
  -7.230  0.6793E+01  0.6851E+01  0.9965E+01
  -7.220  0.7322E+01  0.7803E+01  0.1011E+02
  -7.210  0.7770E+01  0.8600E+01  0.1027E+02
  -7.200  0.8184E+01  0.8556E+01  0.1043E+02
  -7.190  0.8568E+01  0.8304E+01  0.1060E+02
  -7.180  0.8951E+01  0.7898E+01  0.1077E+02
  -7.170  0.9458E+01  0.7540E+01  0.1094E+02
  -7.160  0.8832E+01  0.7323E+01  0.1111E+02
  -7.150  0.1231E+02  0.7269E+01  0.1131E+02
  -7.140  0.5514E+01  0.7345E+01  0.1145E+02
  -7.130  0.6516E+01  0.7426E+01  0.1159E+02
  -7.120  0.7742E+01  0.7585E+01  0.1173E+02
  -7.110  0.9774E+01  0.7977E+01  0.1190E+02
  -7.100  0.1352E+02  0.8424E+01  0.1209E+02
  -7.090  0.1784E+02  0.1053E+02  0.1234E+02
  -7.080  0.2033E+02  0.1191E+02  0.1265E+02
  -7.070  0.1379E+02  0.1184E+02  0.1297E+02
  -7.060  0.8868E+01  0.1076E+02  0.1317E+02
  -7.050  0.8776E+01  0.1146E+02  0.1337E+02
  -7.040  0.8781E+01  0.1210E+02  0.1358E+02
  -7.030  0.9075E+01  0.1235E+02  0.1379E+02
  -7.020  0.9672E+01  0.1251E+02  0.1401E+02
  -7.010  0.1041E+02  0.1265E+02  0.1423E+02
  -7.000  0.1216E+02  0.1209E+02  0.1447E+02
  -6.990  0.1112E+02  0.1101E+02  0.1471E+02
  -6.980  0.1121E+02  0.9844E+01  0.1492E+02
  -6.970  0.1213E+02  0.8067E+01  0.1513E+02
  -6.960  0.1332E+02  0.1032E+02  0.1535E+02
  -6.950  0.1465E+02  0.1208E+02  0.1560E+02
  -6.940  0.1791E+02  0.1260E+02  0.1588E+02
  -6.930  0.2213E+02  0.1201E+02  0.1621E+02
  -6.920  0.3084E+02  0.1246E+02  0.1657E+02
  -6.910  0.2419E+02  0.1298E+02  0.1695E+02
  -6.900  0.2504E+02  0.1337E+02  0.1733E+02
  -6.890  0.2145E+02  0.1385E+02  0.1769E+02
  -6.880  0.2174E+02  0.1588E+02  0.1806E+02
  -6.870  0.3778E+02  0.1949E+02  0.1853E+02
  -6.860  0.1513E+02  0.2370E+02  0.1896E+02
  -6.850  0.1092E+02  0.2565E+02  0.1934E+02
  -6.840  0.9767E+01  0.2655E+02  0.1973E+02
  -6.830  0.1130E+02  0.2446E+02  0.2008E+02
  -6.820  0.1386E+02  0.2257E+02  0.2044E+02
  -6.810  0.1726E+02  0.2042E+02  0.2081E+02
  -6.800  0.2423E+02  0.1778E+02  0.2120E+02
  -6.790  0.4125E+02  0.1511E+02  0.2172E+02
  -6.780  0.2287E+02  0.1374E+02  0.2217E+02
  -6.770  0.1482E+02  0.1667E+02  0.2250E+02
  -6.760  0.1096E+02  0.2017E+02  0.2282E+02
  -6.750  0.1490E+02  0.2022E+02  0.2314E+02
  -6.740  0.1912E+02  0.1799E+02  0.2351E+02
  -6.730  0.2981E+02  0.1619E+02  0.2391E+02
  -6.720  0.5251E+02  0.1482E+02  0.2452E+02
  -6.710  0.3828E+02  0.1399E+02  0.2514E+02
  -6.700  0.2703E+02  0.1391E+02  0.2556E+02
  -6.690  0.3732E+02  0.2379E+02  0.2609E+02
  -6.680  0.3476E+02  0.2620E+02  0.2674E+02
  -6.670  0.2371E+02  0.2833E+02  0.2731E+02
  -6.660  0.2250E+02  0.3496E+02  0.2784E+02
  -6.650  0.2756E+02  0.3316E+02  0.2840E+02
  -6.640  0.2964E+02  0.3788E+02  0.2901E+02
  -6.630  0.3187E+02  0.3577E+02  0.2976E+02
  -6.620  0.3761E+02  0.3222E+02  0.3047E+02
  -6.610  0.3615E+02  0.3047E+02  0.3119E+02
  -6.600  0.3919E+02  0.3580E+02  0.3190E+02
  -6.590  0.3379E+02  0.4571E+02  0.3267E+02
  -6.580  0.3483E+02  0.4833E+02  0.3348E+02
  -6.570  0.3681E+02  0.4781E+02  0.3433E+02
  -6.560  0.3831E+02  0.3619E+02  0.3511E+02
  -6.550  0.4043E+02  0.3672E+02  0.3587E+02
  -6.540  0.4123E+02  0.4218E+02  0.3666E+02
  -6.530  0.4148E+02  0.4204E+02  0.3751E+02
  -6.520  0.4477E+02  0.4352E+02  0.3836E+02
  -6.510  0.5329E+02  0.4793E+02  0.3932E+02
  -6.500  0.5086E+02  0.5187E+02  0.4035E+02
  -6.490  0.5225E+02  0.5162E+02  0.4139E+02
  -6.480  0.4625E+02  0.4866E+02  0.4241E+02
  -6.470  0.5429E+02  0.5282E+02  0.4345E+02
  -6.460  0.5264E+02  0.5919E+02  0.4455E+02
  -6.450  0.4849E+02  0.8239E+02  0.4569E+02
  -6.440  0.5040E+02  0.6975E+02  0.4700E+02
  -6.430  0.5652E+02  0.5541E+02  0.4815E+02
  -6.420  0.6748E+02  0.4950E+02  0.4928E+02
  -6.410  0.7822E+02  0.4574E+02  0.5051E+02
  -6.400  0.7240E+02  0.4301E+02  0.5162E+02
  -6.390  0.5343E+02  0.7177E+02  0.5286E+02
  -6.380  0.4275E+02  0.8871E+02  0.5410E+02
  -6.370  0.5155E+02  0.6575E+02  0.5535E+02
  -6.360  0.6359E+02  0.5859E+02  0.5653E+02
  -6.350  0.7659E+02  0.4567E+02  0.5780E+02
  -6.340  0.5257E+02  0.4917E+02  0.5884E+02
  -6.330  0.5706E+02  0.5957E+02  0.5993E+02
  -6.320  0.6162E+02  0.5384E+02  0.6117E+02
  -6.310  0.5744E+02  0.5919E+02  0.6228E+02
  -6.300  0.7050E+02  0.7180E+02  0.6363E+02
  -6.290  0.7409E+02  0.8602E+02  0.6514E+02
  -6.280  0.7501E+02  0.8693E+02  0.6680E+02
  -6.270  0.5606E+02  0.8533E+02  0.6829E+02
  -6.260  0.4294E+02  0.7424E+02  0.6960E+02
  -6.250  0.2886E+02  0.5667E+02  0.7063E+02
  -6.240  0.1747E+02  0.4020E+02  0.7143E+02
  -6.230  0.0000E+00  0.4045E+02  0.7179E+02
  -6.220  0.0000E+00  0.6690E-01  0.7200E+02
  -6.210  0.0000E+00  0.0000E+00  0.7200E+02
  -6.200  0.0000E+00  0.0000E+00  0.7200E+02
  -6.190  0.0000E+00  0.0000E+00  0.7200E+02
  -6.180  0.0000E+00  0.0000E+00  0.7200E+02
  -6.170  0.0000E+00  0.0000E+00  0.7200E+02
  -6.160  0.0000E+00  0.0000E+00  0.7200E+02
  -6.150  0.0000E+00  0.0000E+00  0.7200E+02
  -6.140  0.0000E+00  0.0000E+00  0.7200E+02
  -6.130  0.0000E+00  0.0000E+00  0.7200E+02
  -6.120  0.0000E+00  0.0000E+00  0.7200E+02
  -6.110  0.0000E+00  0.0000E+00  0.7200E+02
  -6.100  0.0000E+00  0.0000E+00  0.7200E+02
  -6.090  0.0000E+00  0.0000E+00  0.7200E+02
  -6.080  0.0000E+00  0.0000E+00  0.7200E+02
  -6.070  0.0000E+00  0.0000E+00  0.7200E+02
  -6.060  0.0000E+00  0.0000E+00  0.7200E+02
  -6.050  0.0000E+00  0.0000E+00  0.7200E+02
  -6.040  0.0000E+00  0.0000E+00  0.7200E+02
  -6.030  0.0000E+00  0.0000E+00  0.7200E+02
  -6.020  0.0000E+00  0.0000E+00  0.7200E+02
  -6.010  0.0000E+00  0.0000E+00  0.7200E+02
  -6.000  0.0000E+00  0.0000E+00  0.7200E+02
  -5.990  0.0000E+00  0.0000E+00  0.7200E+02
  -5.980  0.0000E+00  0.0000E+00  0.7200E+02
  -5.970  0.0000E+00  0.0000E+00  0.7200E+02
  -5.960  0.0000E+00  0.0000E+00  0.7200E+02
  -5.950  0.0000E+00  0.0000E+00  0.7200E+02
  -5.940  0.0000E+00  0.0000E+00  0.7200E+02
  -5.930  0.0000E+00  0.0000E+00  0.7200E+02
  -5.920  0.0000E+00  0.0000E+00  0.7200E+02
  -5.910  0.0000E+00  0.0000E+00  0.7200E+02
  -5.900  0.0000E+00  0.0000E+00  0.7200E+02
  -5.890  0.0000E+00  0.0000E+00  0.7200E+02
  -5.880  0.0000E+00  0.0000E+00  0.7200E+02
  -5.870  0.0000E+00  0.0000E+00  0.7200E+02
  -5.860  0.0000E+00  0.0000E+00  0.7200E+02
  -5.850  0.0000E+00  0.0000E+00  0.7200E+02
  -5.840  0.0000E+00  0.0000E+00  0.7200E+02
  -5.830  0.0000E+00  0.0000E+00  0.7200E+02
  -5.820  0.0000E+00  0.0000E+00  0.7200E+02
  -5.810  0.0000E+00  0.0000E+00  0.7200E+02
  -5.800  0.0000E+00  0.0000E+00  0.7200E+02
  -5.790  0.0000E+00  0.0000E+00  0.7200E+02
  -5.780  0.0000E+00  0.0000E+00  0.7200E+02
  -5.770  0.0000E+00  0.0000E+00  0.7200E+02
  -5.760  0.0000E+00  0.0000E+00  0.7200E+02
  -5.750  0.0000E+00  0.0000E+00  0.7200E+02
  -5.740  0.0000E+00  0.0000E+00  0.7200E+02
  -5.730  0.0000E+00  0.0000E+00  0.7200E+02
  -5.720  0.0000E+00  0.0000E+00  0.7200E+02
  -5.710  0.0000E+00  0.0000E+00  0.7200E+02
  -5.700  0.0000E+00  0.0000E+00  0.7200E+02
  -5.690  0.0000E+00  0.0000E+00  0.7200E+02
  -5.680  0.0000E+00  0.0000E+00  0.7200E+02
  -5.670  0.0000E+00  0.0000E+00  0.7200E+02
  -5.660  0.0000E+00  0.0000E+00  0.7200E+02
  -5.650  0.0000E+00  0.0000E+00  0.7200E+02
  -5.640  0.0000E+00  0.0000E+00  0.7200E+02
  -5.630  0.0000E+00  0.0000E+00  0.7200E+02
  -5.620  0.0000E+00  0.0000E+00  0.7200E+02
  -5.610  0.0000E+00  0.0000E+00  0.7200E+02
  -5.600  0.0000E+00  0.0000E+00  0.7200E+02
  -5.590  0.0000E+00  0.0000E+00  0.7200E+02
  -5.580  0.0000E+00  0.0000E+00  0.7200E+02
  -5.570  0.0000E+00  0.0000E+00  0.7200E+02
  -5.560  0.0000E+00  0.0000E+00  0.7200E+02
  -5.550  0.0000E+00  0.0000E+00  0.7200E+02
  -5.540  0.0000E+00  0.0000E+00  0.7200E+02
  -5.530  0.0000E+00  0.0000E+00  0.7200E+02
  -5.520  0.0000E+00  0.0000E+00  0.7200E+02
  -5.510  0.0000E+00  0.0000E+00  0.7200E+02
  -5.500  0.0000E+00  0.0000E+00  0.7200E+02
  -5.490  0.0000E+00  0.0000E+00  0.7200E+02
  -5.480  0.0000E+00  0.0000E+00  0.7200E+02
  -5.470  0.0000E+00  0.0000E+00  0.7200E+02
  -5.460  0.0000E+00  0.0000E+00  0.7200E+02
  -5.450  0.0000E+00  0.0000E+00  0.7200E+02
  -5.440  0.0000E+00  0.0000E+00  0.7200E+02
  -5.430  0.0000E+00  0.0000E+00  0.7200E+02
  -5.420  0.0000E+00  0.0000E+00  0.7200E+02
  -5.410  0.0000E+00  0.0000E+00  0.7200E+02
  -5.400  0.0000E+00  0.0000E+00  0.7200E+02
  -5.390  0.0000E+00  0.0000E+00  0.7200E+02
  -5.380  0.0000E+00  0.0000E+00  0.7200E+02
  -5.370  0.0000E+00  0.0000E+00  0.7200E+02
  -5.360  0.0000E+00  0.0000E+00  0.7200E+02
  -5.350  0.0000E+00  0.0000E+00  0.7200E+02
  -5.340  0.0000E+00  0.0000E+00  0.7200E+02
  -5.330  0.0000E+00  0.0000E+00  0.7200E+02
  -5.320  0.0000E+00  0.0000E+00  0.7200E+02
  -5.310  0.0000E+00  0.0000E+00  0.7200E+02
  -5.300  0.0000E+00  0.0000E+00  0.7200E+02
  -5.290  0.0000E+00  0.0000E+00  0.7200E+02
  -5.280  0.0000E+00  0.0000E+00  0.7200E+02
  -5.270  0.0000E+00  0.0000E+00  0.7200E+02
  -5.260  0.0000E+00  0.0000E+00  0.7200E+02
  -5.250  0.0000E+00  0.0000E+00  0.7200E+02
  -5.240  0.0000E+00  0.0000E+00  0.7200E+02
  -5.230  0.0000E+00  0.0000E+00  0.7200E+02
  -5.220  0.0000E+00  0.0000E+00  0.7200E+02
  -5.210  0.0000E+00  0.0000E+00  0.7200E+02
  -5.200  0.0000E+00  0.0000E+00  0.7200E+02
  -5.190  0.0000E+00  0.0000E+00  0.7200E+02
  -5.180  0.0000E+00  0.0000E+00  0.7200E+02
  -5.170  0.0000E+00  0.0000E+00  0.7200E+02
  -5.160  0.0000E+00  0.0000E+00  0.7200E+02
  -5.150  0.0000E+00  0.0000E+00  0.7200E+02
  -5.140  0.0000E+00  0.0000E+00  0.7200E+02
  -5.130  0.0000E+00  0.0000E+00  0.7200E+02
  -5.120  0.0000E+00  0.0000E+00  0.7200E+02
  -5.110  0.0000E+00  0.0000E+00  0.7200E+02
  -5.100  0.0000E+00  0.0000E+00  0.7200E+02
  -5.090  0.0000E+00  0.0000E+00  0.7200E+02
  -5.080  0.0000E+00  0.0000E+00  0.7200E+02
  -5.070  0.0000E+00  0.0000E+00  0.7200E+02
  -5.060  0.0000E+00  0.0000E+00  0.7200E+02
  -5.050  0.0000E+00  0.0000E+00  0.7200E+02
  -5.040  0.0000E+00  0.0000E+00  0.7200E+02
  -5.030  0.0000E+00  0.0000E+00  0.7200E+02
  -5.020  0.0000E+00  0.0000E+00  0.7200E+02
  -5.010  0.0000E+00  0.0000E+00  0.7200E+02
  -5.000  0.0000E+00  0.0000E+00  0.7200E+02
  -4.990  0.0000E+00  0.0000E+00  0.7200E+02
  -4.980  0.0000E+00  0.0000E+00  0.7200E+02
  -4.970  0.0000E+00  0.0000E+00  0.7200E+02
  -4.960  0.0000E+00  0.0000E+00  0.7200E+02
  -4.950  0.0000E+00  0.0000E+00  0.7200E+02
  -4.940  0.0000E+00  0.0000E+00  0.7200E+02
  -4.930  0.0000E+00  0.0000E+00  0.7200E+02
  -4.920  0.0000E+00  0.0000E+00  0.7200E+02
  -4.910  0.0000E+00  0.0000E+00  0.7200E+02
  -4.900  0.0000E+00  0.0000E+00  0.7200E+02
  -4.890  0.0000E+00  0.0000E+00  0.7200E+02
  -4.880  0.0000E+00  0.0000E+00  0.7200E+02
  -4.870  0.0000E+00  0.0000E+00  0.7200E+02
  -4.860  0.0000E+00  0.0000E+00  0.7200E+02
  -4.850  0.0000E+00  0.0000E+00  0.7200E+02
  -4.840  0.0000E+00  0.0000E+00  0.7200E+02
  -4.830  0.0000E+00  0.0000E+00  0.7200E+02
  -4.820  0.0000E+00  0.0000E+00  0.7200E+02
  -4.810  0.0000E+00  0.0000E+00  0.7200E+02
  -4.800  0.0000E+00  0.0000E+00  0.7200E+02
  -4.790  0.0000E+00  0.0000E+00  0.7200E+02
  -4.780  0.0000E+00  0.0000E+00  0.7200E+02
  -4.770  0.0000E+00  0.0000E+00  0.7200E+02
  -4.760  0.0000E+00  0.0000E+00  0.7200E+02
  -4.750  0.0000E+00  0.0000E+00  0.7200E+02
  -4.740  0.0000E+00  0.0000E+00  0.7200E+02
  -4.730  0.0000E+00  0.0000E+00  0.7200E+02
  -4.720  0.0000E+00  0.0000E+00  0.7200E+02
  -4.710  0.0000E+00  0.0000E+00  0.7200E+02
  -4.700  0.0000E+00  0.0000E+00  0.7200E+02
  -4.690  0.0000E+00  0.0000E+00  0.7200E+02
  -4.680  0.0000E+00  0.0000E+00  0.7200E+02
  -4.670  0.0000E+00  0.0000E+00  0.7200E+02
  -4.660  0.0000E+00  0.0000E+00  0.7200E+02
  -4.650  0.0000E+00  0.0000E+00  0.7200E+02
  -4.640  0.0000E+00  0.0000E+00  0.7200E+02
  -4.630  0.0000E+00  0.0000E+00  0.7200E+02
  -4.620  0.0000E+00  0.0000E+00  0.7200E+02
  -4.610  0.0000E+00  0.0000E+00  0.7200E+02
  -4.600  0.0000E+00  0.0000E+00  0.7200E+02
  -4.590  0.0000E+00  0.0000E+00  0.7200E+02
  -4.580  0.0000E+00  0.0000E+00  0.7200E+02
  -4.570  0.0000E+00  0.0000E+00  0.7200E+02
  -4.560  0.0000E+00  0.0000E+00  0.7200E+02
  -4.550  0.0000E+00  0.0000E+00  0.7200E+02
  -4.540  0.0000E+00  0.0000E+00  0.7200E+02
  -4.530  0.0000E+00  0.0000E+00  0.7200E+02
  -4.520  0.0000E+00  0.0000E+00  0.7200E+02
  -4.510  0.0000E+00  0.0000E+00  0.7200E+02
  -4.500  0.0000E+00  0.0000E+00  0.7200E+02
  -4.490  0.0000E+00  0.0000E+00  0.7200E+02
  -4.480  0.0000E+00  0.0000E+00  0.7200E+02
  -4.470  0.0000E+00  0.0000E+00  0.7200E+02
  -4.460  0.0000E+00  0.0000E+00  0.7200E+02
  -4.450  0.0000E+00  0.0000E+00  0.7200E+02
  -4.440  0.0000E+00  0.0000E+00  0.7200E+02
  -4.430  0.0000E+00  0.0000E+00  0.7200E+02
  -4.420  0.0000E+00  0.0000E+00  0.7200E+02
  -4.410  0.0000E+00  0.0000E+00  0.7200E+02
  -4.400  0.0000E+00  0.0000E+00  0.7200E+02
  -4.390  0.0000E+00  0.0000E+00  0.7200E+02
  -4.380  0.0000E+00  0.0000E+00  0.7200E+02
  -4.370  0.0000E+00  0.0000E+00  0.7200E+02
  -4.360  0.0000E+00  0.0000E+00  0.7200E+02
  -4.350  0.0000E+00  0.0000E+00  0.7200E+02
  -4.340  0.0000E+00  0.0000E+00  0.7200E+02
  -4.330  0.0000E+00  0.0000E+00  0.7200E+02
  -4.320  0.0000E+00  0.0000E+00  0.7200E+02
  -4.310  0.0000E+00  0.0000E+00  0.7200E+02
  -4.300  0.0000E+00  0.0000E+00  0.7200E+02
  -4.290  0.0000E+00  0.0000E+00  0.7200E+02
  -4.280  0.0000E+00  0.0000E+00  0.7200E+02
  -4.270  0.0000E+00  0.0000E+00  0.7200E+02
  -4.260  0.0000E+00  0.0000E+00  0.7200E+02
  -4.250  0.0000E+00  0.0000E+00  0.7200E+02
  -4.240  0.0000E+00  0.0000E+00  0.7200E+02
  -4.230  0.0000E+00  0.0000E+00  0.7200E+02
  -4.220  0.0000E+00  0.0000E+00  0.7200E+02
  -4.210  0.0000E+00  0.0000E+00  0.7200E+02
  -4.200  0.0000E+00  0.0000E+00  0.7200E+02
  -4.190  0.0000E+00  0.0000E+00  0.7200E+02
  -4.180  0.0000E+00  0.0000E+00  0.7200E+02
  -4.170  0.0000E+00  0.0000E+00  0.7200E+02
  -4.160  0.0000E+00  0.0000E+00  0.7200E+02
  -4.150  0.0000E+00  0.0000E+00  0.7200E+02
  -4.140  0.0000E+00  0.0000E+00  0.7200E+02
  -4.130  0.0000E+00  0.0000E+00  0.7200E+02
  -4.120  0.0000E+00  0.0000E+00  0.7200E+02
  -4.110  0.0000E+00  0.0000E+00  0.7200E+02
  -4.100  0.0000E+00  0.0000E+00  0.7200E+02
  -4.090  0.0000E+00  0.0000E+00  0.7200E+02
  -4.080  0.0000E+00  0.0000E+00  0.7200E+02
  -4.070  0.0000E+00  0.0000E+00  0.7200E+02
  -4.060  0.0000E+00  0.0000E+00  0.7200E+02
  -4.050  0.0000E+00  0.0000E+00  0.7200E+02
  -4.040  0.0000E+00  0.0000E+00  0.7200E+02
  -4.030  0.0000E+00  0.0000E+00  0.7200E+02
  -4.020  0.0000E+00  0.0000E+00  0.7200E+02
  -4.010  0.0000E+00  0.0000E+00  0.7200E+02
  -4.000  0.0000E+00  0.0000E+00  0.7200E+02
  -3.990  0.0000E+00  0.0000E+00  0.7200E+02
  -3.980  0.0000E+00  0.0000E+00  0.7200E+02
  -3.970  0.0000E+00  0.0000E+00  0.7200E+02
  -3.960  0.0000E+00  0.0000E+00  0.7200E+02
  -3.950  0.0000E+00  0.0000E+00  0.7200E+02
  -3.940  0.0000E+00  0.0000E+00  0.7200E+02
  -3.930  0.0000E+00  0.0000E+00  0.7200E+02
  -3.920  0.0000E+00  0.0000E+00  0.7200E+02
  -3.910  0.0000E+00  0.0000E+00  0.7200E+02
  -3.900  0.0000E+00  0.0000E+00  0.7200E+02
  -3.890  0.0000E+00  0.0000E+00  0.7200E+02
  -3.880  0.0000E+00  0.0000E+00  0.7200E+02
  -3.870  0.0000E+00  0.0000E+00  0.7200E+02
  -3.860  0.0000E+00  0.0000E+00  0.7200E+02
  -3.850  0.0000E+00  0.0000E+00  0.7200E+02
  -3.840  0.0000E+00  0.0000E+00  0.7200E+02
  -3.830  0.0000E+00  0.0000E+00  0.7200E+02
  -3.820  0.0000E+00  0.0000E+00  0.7200E+02
  -3.810  0.0000E+00  0.0000E+00  0.7200E+02
  -3.800  0.0000E+00  0.0000E+00  0.7200E+02
  -3.790  0.0000E+00  0.0000E+00  0.7200E+02
  -3.780  0.0000E+00  0.0000E+00  0.7200E+02
  -3.770  0.0000E+00  0.0000E+00  0.7200E+02
  -3.760  0.0000E+00  0.0000E+00  0.7200E+02
  -3.750  0.0000E+00  0.0000E+00  0.7200E+02
  -3.740  0.0000E+00  0.0000E+00  0.7200E+02
  -3.730  0.0000E+00  0.0000E+00  0.7200E+02
  -3.720  0.0000E+00  0.0000E+00  0.7200E+02
  -3.710  0.0000E+00  0.0000E+00  0.7200E+02
  -3.700  0.0000E+00  0.0000E+00  0.7200E+02
  -3.690  0.0000E+00  0.0000E+00  0.7200E+02
  -3.680  0.0000E+00  0.0000E+00  0.7200E+02
  -3.670  0.0000E+00  0.0000E+00  0.7200E+02
  -3.660  0.0000E+00  0.0000E+00  0.7200E+02
  -3.650  0.0000E+00  0.0000E+00  0.7200E+02
  -3.640  0.0000E+00  0.0000E+00  0.7200E+02
  -3.630  0.0000E+00  0.0000E+00  0.7200E+02
  -3.620  0.0000E+00  0.0000E+00  0.7200E+02
  -3.610  0.0000E+00  0.0000E+00  0.7200E+02
  -3.600  0.0000E+00  0.0000E+00  0.7200E+02
  -3.590  0.0000E+00  0.0000E+00  0.7200E+02
  -3.580  0.0000E+00  0.0000E+00  0.7200E+02
  -3.570  0.0000E+00  0.0000E+00  0.7200E+02
  -3.560  0.0000E+00  0.0000E+00  0.7200E+02
  -3.550  0.0000E+00  0.0000E+00  0.7200E+02
  -3.540  0.0000E+00  0.0000E+00  0.7200E+02
  -3.530  0.0000E+00  0.0000E+00  0.7200E+02
  -3.520  0.0000E+00  0.0000E+00  0.7200E+02
  -3.510  0.0000E+00  0.0000E+00  0.7200E+02
  -3.500  0.0000E+00  0.0000E+00  0.7200E+02
  -3.490  0.0000E+00  0.0000E+00  0.7200E+02
  -3.480  0.0000E+00  0.0000E+00  0.7200E+02
  -3.470  0.0000E+00  0.0000E+00  0.7200E+02
  -3.460  0.0000E+00  0.0000E+00  0.7200E+02
  -3.450  0.0000E+00  0.0000E+00  0.7200E+02
  -3.440  0.0000E+00  0.0000E+00  0.7200E+02
  -3.430  0.0000E+00  0.0000E+00  0.7200E+02
  -3.420  0.0000E+00  0.0000E+00  0.7200E+02
  -3.410  0.0000E+00  0.0000E+00  0.7200E+02
  -3.400  0.0000E+00  0.0000E+00  0.7200E+02
  -3.390  0.0000E+00  0.0000E+00  0.7200E+02
  -3.380  0.0000E+00  0.0000E+00  0.7200E+02
  -3.370  0.0000E+00  0.0000E+00  0.7200E+02
  -3.360  0.0000E+00  0.0000E+00  0.7200E+02
  -3.350  0.0000E+00  0.0000E+00  0.7200E+02
  -3.340  0.0000E+00  0.0000E+00  0.7200E+02
  -3.330  0.0000E+00  0.0000E+00  0.7200E+02
  -3.320  0.0000E+00  0.0000E+00  0.7200E+02
  -3.310  0.0000E+00  0.0000E+00  0.7200E+02
  -3.300  0.0000E+00  0.0000E+00  0.7200E+02
  -3.290  0.0000E+00  0.0000E+00  0.7200E+02
  -3.280  0.0000E+00  0.0000E+00  0.7200E+02
  -3.270  0.0000E+00  0.0000E+00  0.7200E+02
  -3.260  0.0000E+00  0.0000E+00  0.7200E+02
  -3.250  0.0000E+00  0.0000E+00  0.7200E+02
  -3.240  0.0000E+00  0.0000E+00  0.7200E+02
  -3.230  0.0000E+00  0.0000E+00  0.7200E+02
  -3.220  0.0000E+00  0.0000E+00  0.7200E+02
  -3.210  0.0000E+00  0.0000E+00  0.7200E+02
  -3.200  0.0000E+00  0.0000E+00  0.7200E+02
  -3.190  0.0000E+00  0.0000E+00  0.7200E+02
  -3.180  0.0000E+00  0.0000E+00  0.7200E+02
  -3.170  0.0000E+00  0.0000E+00  0.7200E+02
  -3.160  0.0000E+00  0.0000E+00  0.7200E+02
  -3.150  0.0000E+00  0.0000E+00  0.7200E+02
  -3.140  0.0000E+00  0.0000E+00  0.7200E+02
  -3.130  0.0000E+00  0.0000E+00  0.7200E+02
  -3.120  0.0000E+00  0.0000E+00  0.7200E+02
  -3.110  0.0000E+00  0.0000E+00  0.7200E+02
  -3.100  0.0000E+00  0.0000E+00  0.7200E+02
  -3.090  0.0000E+00  0.0000E+00  0.7200E+02
  -3.080  0.0000E+00  0.0000E+00  0.7200E+02
  -3.070  0.0000E+00  0.0000E+00  0.7200E+02
  -3.060  0.0000E+00  0.0000E+00  0.7200E+02
  -3.050  0.0000E+00  0.0000E+00  0.7200E+02
  -3.040  0.0000E+00  0.0000E+00  0.7200E+02
  -3.030  0.0000E+00  0.0000E+00  0.7200E+02
  -3.020  0.0000E+00  0.0000E+00  0.7200E+02
  -3.010  0.0000E+00  0.0000E+00  0.7200E+02
  -3.000  0.0000E+00  0.0000E+00  0.7200E+02
  -2.990  0.0000E+00  0.0000E+00  0.7200E+02
  -2.980  0.0000E+00  0.0000E+00  0.7200E+02
  -2.970  0.0000E+00  0.0000E+00  0.7200E+02
  -2.960  0.0000E+00  0.0000E+00  0.7200E+02
  -2.950  0.0000E+00  0.0000E+00  0.7200E+02
  -2.940  0.0000E+00  0.0000E+00  0.7200E+02
  -2.930  0.0000E+00  0.0000E+00  0.7200E+02
  -2.920  0.0000E+00  0.0000E+00  0.7200E+02
  -2.910  0.0000E+00  0.0000E+00  0.7200E+02
  -2.900  0.0000E+00  0.0000E+00  0.7200E+02
  -2.890  0.0000E+00  0.0000E+00  0.7200E+02
  -2.880  0.0000E+00  0.0000E+00  0.7200E+02
  -2.870  0.0000E+00  0.0000E+00  0.7200E+02
  -2.860  0.0000E+00  0.0000E+00  0.7200E+02
  -2.850  0.0000E+00  0.0000E+00  0.7200E+02
  -2.840  0.0000E+00  0.0000E+00  0.7200E+02
  -2.830  0.0000E+00  0.0000E+00  0.7200E+02
  -2.820  0.0000E+00  0.0000E+00  0.7200E+02
  -2.810  0.0000E+00  0.0000E+00  0.7200E+02
  -2.800  0.0000E+00  0.0000E+00  0.7200E+02
  -2.790  0.0000E+00  0.0000E+00  0.7200E+02
  -2.780  0.0000E+00  0.0000E+00  0.7200E+02
  -2.770  0.0000E+00  0.0000E+00  0.7200E+02
  -2.760  0.0000E+00  0.0000E+00  0.7200E+02
  -2.750  0.0000E+00  0.0000E+00  0.7200E+02
  -2.740  0.0000E+00  0.0000E+00  0.7200E+02
  -2.730  0.0000E+00  0.0000E+00  0.7200E+02
  -2.720  0.0000E+00  0.0000E+00  0.7200E+02
  -2.710  0.0000E+00  0.0000E+00  0.7200E+02
  -2.700  0.0000E+00  0.0000E+00  0.7200E+02
  -2.690  0.0000E+00  0.0000E+00  0.7200E+02
  -2.680  0.0000E+00  0.0000E+00  0.7200E+02
  -2.670  0.0000E+00  0.0000E+00  0.7200E+02
  -2.660  0.0000E+00  0.0000E+00  0.7200E+02
  -2.650  0.0000E+00  0.0000E+00  0.7200E+02
  -2.640  0.0000E+00  0.0000E+00  0.7200E+02
  -2.630  0.0000E+00  0.0000E+00  0.7200E+02
  -2.620  0.0000E+00  0.0000E+00  0.7200E+02
  -2.610  0.0000E+00  0.0000E+00  0.7200E+02
  -2.600  0.0000E+00  0.0000E+00  0.7200E+02
  -2.590  0.0000E+00  0.0000E+00  0.7200E+02
  -2.580  0.0000E+00  0.0000E+00  0.7200E+02
  -2.570  0.0000E+00  0.0000E+00  0.7200E+02
  -2.560  0.0000E+00  0.0000E+00  0.7200E+02
  -2.550  0.0000E+00  0.0000E+00  0.7200E+02
  -2.540  0.0000E+00  0.0000E+00  0.7200E+02
  -2.530  0.0000E+00  0.0000E+00  0.7200E+02
  -2.520  0.0000E+00  0.0000E+00  0.7200E+02
  -2.510  0.0000E+00  0.0000E+00  0.7200E+02
  -2.500  0.0000E+00  0.0000E+00  0.7200E+02
  -2.490  0.0000E+00  0.0000E+00  0.7200E+02
  -2.480  0.0000E+00  0.0000E+00  0.7200E+02
  -2.470  0.0000E+00  0.0000E+00  0.7200E+02
  -2.460  0.0000E+00  0.0000E+00  0.7200E+02
  -2.450  0.0000E+00  0.0000E+00  0.7200E+02
  -2.440  0.0000E+00  0.0000E+00  0.7200E+02
  -2.430  0.0000E+00  0.0000E+00  0.7200E+02
  -2.420  0.0000E+00  0.0000E+00  0.7200E+02
  -2.410  0.0000E+00  0.0000E+00  0.7200E+02
  -2.400  0.0000E+00  0.0000E+00  0.7200E+02
  -2.390  0.0000E+00  0.0000E+00  0.7200E+02
  -2.380  0.0000E+00  0.0000E+00  0.7200E+02
  -2.370  0.0000E+00  0.0000E+00  0.7200E+02
  -2.360  0.0000E+00  0.0000E+00  0.7200E+02
  -2.350  0.0000E+00  0.0000E+00  0.7200E+02
  -2.340  0.0000E+00  0.0000E+00  0.7200E+02
  -2.330  0.0000E+00  0.0000E+00  0.7200E+02
  -2.320  0.0000E+00  0.0000E+00  0.7200E+02
  -2.310  0.0000E+00  0.0000E+00  0.7200E+02
  -2.300  0.0000E+00  0.0000E+00  0.7200E+02
  -2.290  0.0000E+00  0.0000E+00  0.7200E+02
  -2.280  0.0000E+00  0.0000E+00  0.7200E+02
  -2.270  0.0000E+00  0.0000E+00  0.7200E+02
  -2.260  0.0000E+00  0.0000E+00  0.7200E+02
  -2.250  0.0000E+00  0.0000E+00  0.7200E+02
  -2.240  0.0000E+00  0.0000E+00  0.7200E+02
  -2.230  0.0000E+00  0.0000E+00  0.7200E+02
  -2.220  0.0000E+00  0.0000E+00  0.7200E+02
  -2.210  0.0000E+00  0.0000E+00  0.7200E+02
  -2.200  0.0000E+00  0.0000E+00  0.7200E+02
  -2.190  0.0000E+00  0.0000E+00  0.7200E+02
  -2.180  0.0000E+00  0.0000E+00  0.7200E+02
  -2.170  0.0000E+00  0.0000E+00  0.7200E+02
  -2.160  0.0000E+00  0.0000E+00  0.7200E+02
  -2.150  0.0000E+00  0.0000E+00  0.7200E+02
  -2.140  0.0000E+00  0.0000E+00  0.7200E+02
  -2.130  0.0000E+00  0.0000E+00  0.7200E+02
  -2.120  0.0000E+00  0.0000E+00  0.7200E+02
  -2.110  0.0000E+00  0.0000E+00  0.7200E+02
  -2.100  0.0000E+00  0.0000E+00  0.7200E+02
  -2.090  0.0000E+00  0.0000E+00  0.7200E+02
  -2.080  0.0000E+00  0.0000E+00  0.7200E+02
  -2.070  0.0000E+00  0.0000E+00  0.7200E+02
  -2.060  0.0000E+00  0.0000E+00  0.7200E+02
  -2.050  0.0000E+00  0.0000E+00  0.7200E+02
  -2.040  0.0000E+00  0.0000E+00  0.7200E+02
  -2.030  0.0000E+00  0.0000E+00  0.7200E+02
  -2.020  0.0000E+00  0.0000E+00  0.7200E+02
  -2.010  0.0000E+00  0.0000E+00  0.7200E+02
  -2.000  0.0000E+00  0.0000E+00  0.7200E+02
  -1.990  0.0000E+00  0.0000E+00  0.7200E+02
  -1.980  0.0000E+00  0.0000E+00  0.7200E+02
  -1.970  0.0000E+00  0.0000E+00  0.7200E+02
  -1.960  0.0000E+00  0.0000E+00  0.7200E+02
  -1.950  0.0000E+00  0.0000E+00  0.7200E+02
  -1.940  0.0000E+00  0.0000E+00  0.7200E+02
  -1.930  0.0000E+00  0.0000E+00  0.7200E+02
  -1.920  0.0000E+00  0.0000E+00  0.7200E+02
  -1.910  0.0000E+00  0.0000E+00  0.7200E+02
  -1.900  0.0000E+00  0.0000E+00  0.7200E+02
  -1.890  0.0000E+00  0.0000E+00  0.7200E+02
  -1.880  0.0000E+00  0.0000E+00  0.7200E+02
  -1.870  0.0000E+00  0.0000E+00  0.7200E+02
  -1.860  0.0000E+00  0.0000E+00  0.7200E+02
  -1.850  0.0000E+00  0.0000E+00  0.7200E+02
  -1.840  0.0000E+00  0.0000E+00  0.7200E+02
  -1.830  0.0000E+00  0.0000E+00  0.7200E+02
  -1.820  0.0000E+00  0.0000E+00  0.7200E+02
  -1.810  0.0000E+00  0.0000E+00  0.7200E+02
  -1.800  0.0000E+00  0.0000E+00  0.7200E+02
  -1.790  0.0000E+00  0.0000E+00  0.7200E+02
  -1.780  0.0000E+00  0.0000E+00  0.7200E+02
  -1.770  0.0000E+00  0.0000E+00  0.7200E+02
  -1.760  0.0000E+00  0.0000E+00  0.7200E+02
  -1.750  0.0000E+00  0.0000E+00  0.7200E+02
  -1.740  0.0000E+00  0.0000E+00  0.7200E+02
  -1.730  0.0000E+00  0.0000E+00  0.7200E+02
  -1.720  0.0000E+00  0.0000E+00  0.7200E+02
  -1.710  0.0000E+00  0.0000E+00  0.7200E+02
  -1.700  0.0000E+00  0.0000E+00  0.7200E+02
  -1.690  0.0000E+00  0.0000E+00  0.7200E+02
  -1.680  0.0000E+00  0.0000E+00  0.7200E+02
  -1.670  0.0000E+00  0.0000E+00  0.7200E+02
  -1.660  0.0000E+00  0.0000E+00  0.7200E+02
  -1.650  0.0000E+00  0.0000E+00  0.7200E+02
  -1.640  0.0000E+00  0.0000E+00  0.7200E+02
  -1.630  0.0000E+00  0.0000E+00  0.7200E+02
  -1.620  0.0000E+00  0.0000E+00  0.7200E+02
  -1.610  0.0000E+00  0.0000E+00  0.7200E+02
  -1.600  0.0000E+00  0.0000E+00  0.7200E+02
  -1.590  0.0000E+00  0.0000E+00  0.7200E+02
  -1.580  0.0000E+00  0.0000E+00  0.7200E+02
  -1.570  0.0000E+00  0.0000E+00  0.7200E+02
  -1.560  0.0000E+00  0.0000E+00  0.7200E+02
  -1.550  0.0000E+00  0.0000E+00  0.7200E+02
  -1.540  0.0000E+00  0.0000E+00  0.7200E+02
  -1.530  0.0000E+00  0.0000E+00  0.7200E+02
  -1.520  0.0000E+00  0.0000E+00  0.7200E+02
  -1.510  0.0000E+00  0.0000E+00  0.7200E+02
  -1.500  0.0000E+00  0.0000E+00  0.7200E+02
  -1.490  0.0000E+00  0.0000E+00  0.7200E+02
  -1.480  0.0000E+00  0.0000E+00  0.7200E+02
  -1.470  0.0000E+00  0.0000E+00  0.7200E+02
  -1.460  0.0000E+00  0.0000E+00  0.7200E+02
  -1.450  0.0000E+00  0.0000E+00  0.7200E+02
  -1.440  0.0000E+00  0.0000E+00  0.7200E+02
  -1.430  0.0000E+00  0.0000E+00  0.7200E+02
  -1.420  0.0000E+00  0.0000E+00  0.7200E+02
  -1.410  0.0000E+00  0.0000E+00  0.7200E+02
  -1.400  0.0000E+00  0.0000E+00  0.7200E+02
  -1.390  0.0000E+00  0.0000E+00  0.7200E+02
  -1.380  0.0000E+00  0.0000E+00  0.7200E+02
  -1.370  0.0000E+00  0.0000E+00  0.7200E+02
  -1.360  0.0000E+00  0.0000E+00  0.7200E+02
  -1.350  0.0000E+00  0.0000E+00  0.7200E+02
  -1.340  0.0000E+00  0.0000E+00  0.7200E+02
  -1.330  0.0000E+00  0.0000E+00  0.7200E+02
  -1.320  0.0000E+00  0.0000E+00  0.7200E+02
  -1.310  0.0000E+00  0.0000E+00  0.7200E+02
  -1.300  0.0000E+00  0.0000E+00  0.7200E+02
  -1.290  0.0000E+00  0.0000E+00  0.7200E+02
  -1.280  0.0000E+00  0.0000E+00  0.7200E+02
  -1.270  0.0000E+00  0.0000E+00  0.7200E+02
  -1.260  0.0000E+00  0.0000E+00  0.7200E+02
  -1.250  0.0000E+00  0.0000E+00  0.7200E+02
  -1.240  0.0000E+00  0.0000E+00  0.7200E+02
  -1.230  0.0000E+00  0.0000E+00  0.7200E+02
  -1.220  0.0000E+00  0.0000E+00  0.7200E+02
  -1.210  0.0000E+00  0.0000E+00  0.7200E+02
  -1.200  0.0000E+00  0.0000E+00  0.7200E+02
  -1.190  0.0000E+00  0.0000E+00  0.7200E+02
  -1.180  0.0000E+00  0.0000E+00  0.7200E+02
  -1.170  0.0000E+00  0.0000E+00  0.7200E+02
  -1.160  0.0000E+00  0.0000E+00  0.7200E+02
  -1.150  0.0000E+00  0.0000E+00  0.7200E+02
  -1.140  0.0000E+00  0.0000E+00  0.7200E+02
  -1.130  0.0000E+00  0.0000E+00  0.7200E+02
  -1.120  0.0000E+00  0.0000E+00  0.7200E+02
  -1.110  0.0000E+00  0.0000E+00  0.7200E+02
  -1.100  0.0000E+00  0.0000E+00  0.7200E+02
  -1.090  0.0000E+00  0.0000E+00  0.7200E+02
  -1.080  0.0000E+00  0.0000E+00  0.7200E+02
  -1.070  0.0000E+00  0.0000E+00  0.7200E+02
  -1.060  0.0000E+00  0.0000E+00  0.7200E+02
  -1.050  0.0000E+00  0.0000E+00  0.7200E+02
  -1.040  0.0000E+00  0.0000E+00  0.7200E+02
  -1.030  0.0000E+00  0.0000E+00  0.7200E+02
  -1.020  0.0000E+00  0.0000E+00  0.7200E+02
  -1.010  0.0000E+00  0.0000E+00  0.7200E+02
  -1.000  0.0000E+00  0.0000E+00  0.7200E+02
  -0.990  0.0000E+00  0.0000E+00  0.7200E+02
  -0.980  0.0000E+00  0.0000E+00  0.7200E+02
  -0.970  0.0000E+00  0.0000E+00  0.7200E+02
  -0.960  0.0000E+00  0.0000E+00  0.7200E+02
  -0.950  0.0000E+00  0.0000E+00  0.7200E+02
  -0.940  0.0000E+00  0.0000E+00  0.7200E+02
  -0.930  0.0000E+00  0.0000E+00  0.7200E+02
  -0.920  0.0000E+00  0.0000E+00  0.7200E+02
  -0.910  0.0000E+00  0.0000E+00  0.7200E+02
  -0.900  0.0000E+00  0.0000E+00  0.7200E+02
  -0.890  0.0000E+00  0.0000E+00  0.7200E+02
  -0.880  0.0000E+00  0.0000E+00  0.7200E+02
  -0.870  0.0000E+00  0.0000E+00  0.7200E+02
  -0.860  0.0000E+00  0.0000E+00  0.7200E+02
  -0.850  0.0000E+00  0.0000E+00  0.7200E+02
  -0.840  0.0000E+00  0.0000E+00  0.7200E+02
  -0.830  0.0000E+00  0.0000E+00  0.7200E+02
  -0.820  0.0000E+00  0.0000E+00  0.7200E+02
  -0.810  0.0000E+00  0.0000E+00  0.7200E+02
  -0.800  0.0000E+00  0.0000E+00  0.7200E+02
  -0.790  0.0000E+00  0.0000E+00  0.7200E+02
  -0.780  0.0000E+00  0.0000E+00  0.7200E+02
  -0.770  0.0000E+00  0.0000E+00  0.7200E+02
  -0.760  0.0000E+00  0.0000E+00  0.7200E+02
  -0.750  0.0000E+00  0.0000E+00  0.7200E+02
  -0.740  0.0000E+00  0.0000E+00  0.7200E+02
  -0.730  0.0000E+00  0.0000E+00  0.7200E+02
  -0.720  0.0000E+00  0.0000E+00  0.7200E+02
  -0.710  0.4738E+00  0.0000E+00  0.7200E+02
  -0.700  0.6989E+01  0.0000E+00  0.7204E+02
  -0.690  0.2215E+02  0.5170E+01  0.7218E+02
  -0.680  0.6337E+02  0.1794E+02  0.7268E+02
  -0.670  0.1126E+03  0.6491E+02  0.7393E+02
  -0.660  0.1283E+03  0.1218E+03  0.7606E+02
  -0.650  0.1593E+03  0.1447E+03  0.7883E+02
  -0.640  0.1793E+03  0.1800E+03  0.8217E+02
  -0.630  0.1855E+03  0.1839E+03  0.8589E+02
  -0.620  0.2164E+03  0.1956E+03  0.8984E+02
  -0.610  0.1677E+03  0.1870E+03  0.9379E+02
  -0.600  0.1179E+03  0.1395E+03  0.9676E+02
  -0.590  0.3431E+03  0.1778E+03  0.1005E+03
  -0.580  0.3280E+03  0.3503E+03  0.1067E+03
  -0.570  0.3159E+03  0.3145E+03  0.1130E+03
  -0.560  0.3844E+03  0.3139E+03  0.1194E+03
  -0.550  0.3258E+03  0.4595E+03  0.1269E+03
  -0.540  0.3911E+03  0.3592E+03  0.1344E+03
  -0.530  0.3969E+03  0.4185E+03  0.1426E+03
  -0.520  0.5074E+03  0.3959E+03  0.1510E+03
  -0.510  0.2418E+03  0.4469E+03  0.1599E+03
  -0.500  0.1450E+03  0.2188E+03  0.1657E+03
  -0.490  0.1464E+03  0.3178E+03  0.1709E+03
  -0.480  0.3226E+03  0.2566E+03  0.1759E+03
  -0.470  0.1695E+03  0.2360E+03  0.1810E+03
  -0.460  0.1848E+03  0.1714E+03  0.1847E+03
  -0.450  0.1773E+03  0.1637E+03  0.1884E+03
  -0.440  0.2021E+03  0.1660E+03  0.1919E+03
  -0.430  0.2001E+03  0.1945E+03  0.1957E+03
  -0.420  0.1342E+03  0.1504E+03  0.1995E+03
  -0.410  0.2047E+03  0.1587E+03  0.2033E+03
  -0.400  0.1642E+03  0.1685E+03  0.2066E+03
  -0.390  0.1259E+03  0.1855E+03  0.2100E+03
  -0.380  0.1080E+03  0.1199E+03  0.2127E+03
  -0.370  0.1647E+03  0.1430E+03  0.2153E+03
  -0.360  0.1306E+03  0.1479E+03  0.2185E+03
  -0.350  0.1448E+03  0.1216E+03  0.2212E+03
  -0.340  0.1143E+03  0.1575E+03  0.2240E+03
  -0.330  0.1493E+03  0.1191E+03  0.2266E+03
  -0.320  0.9121E+02  0.1172E+03  0.2290E+03
  -0.310  0.8758E+02  0.9145E+02  0.2309E+03
  -0.300  0.8802E+02  0.6948E+02  0.2326E+03
  -0.290  0.1253E+03  0.1062E+03  0.2345E+03
  -0.280  0.1776E+03  0.1374E+03  0.2373E+03
  -0.270  0.1280E+03  0.1434E+03  0.2402E+03
  -0.260  0.1846E+03  0.1245E+03  0.2430E+03
  -0.250  0.2220E+03  0.1658E+03  0.2464E+03
  -0.240  0.2014E+03  0.1709E+03  0.2501E+03
  -0.230  0.1449E+03  0.1859E+03  0.2538E+03
  -0.220  0.2697E+03  0.2290E+03  0.2576E+03
  -0.210  0.3336E+03  0.1886E+03  0.2636E+03
  -0.200  0.2632E+03  0.4173E+03  0.2701E+03
  -0.190  0.2735E+03  0.2545E+03  0.2758E+03
  -0.180  0.1526E+03  0.2405E+03  0.2808E+03
  -0.170  0.3651E+03  0.4548E+03  0.2857E+03
  -0.160  0.4025E+03  0.2917E+03  0.2924E+03
  -0.150  0.2134E+03  0.4355E+03  0.3008E+03
  -0.140  0.3754E+03  0.3629E+03  0.3070E+03
  -0.130  0.6068E+03  0.5778E+03  0.3157E+03
  -0.120  0.5032E+03  0.3801E+03  0.3255E+03
  -0.110  0.3476E+03  0.3584E+03  0.3331E+03
  -0.100  0.2415E+03  0.3063E+03  0.3411E+03
  -0.090  0.2671E+03  0.2968E+03  0.3468E+03
  -0.080  0.8994E+02  0.1064E+03  0.3504E+03
  -0.070  0.7625E+02  0.6789E+02  0.3520E+03
  -0.060  0.6349E+02  0.8550E+02  0.3534E+03
  -0.050  0.8262E+02  0.7660E+02  0.3549E+03
  -0.040  0.7716E+02  0.7605E+02  0.3565E+03
  -0.030  0.5393E+02  0.6770E+02  0.3578E+03
  -0.020  0.4412E+02  0.4883E+02  0.3589E+03
  -0.010  0.4569E+02  0.4433E+02  0.3598E+03
   0.000  0.7057E+02  0.5202E+02  0.3609E+03
   0.010  0.9741E+02  0.7760E+02  0.3623E+03
   0.020  0.2642E+02  0.8320E+02  0.3640E+03
   0.030  0.5810E+02  0.2104E+02  0.3649E+03
   0.040  0.5741E+02  0.7017E+02  0.3659E+03
   0.050  0.7056E+02  0.6060E+02  0.3672E+03
   0.060  0.4974E+02  0.7527E+02  0.3685E+03
   0.070  0.6338E+02  0.5874E+02  0.3697E+03
   0.080  0.6307E+02  0.4388E+02  0.3709E+03
   0.090  0.6290E+02  0.6623E+02  0.3721E+03
   0.100  0.6141E+02  0.5998E+02  0.3734E+03
   0.110  0.5166E+02  0.5777E+02  0.3745E+03
   0.120  0.5763E+02  0.5297E+02  0.3756E+03
   0.130  0.8182E+02  0.8081E+02  0.3770E+03
   0.140  0.6485E+02  0.7923E+02  0.3786E+03
   0.150  0.4998E+02  0.6101E+02  0.3798E+03
   0.160  0.2976E+02  0.4219E+02  0.3808E+03
   0.170  0.1721E+02  0.2411E+02  0.3813E+03
   0.180  0.2011E+02  0.1449E+02  0.3817E+03
   0.190  0.4999E+01  0.7036E+01  0.3819E+03
   0.200  0.1911E+01  0.3267E+01  0.3820E+03
   0.210  0.2916E+00  0.8906E+00  0.3820E+03
   0.220  0.8169E-04  0.2707E-01  0.3820E+03
   0.230  0.0000E+00  0.0000E+00  0.3820E+03
   0.240  0.0000E+00  0.0000E+00  0.3820E+03
   0.250  0.0000E+00  0.0000E+00  0.3820E+03
   0.260  0.0000E+00  0.0000E+00  0.3820E+03
   0.270  0.0000E+00  0.0000E+00  0.3820E+03
   0.280  0.0000E+00  0.0000E+00  0.3820E+03
   0.290  0.0000E+00  0.0000E+00  0.3820E+03
   0.300  0.0000E+00  0.0000E+00  0.3820E+03
   0.310  0.0000E+00  0.0000E+00  0.3820E+03
   0.320  0.0000E+00  0.0000E+00  0.3820E+03
   0.330  0.0000E+00  0.0000E+00  0.3820E+03
   0.340  0.0000E+00  0.0000E+00  0.3820E+03
   0.350  0.0000E+00  0.0000E+00  0.3820E+03
   0.360  0.2630E-03  0.0000E+00  0.3820E+03
   0.370  0.5352E-02  0.0000E+00  0.3820E+03
   0.380  0.2229E-01  0.3215E-03  0.3820E+03
   0.390  0.5258E-01  0.5067E-02  0.3820E+03
   0.400  0.9687E-01  0.2068E-01  0.3820E+03
   0.410  0.1552E+00  0.4839E-01  0.3820E+03
   0.420  0.2275E+00  0.8847E-01  0.3820E+03
   0.430  0.3138E+00  0.1417E+00  0.3820E+03
   0.440  0.4141E+00  0.2083E+00  0.3820E+03
   0.450  0.5285E+00  0.2882E+00  0.3820E+03
   0.460  0.6568E+00  0.3813E+00  0.3820E+03
   0.470  0.7992E+00  0.4878E+00  0.3820E+03
   0.480  0.9611E+00  0.6076E+00  0.3821E+03
   0.490  0.1287E+01  0.7407E+00  0.3821E+03
   0.500  0.1906E+01  0.8894E+00  0.3821E+03
   0.510  0.2817E+01  0.1148E+01  0.3821E+03
   0.520  0.3678E+01  0.1672E+01  0.3822E+03
   0.530  0.4236E+01  0.2333E+01  0.3822E+03
   0.540  0.4500E+01  0.3264E+01  0.3823E+03
   0.550  0.4475E+01  0.3967E+01  0.3824E+03
   0.560  0.4161E+01  0.4351E+01  0.3825E+03
   0.570  0.3783E+01  0.4425E+01  0.3826E+03
   0.580  0.3905E+01  0.4190E+01  0.3826E+03
   0.590  0.4171E+01  0.3721E+01  0.3827E+03
   0.600  0.4453E+01  0.3634E+01  0.3828E+03
   0.610  0.4750E+01  0.3867E+01  0.3829E+03
   0.620  0.5062E+01  0.4117E+01  0.3830E+03
   0.630  0.5391E+01  0.4371E+01  0.3831E+03
   0.640  0.5736E+01  0.4644E+01  0.3832E+03
   0.650  0.6098E+01  0.4931E+01  0.3833E+03
   0.660  0.6477E+01  0.5235E+01  0.3834E+03
   0.670  0.6848E+01  0.5554E+01  0.3835E+03
   0.680  0.7214E+01  0.5890E+01  0.3836E+03
   0.690  0.7835E+01  0.6236E+01  0.3838E+03
   0.700  0.8901E+01  0.6559E+01  0.3839E+03
   0.710  0.1045E+02  0.6934E+01  0.3841E+03
   0.720  0.1229E+02  0.7665E+01  0.3843E+03
   0.730  0.1370E+02  0.8858E+01  0.3845E+03
   0.740  0.1349E+02  0.1044E+02  0.3847E+03
   0.750  0.1374E+02  0.1187E+02  0.3850E+03
   0.760  0.1411E+02  0.1251E+02  0.3852E+03
   0.770  0.1369E+02  0.1251E+02  0.3855E+03
   0.780  0.1208E+02  0.1269E+02  0.3857E+03
   0.790  0.1343E+02  0.1314E+02  0.3860E+03
   0.800  0.1373E+02  0.1293E+02  0.3863E+03
   0.810  0.1400E+02  0.1282E+02  0.3865E+03
   0.820  0.1420E+02  0.1256E+02  0.3868E+03
   0.830  0.1433E+02  0.1272E+02  0.3871E+03
   0.840  0.1439E+02  0.1287E+02  0.3873E+03
   0.850  0.1439E+02  0.1300E+02  0.3876E+03
   0.860  0.1432E+02  0.1313E+02  0.3879E+03
   0.870  0.1414E+02  0.1325E+02  0.3882E+03
   0.880  0.1385E+02  0.1335E+02  0.3884E+03
   0.890  0.1363E+02  0.1345E+02  0.3887E+03
   0.900  0.1318E+02  0.1353E+02  0.3890E+03
   0.910  0.1752E+02  0.1359E+02  0.3893E+03
   0.920  0.1417E+02  0.1366E+02  0.3895E+03
   0.930  0.1808E+02  0.1422E+02  0.3898E+03
   0.940  0.1807E+02  0.1519E+02  0.3902E+03
   0.950  0.1830E+02  0.1666E+02  0.3905E+03
   0.960  0.3121E+02  0.2015E+02  0.3909E+03
   0.970  0.3027E+02  0.2039E+02  0.3914E+03
   0.980  0.3178E+02  0.2095E+02  0.3920E+03
   0.990  0.3439E+02  0.1950E+02  0.3925E+03
   1.000  0.4050E+02  0.2735E+02  0.3931E+03
   1.010  0.4388E+02  0.3203E+02  0.3938E+03
   1.020  0.3777E+02  0.3991E+02  0.3946E+03
   1.030  0.4184E+02  0.3740E+02  0.3954E+03
   1.040  0.4582E+02  0.3623E+02  0.3962E+03
   1.050  0.3804E+02  0.4538E+02  0.3971E+03
   1.060  0.5122E+02  0.3843E+02  0.3979E+03
   1.070  0.5100E+02  0.5047E+02  0.3989E+03
   1.080  0.6648E+02  0.3914E+02  0.3998E+03
   1.090  0.5548E+02  0.6258E+02  0.4011E+03
   1.100  0.4543E+02  0.6062E+02  0.4023E+03
   1.110  0.3390E+02  0.7045E+02  0.4033E+03
   1.120  0.2142E+02  0.5963E+02  0.4042E+03
   1.130  0.6662E+01  0.5418E+02  0.4050E+03
   1.140  0.1694E+02  0.3537E+02  0.4056E+03
   1.150  0.1667E+02  0.2669E+02  0.4061E+03
   1.160  0.2185E+02  0.1173E+02  0.4065E+03
   1.170  0.3331E+02  0.6235E+01  0.4068E+03
   1.180  0.4729E+02  0.1299E+02  0.4073E+03
   1.190  0.5207E+02  0.1806E+02  0.4080E+03
   1.200  0.5785E+02  0.2180E+02  0.4087E+03
   1.210  0.3673E+02  0.2626E+02  0.4094E+03
   1.220  0.3031E+02  0.2924E+02  0.4100E+03
   1.230  0.2826E+02  0.3234E+02  0.4106E+03
   1.240  0.2760E+02  0.3281E+02  0.4112E+03
   1.250  0.2789E+02  0.3241E+02  0.4119E+03
   1.260  0.2565E+02  0.3290E+02  0.4124E+03
   1.270  0.2244E+02  0.3273E+02  0.4130E+03
   1.280  0.2144E+02  0.3166E+02  0.4136E+03
   1.290  0.1897E+02  0.2999E+02  0.4141E+03
   1.300  0.1716E+02  0.2811E+02  0.4145E+03
   1.310  0.1600E+02  0.2773E+02  0.4150E+03
   1.320  0.1488E+02  0.2776E+02  0.4154E+03
   1.330  0.1379E+02  0.2707E+02  0.4158E+03
   1.340  0.1268E+02  0.2566E+02  0.4162E+03
   1.350  0.1185E+02  0.2344E+02  0.4166E+03
   1.360  0.1209E+02  0.2038E+02  0.4169E+03
   1.370  0.1316E+02  0.1758E+02  0.4173E+03
   1.380  0.1474E+02  0.1541E+02  0.4176E+03
   1.390  0.1682E+02  0.1402E+02  0.4179E+03
   1.400  0.1842E+02  0.1295E+02  0.4182E+03
   1.410  0.1965E+02  0.1213E+02  0.4185E+03
   1.420  0.2012E+02  0.1155E+02  0.4188E+03
   1.430  0.1639E+02  0.1123E+02  0.4191E+03
   1.440  0.1437E+02  0.1118E+02  0.4194E+03
   1.450  0.1389E+02  0.1143E+02  0.4196E+03
   1.460  0.1538E+02  0.1179E+02  0.4199E+03
   1.470  0.1771E+02  0.1230E+02  0.4202E+03
   1.480  0.1792E+02  0.1339E+02  0.4205E+03
   1.490  0.1543E+02  0.1459E+02  0.4208E+03
   1.500  0.1052E+02  0.1556E+02  0.4211E+03
   1.510  0.9806E+01  0.1625E+02  0.4214E+03
   1.520  0.1011E+02  0.1664E+02  0.4216E+03
   1.530  0.1052E+02  0.1675E+02  0.4219E+03
   1.540  0.1102E+02  0.1656E+02  0.4222E+03
   1.550  0.1163E+02  0.1609E+02  0.4224E+03
   1.560  0.1233E+02  0.1532E+02  0.4227E+03
   1.570  0.1314E+02  0.1424E+02  0.4230E+03
   1.580  0.1392E+02  0.1291E+02  0.4233E+03
   1.590  0.1925E+02  0.1192E+02  0.4235E+03
   1.600  0.1353E+02  0.1145E+02  0.4238E+03
   1.610  0.1053E+02  0.1131E+02  0.4241E+03
   1.620  0.8630E+01  0.1118E+02  0.4243E+03
   1.630  0.7493E+01  0.1098E+02  0.4245E+03
   1.640  0.6800E+01  0.1097E+02  0.4246E+03
   1.650  0.8197E+01  0.1074E+02  0.4248E+03
   1.660  0.8237E+01  0.1193E+02  0.4250E+03
   1.670  0.8974E+01  0.1166E+02  0.4252E+03
   1.680  0.9598E+01  0.1076E+02  0.4254E+03
   1.690  0.1077E+02  0.1084E+02  0.4256E+03
   1.700  0.1408E+02  0.1032E+02  0.4259E+03
   1.710  0.1872E+02  0.9566E+01  0.4261E+03
   1.720  0.2061E+02  0.9125E+01  0.4264E+03
   1.730  0.1988E+02  0.8748E+01  0.4267E+03
   1.740  0.1925E+02  0.8093E+01  0.4270E+03
   1.750  0.1864E+02  0.7358E+01  0.4273E+03
   1.760  0.1970E+02  0.6613E+01  0.4275E+03
   1.770  0.1072E+02  0.5717E+01  0.4277E+03
   1.780  0.1277E+02  0.4900E+01  0.4279E+03
   1.790  0.1592E+02  0.4898E+01  0.4281E+03
   1.800  0.1684E+02  0.5268E+01  0.4283E+03
   1.810  0.1395E+02  0.5728E+01  0.4285E+03
   1.820  0.1148E+02  0.6264E+01  0.4287E+03
   1.830  0.1078E+02  0.6949E+01  0.4289E+03
   1.840  0.1077E+02  0.7812E+01  0.4291E+03
   1.850  0.1071E+02  0.8667E+01  0.4293E+03
   1.860  0.1105E+02  0.9484E+01  0.4295E+03
   1.870  0.1023E+02  0.1027E+02  0.4297E+03
   1.880  0.9414E+01  0.1088E+02  0.4299E+03
   1.890  0.8720E+01  0.1130E+02  0.4301E+03
   1.900  0.8098E+01  0.1152E+02  0.4303E+03
   1.910  0.7667E+01  0.1154E+02  0.4305E+03
   1.920  0.7519E+01  0.1140E+02  0.4306E+03
   1.930  0.7440E+01  0.1121E+02  0.4308E+03
   1.940  0.7292E+01  0.1100E+02  0.4310E+03
   1.950  0.7132E+01  0.1071E+02  0.4312E+03
   1.960  0.6990E+01  0.1036E+02  0.4314E+03
   1.970  0.6863E+01  0.9952E+01  0.4315E+03
   1.980  0.6749E+01  0.9503E+01  0.4317E+03
   1.990  0.6650E+01  0.9076E+01  0.4319E+03
   2.000  0.6564E+01  0.8723E+01  0.4320E+03
   2.010  0.6493E+01  0.8425E+01  0.4322E+03
   2.020  0.6446E+01  0.8163E+01  0.4323E+03
   2.030  0.6442E+01  0.7958E+01  0.4325E+03
   2.040  0.6591E+01  0.7843E+01  0.4326E+03
   2.050  0.6815E+01  0.7796E+01  0.4328E+03
   2.060  0.6807E+01  0.7784E+01  0.4329E+03
   2.070  0.7117E+01  0.7803E+01  0.4331E+03
   2.080  0.9076E+01  0.7699E+01  0.4332E+03
   2.090  0.1012E+02  0.7886E+01  0.4334E+03
   2.100  0.9484E+01  0.8106E+01  0.4336E+03
   2.110  0.9403E+01  0.8229E+01  0.4337E+03
   2.120  0.9457E+01  0.8226E+01  0.4339E+03
   2.130  0.9386E+01  0.8096E+01  0.4341E+03
   2.140  0.9178E+01  0.7840E+01  0.4343E+03
   2.150  0.8990E+01  0.7457E+01  0.4344E+03
   2.160  0.8838E+01  0.6959E+01  0.4346E+03
   2.170  0.8725E+01  0.6388E+01  0.4347E+03
   2.180  0.8720E+01  0.5803E+01  0.4349E+03
   2.190  0.8929E+01  0.5420E+01  0.4350E+03
   2.200  0.9199E+01  0.5296E+01  0.4352E+03
   2.210  0.9818E+01  0.4663E+01  0.4353E+03
   2.220  0.1024E+02  0.5485E+01  0.4355E+03
   2.230  0.1113E+02  0.8626E+01  0.4357E+03
   2.240  0.1166E+02  0.7141E+01  0.4358E+03
   2.250  0.1143E+02  0.7242E+01  0.4360E+03
   2.260  0.1080E+02  0.7395E+01  0.4362E+03
   2.270  0.1112E+02  0.7559E+01  0.4364E+03
   2.280  0.1194E+02  0.7691E+01  0.4366E+03
   2.290  0.1242E+02  0.7756E+01  0.4368E+03
   2.300  0.1220E+02  0.7721E+01  0.4370E+03
   2.310  0.1128E+02  0.7642E+01  0.4372E+03
   2.320  0.1003E+02  0.7639E+01  0.4374E+03
   2.330  0.9175E+01  0.7661E+01  0.4375E+03
   2.340  0.8468E+01  0.7634E+01  0.4377E+03
   2.350  0.8994E+01  0.7563E+01  0.4379E+03
   2.360  0.1317E+02  0.7447E+01  0.4381E+03
   2.370  0.1711E+02  0.7286E+01  0.4383E+03
   2.380  0.1936E+02  0.7100E+01  0.4385E+03
   2.390  0.1973E+02  0.6901E+01  0.4388E+03
   2.400  0.1833E+02  0.6661E+01  0.4391E+03
   2.410  0.1566E+02  0.6432E+01  0.4393E+03
   2.420  0.1199E+02  0.6227E+01  0.4395E+03
   2.430  0.9961E+01  0.6484E+01  0.4397E+03
   2.440  0.9835E+01  0.6847E+01  0.4398E+03
   2.450  0.1001E+02  0.7246E+01  0.4400E+03
   2.460  0.1017E+02  0.7697E+01  0.4402E+03
   2.470  0.1029E+02  0.8142E+01  0.4404E+03
   2.480  0.1043E+02  0.8582E+01  0.4406E+03
   2.490  0.1059E+02  0.8997E+01  0.4407E+03
   2.500  0.1072E+02  0.9270E+01  0.4409E+03
   2.510  0.1063E+02  0.9548E+01  0.4411E+03
   2.520  0.9953E+01  0.9942E+01  0.4413E+03
   2.530  0.1054E+02  0.1064E+02  0.4415E+03
   2.540  0.9039E+01  0.1222E+02  0.4418E+03
   2.550  0.1162E+02  0.1338E+02  0.4420E+03
   2.560  0.1389E+02  0.1410E+02  0.4423E+03
   2.570  0.1399E+02  0.1430E+02  0.4425E+03
   2.580  0.1398E+02  0.1480E+02  0.4428E+03
   2.590  0.1381E+02  0.1486E+02  0.4431E+03
   2.600  0.1370E+02  0.1679E+02  0.4434E+03
   2.610  0.1377E+02  0.1911E+02  0.4437E+03
   2.620  0.1383E+02  0.1933E+02  0.4441E+03
   2.630  0.1385E+02  0.1715E+02  0.4444E+03
   2.640  0.1393E+02  0.1493E+02  0.4447E+03
   2.650  0.1409E+02  0.1521E+02  0.4450E+03
   2.660  0.1435E+02  0.1785E+02  0.4453E+03
   2.670  0.1536E+02  0.2169E+02  0.4456E+03
   2.680  0.1751E+02  0.2484E+02  0.4460E+03
   2.690  0.1873E+02  0.2659E+02  0.4465E+03
   2.700  0.1907E+02  0.2785E+02  0.4469E+03
   2.710  0.1955E+02  0.2840E+02  0.4474E+03
   2.720  0.2000E+02  0.2918E+02  0.4479E+03
   2.730  0.2037E+02  0.2763E+02  0.4484E+03
   2.740  0.2075E+02  0.2487E+02  0.4488E+03
   2.750  0.2111E+02  0.2442E+02  0.4493E+03
   2.760  0.2121E+02  0.2504E+02  0.4498E+03
   2.770  0.2479E+02  0.2347E+02  0.4502E+03
   2.780  0.2937E+02  0.2164E+02  0.4507E+03
   2.790  0.2110E+02  0.2291E+02  0.4512E+03
   2.800  0.2417E+02  0.2100E+02  0.4516E+03
   2.810  0.2448E+02  0.2903E+02  0.4522E+03
   2.820  0.2083E+02  0.3219E+02  0.4527E+03
   2.830  0.1879E+02  0.3311E+02  0.4532E+03
   2.840  0.3170E+02  0.3096E+02  0.4538E+03
   2.850  0.4043E+02  0.2972E+02  0.4544E+03
   2.860  0.2866E+02  0.2787E+02  0.4550E+03
   2.870  0.2251E+02  0.2264E+02  0.4556E+03
   2.880  0.2066E+02  0.1793E+02  0.4560E+03
   2.890  0.2201E+02  0.2122E+02  0.4564E+03
   2.900  0.2299E+02  0.2369E+02  0.4568E+03
   2.910  0.2279E+02  0.2305E+02  0.4573E+03
   2.920  0.1559E+02  0.1355E+02  0.4577E+03
   2.930  0.1128E+02  0.1282E+02  0.4579E+03
   2.940  0.1083E+02  0.1348E+02  0.4582E+03
   2.950  0.1151E+02  0.2487E+02  0.4585E+03
   2.960  0.1364E+02  0.2389E+02  0.4588E+03
   2.970  0.1481E+02  0.2816E+02  0.4592E+03
   2.980  0.1581E+02  0.2664E+02  0.4597E+03
   2.990  0.1583E+02  0.2566E+02  0.4601E+03
   3.000  0.1569E+02  0.2499E+02  0.4605E+03
   3.010  0.1662E+02  0.2229E+02  0.4609E+03
   3.020  0.1854E+02  0.1619E+02  0.4613E+03
   3.030  0.2008E+02  0.1375E+02  0.4616E+03
   3.040  0.2156E+02  0.1456E+02  0.4619E+03
   3.050  0.2273E+02  0.1614E+02  0.4623E+03
   3.060  0.2419E+02  0.1787E+02  0.4627E+03
   3.070  0.2483E+02  0.1931E+02  0.4632E+03
   3.080  0.2573E+02  0.1914E+02  0.4636E+03
   3.090  0.2710E+02  0.1872E+02  0.4641E+03
   3.100  0.2633E+02  0.1874E+02  0.4645E+03
   3.110  0.2911E+02  0.1908E+02  0.4650E+03
   3.120  0.3070E+02  0.1901E+02  0.4655E+03
   3.130  0.3179E+02  0.1851E+02  0.4660E+03
   3.140  0.3124E+02  0.1674E+02  0.4665E+03
   3.150  0.3129E+02  0.1579E+02  0.4669E+03
   3.160  0.2976E+02  0.1385E+02  0.4674E+03
   3.170  0.2902E+02  0.1507E+02  0.4678E+03
   3.180  0.2598E+02  0.1708E+02  0.4683E+03
   3.190  0.2283E+02  0.2347E+02  0.4687E+03
   3.200  0.2199E+02  0.3338E+02  0.4692E+03
   3.210  0.2158E+02  0.2775E+02  0.4697E+03
   3.220  0.2143E+02  0.2956E+02  0.4702E+03
   3.230  0.2329E+02  0.3139E+02  0.4707E+03
   3.240  0.2867E+02  0.3288E+02  0.4713E+03
   3.250  0.3159E+02  0.3333E+02  0.4720E+03
   3.260  0.3418E+02  0.3344E+02  0.4726E+03
   3.270  0.3298E+02  0.3326E+02  0.4733E+03
   3.280  0.2457E+02  0.3445E+02  0.4739E+03
   3.290  0.2041E+02  0.3746E+02  0.4745E+03
   3.300  0.1833E+02  0.4573E+02  0.4751E+03
   3.310  0.1745E+02  0.3490E+02  0.4757E+03
   3.320  0.1772E+02  0.3659E+02  0.4762E+03
   3.330  0.2153E+02  0.3382E+02  0.4767E+03
   3.340  0.2490E+02  0.2338E+02  0.4772E+03
   3.350  0.2399E+02  0.2383E+02  0.4777E+03
   3.360  0.2506E+02  0.2467E+02  0.4782E+03
   3.370  0.2612E+02  0.2597E+02  0.4787E+03
   3.380  0.2683E+02  0.2682E+02  0.4793E+03
   3.390  0.2705E+02  0.2690E+02  0.4798E+03
   3.400  0.2686E+02  0.2738E+02  0.4803E+03
   3.410  0.2711E+02  0.2793E+02  0.4809E+03
   3.420  0.2789E+02  0.2887E+02  0.4814E+03
   3.430  0.2840E+02  0.2959E+02  0.4820E+03
   3.440  0.2899E+02  0.2971E+02  0.4826E+03
   3.450  0.2960E+02  0.2958E+02  0.4832E+03
   3.460  0.2927E+02  0.2783E+02  0.4838E+03
   3.470  0.2939E+02  0.2719E+02  0.4843E+03
   3.480  0.3030E+02  0.2698E+02  0.4849E+03
   3.490  0.3132E+02  0.2695E+02  0.4855E+03
   3.500  0.3210E+02  0.2717E+02  0.4861E+03
   3.510  0.3289E+02  0.2735E+02  0.4867E+03
   3.520  0.3354E+02  0.2749E+02  0.4873E+03
   3.530  0.3394E+02  0.2548E+02  0.4879E+03
   3.540  0.3398E+02  0.2598E+02  0.4885E+03
   3.550  0.3426E+02  0.2714E+02  0.4891E+03
   3.560  0.3489E+02  0.2846E+02  0.4897E+03
   3.570  0.3500E+02  0.2967E+02  0.4903E+03
   3.580  0.3486E+02  0.3028E+02  0.4910E+03
   3.590  0.3475E+02  0.3175E+02  0.4917E+03
   3.600  0.3464E+02  0.3283E+02  0.4923E+03
   3.610  0.3426E+02  0.3422E+02  0.4930E+03
   3.620  0.3435E+02  0.3304E+02  0.4937E+03
   3.630  0.3494E+02  0.3206E+02  0.4944E+03
   3.640  0.2870E+02  0.3181E+02  0.4950E+03
   3.650  0.2775E+02  0.3187E+02  0.4956E+03
   3.660  0.2812E+02  0.3222E+02  0.4962E+03
   3.670  0.2885E+02  0.3223E+02  0.4968E+03
   3.680  0.2990E+02  0.3206E+02  0.4974E+03
   3.690  0.2827E+02  0.3197E+02  0.4980E+03
   3.700  0.2847E+02  0.2945E+02  0.4986E+03
   3.710  0.2815E+02  0.2902E+02  0.4992E+03
   3.720  0.2658E+02  0.2754E+02  0.4998E+03
   3.730  0.2733E+02  0.2757E+02  0.5003E+03
   3.740  0.2776E+02  0.2827E+02  0.5009E+03
   3.750  0.2760E+02  0.2467E+02  0.5014E+03
   3.760  0.2742E+02  0.2487E+02  0.5019E+03
   3.770  0.2709E+02  0.2545E+02  0.5024E+03
   3.780  0.2716E+02  0.2627E+02  0.5030E+03
   3.790  0.2904E+02  0.2777E+02  0.5035E+03
   3.800  0.3039E+02  0.2966E+02  0.5041E+03
   3.810  0.3141E+02  0.2911E+02  0.5047E+03
   3.820  0.2792E+02  0.2933E+02  0.5053E+03
   3.830  0.2582E+02  0.2877E+02  0.5059E+03
   3.840  0.4057E+02  0.2936E+02  0.5064E+03
   3.850  0.2679E+02  0.2801E+02  0.5071E+03
   3.860  0.4105E+02  0.4378E+02  0.5078E+03
   3.870  0.4431E+02  0.4119E+02  0.5087E+03
   3.880  0.4549E+02  0.4256E+02  0.5095E+03
   3.890  0.4279E+02  0.4382E+02  0.5104E+03
   3.900  0.3999E+02  0.4254E+02  0.5113E+03
   3.910  0.3820E+02  0.3782E+02  0.5121E+03
   3.920  0.3289E+02  0.3362E+02  0.5128E+03
   3.930  0.2841E+02  0.3151E+02  0.5134E+03
   3.940  0.2883E+02  0.3134E+02  0.5140E+03
   3.950  0.2600E+02  0.3172E+02  0.5146E+03
   3.960  0.2537E+02  0.3151E+02  0.5152E+03
   3.970  0.2568E+02  0.3010E+02  0.5157E+03
   3.980  0.2637E+02  0.2725E+02  0.5163E+03
   3.990  0.2646E+02  0.2607E+02  0.5168E+03
   4.000  0.2623E+02  0.3446E+02  0.5173E+03
   4.010  0.2191E+02  0.2505E+02  0.5178E+03
   4.020  0.2198E+02  0.2352E+02  0.5183E+03
   4.030  0.2196E+02  0.2216E+02  0.5188E+03
   4.040  0.2261E+02  0.2228E+02  0.5192E+03
   4.050  0.2346E+02  0.3407E+02  0.5197E+03
   4.060  0.2430E+02  0.3126E+02  0.5203E+03
   4.070  0.2539E+02  0.2597E+02  0.5208E+03
   4.080  0.2509E+02  0.2452E+02  0.5213E+03
   4.090  0.2499E+02  0.2455E+02  0.5218E+03
   4.100  0.2601E+02  0.2789E+02  0.5223E+03
   4.110  0.2893E+02  0.2793E+02  0.5229E+03
   4.120  0.2903E+02  0.2853E+02  0.5234E+03
   4.130  0.2840E+02  0.2936E+02  0.5240E+03
   4.140  0.2858E+02  0.3042E+02  0.5246E+03
   4.150  0.3015E+02  0.3545E+02  0.5252E+03
   4.160  0.3109E+02  0.3448E+02  0.5259E+03
   4.170  0.3140E+02  0.3106E+02  0.5265E+03
   4.180  0.3147E+02  0.3029E+02  0.5272E+03
   4.190  0.3223E+02  0.3126E+02  0.5278E+03
   4.200  0.3354E+02  0.3051E+02  0.5284E+03
   4.210  0.3253E+02  0.2990E+02  0.5291E+03
   4.220  0.3205E+02  0.2899E+02  0.5297E+03
   4.230  0.3226E+02  0.2949E+02  0.5303E+03
   4.240  0.3157E+02  0.2887E+02  0.5309E+03
   4.250  0.3049E+02  0.2836E+02  0.5315E+03
   4.260  0.3062E+02  0.3069E+02  0.5321E+03
   4.270  0.3083E+02  0.3459E+02  0.5327E+03
   4.280  0.3184E+02  0.3095E+02  0.5334E+03
   4.290  0.3165E+02  0.2903E+02  0.5340E+03
   4.300  0.3115E+02  0.2869E+02  0.5346E+03
   4.310  0.3051E+02  0.2899E+02  0.5352E+03
   4.320  0.3023E+02  0.3501E+02  0.5358E+03
   4.330  0.3067E+02  0.3199E+02  0.5364E+03
   4.340  0.3212E+02  0.2767E+02  0.5371E+03
   4.350  0.3495E+02  0.2588E+02  0.5377E+03
   4.360  0.3748E+02  0.2636E+02  0.5383E+03
   4.370  0.3948E+02  0.2842E+02  0.5389E+03
   4.380  0.3998E+02  0.2988E+02  0.5396E+03
   4.390  0.3948E+02  0.3165E+02  0.5403E+03
   4.400  0.3671E+02  0.3586E+02  0.5410E+03
   4.410  0.3554E+02  0.3768E+02  0.5418E+03
   4.420  0.3266E+02  0.3132E+02  0.5425E+03
   4.430  0.3007E+02  0.2668E+02  0.5431E+03
   4.440  0.2831E+02  0.2305E+02  0.5436E+03
   4.450  0.2740E+02  0.2098E+02  0.5441E+03
   4.460  0.2627E+02  0.2120E+02  0.5446E+03
   4.470  0.2519E+02  0.2583E+02  0.5451E+03
   4.480  0.2307E+02  0.2625E+02  0.5456E+03
   4.490  0.2057E+02  0.2626E+02  0.5460E+03
   4.500  0.1859E+02  0.3934E+02  0.5465E+03
   4.510  0.1893E+02  0.3268E+02  0.5471E+03
   4.520  0.1970E+02  0.4596E+02  0.5476E+03
   4.530  0.2133E+02  0.5600E+02  0.5484E+03
   4.540  0.2439E+02  0.3667E+02  0.5491E+03
   4.550  0.2234E+02  0.2632E+02  0.5496E+03
   4.560  0.2133E+02  0.2932E+02  0.5501E+03
   4.570  0.2227E+02  0.1958E+02  0.5505E+03
   4.580  0.2323E+02  0.1897E+02  0.5509E+03
   4.590  0.2350E+02  0.1865E+02  0.5514E+03
   4.600  0.2436E+02  0.1996E+02  0.5518E+03
   4.610  0.2526E+02  0.2100E+02  0.5523E+03
   4.620  0.2608E+02  0.2198E+02  0.5527E+03
   4.630  0.2629E+02  0.2299E+02  0.5532E+03
   4.640  0.2662E+02  0.2376E+02  0.5537E+03
   4.650  0.2704E+02  0.2415E+02  0.5542E+03
   4.660  0.2794E+02  0.2451E+02  0.5547E+03
   4.670  0.2852E+02  0.2656E+02  0.5553E+03
   4.680  0.3030E+02  0.2879E+02  0.5558E+03
   4.690  0.2954E+02  0.3048E+02  0.5564E+03
   4.700  0.2657E+02  0.3022E+02  0.5570E+03
   4.710  0.2815E+02  0.2935E+02  0.5576E+03
   4.720  0.3201E+02  0.2888E+02  0.5582E+03
   4.730  0.3355E+02  0.3450E+02  0.5588E+03
   4.740  0.4010E+02  0.2993E+02  0.5595E+03
   4.750  0.2758E+02  0.2136E+02  0.5601E+03
   4.760  0.3402E+02  0.2808E+02  0.5606E+03
   4.770  0.2929E+02  0.3906E+02  0.5613E+03
   4.780  0.3261E+02  0.2974E+02  0.5620E+03
   4.790  0.3387E+02  0.2627E+02  0.5626E+03
   4.800  0.2874E+02  0.2327E+02  0.5632E+03
   4.810  0.2830E+02  0.2120E+02  0.5637E+03
   4.820  0.2956E+02  0.1920E+02  0.5642E+03
   4.830  0.2724E+02  0.1817E+02  0.5646E+03
   4.840  0.2280E+02  0.1749E+02  0.5651E+03
   4.850  0.2070E+02  0.1711E+02  0.5654E+03
   4.860  0.2015E+02  0.1696E+02  0.5658E+03
   4.870  0.1967E+02  0.1699E+02  0.5662E+03
   4.880  0.2121E+02  0.1761E+02  0.5666E+03
   4.890  0.1880E+02  0.1837E+02  0.5669E+03
   4.900  0.1835E+02  0.1955E+02  0.5673E+03
   4.910  0.1809E+02  0.1933E+02  0.5677E+03
   4.920  0.1764E+02  0.1824E+02  0.5681E+03
   4.930  0.1700E+02  0.1765E+02  0.5684E+03
   4.940  0.1642E+02  0.1832E+02  0.5688E+03
   4.950  0.1604E+02  0.1861E+02  0.5691E+03
   4.960  0.1636E+02  0.1941E+02  0.5695E+03
   4.970  0.1699E+02  0.2123E+02  0.5698E+03
   4.980  0.1712E+02  0.2312E+02  0.5702E+03
   4.990  0.1675E+02  0.2294E+02  0.5706E+03
   5.000  0.1605E+02  0.2333E+02  0.5710E+03
   5.010  0.1550E+02  0.2087E+02  0.5714E+03
   5.020  0.1508E+02  0.1776E+02  0.5718E+03
   5.030  0.1487E+02  0.1557E+02  0.5721E+03
   5.040  0.1472E+02  0.1456E+02  0.5724E+03
   5.050  0.1446E+02  0.1548E+02  0.5727E+03
   5.060  0.1408E+02  0.1956E+02  0.5730E+03
   5.070  0.1346E+02  0.1962E+02  0.5733E+03
   5.080  0.1251E+02  0.1975E+02  0.5736E+03
   5.090  0.1166E+02  0.1839E+02  0.5739E+03
   5.100  0.1138E+02  0.1432E+02  0.5742E+03
   5.110  0.1374E+02  0.1235E+02  0.5745E+03
   5.120  0.1564E+02  0.1078E+02  0.5747E+03
   5.130  0.1788E+02  0.9234E+01  0.5750E+03
   5.140  0.2009E+02  0.8331E+01  0.5753E+03
   5.150  0.1852E+02  0.9310E+01  0.5756E+03
   5.160  0.1138E+02  0.9012E+01  0.5758E+03
   5.170  0.9557E+01  0.4506E+01  0.5760E+03
   5.180  0.9180E+01  0.2558E+01  0.5761E+03
   5.190  0.8760E+01  0.1801E+01  0.5762E+03
   5.200  0.8287E+01  0.1718E+01  0.5763E+03
   5.210  0.7763E+01  0.2769E+01  0.5764E+03
   5.220  0.7187E+01  0.8409E+01  0.5766E+03
   5.230  0.6562E+01  0.1419E+02  0.5767E+03
   5.240  0.5922E+01  0.1671E+02  0.5770E+03
   5.250  0.5425E+01  0.1582E+02  0.5772E+03
   5.260  0.5489E+01  0.1600E+02  0.5774E+03
   5.270  0.5756E+01  0.1609E+02  0.5776E+03
   5.280  0.5960E+01  0.1619E+02  0.5778E+03
   5.290  0.6185E+01  0.1554E+02  0.5780E+03
   5.300  0.7085E+01  0.1447E+02  0.5783E+03
   5.310  0.8984E+01  0.1345E+02  0.5785E+03
   5.320  0.1088E+02  0.1211E+02  0.5787E+03
   5.330  0.1371E+02  0.1103E+02  0.5789E+03
   5.340  0.1545E+02  0.9469E+01  0.5792E+03
   5.350  0.1514E+02  0.7298E+01  0.5794E+03
   5.360  0.1403E+02  0.4623E+01  0.5796E+03
   5.370  0.1328E+02  0.2671E+01  0.5798E+03
   5.380  0.1275E+02  0.1209E+01  0.5800E+03
   5.390  0.1170E+02  0.7126E+00  0.5801E+03
   5.400  0.1056E+02  0.3658E+00  0.5802E+03
   5.410  0.9404E+01  0.1506E+00  0.5803E+03
   5.420  0.8241E+01  0.3000E-01  0.5804E+03
   5.430  0.7054E+01  0.0000E+00  0.5805E+03
   5.440  0.5911E+01  0.0000E+00  0.5805E+03
   5.450  0.5094E+01  0.0000E+00  0.5806E+03
   5.460  0.4524E+01  0.0000E+00  0.5807E+03
   5.470  0.3994E+01  0.0000E+00  0.5807E+03
   5.480  0.3538E+01  0.0000E+00  0.5807E+03
   5.490  0.3182E+01  0.0000E+00  0.5808E+03
   5.500  0.3100E+01  0.0000E+00  0.5808E+03
   5.510  0.3336E+01  0.0000E+00  0.5808E+03
   5.520  0.3400E+01  0.0000E+00  0.5809E+03
   5.530  0.3281E+01  0.0000E+00  0.5809E+03
   5.540  0.2978E+01  0.0000E+00  0.5809E+03
   5.550  0.2490E+01  0.0000E+00  0.5810E+03
   5.560  0.1809E+01  0.0000E+00  0.5810E+03
   5.570  0.9623E+00  0.0000E+00  0.5810E+03
   5.580  0.3933E+00  0.0000E+00  0.5810E+03
   5.590  0.1963E+00  0.0000E+00  0.5810E+03
   5.600  0.7416E-01  0.0000E+00  0.5810E+03
   5.610  0.1202E-01  0.0000E+00  0.5810E+03
   5.620  0.9587E-03  0.0000E+00  0.5810E+03
   5.630  0.2780E-03  0.0000E+00  0.5810E+03
   5.640  0.1050E-04  0.0000E+00  0.5810E+03
   5.650  0.0000E+00  0.0000E+00  0.5810E+03
   5.660  0.0000E+00  0.0000E+00  0.5810E+03
   5.670  0.0000E+00  0.0000E+00  0.5810E+03
   5.680  0.0000E+00  0.0000E+00  0.5810E+03
   5.690  0.0000E+00  0.0000E+00  0.5810E+03
   5.700  0.0000E+00  0.0000E+00  0.5810E+03
   5.710  0.0000E+00  0.0000E+00  0.5810E+03
   5.720  0.0000E+00  0.0000E+00  0.5810E+03
   5.730  0.0000E+00  0.0000E+00  0.5810E+03
   5.740  0.0000E+00  0.0000E+00  0.5810E+03
   5.750  0.0000E+00  0.0000E+00  0.5810E+03
   5.760  0.0000E+00  0.1856E-01  0.5810E+03
   5.770  0.0000E+00  0.2959E+00  0.5810E+03
   5.780  0.0000E+00  0.1066E+01  0.5810E+03
   5.790  0.0000E+00  0.2758E+01  0.5810E+03
   5.800  0.0000E+00  0.7030E+01  0.5811E+03
   5.810  0.0000E+00  0.1110E+02  0.5812E+03
   5.820  0.0000E+00  0.1358E+02  0.5813E+03
   5.830  0.0000E+00  0.1518E+02  0.5814E+03
   5.840  0.0000E+00  0.1583E+02  0.5816E+03
   5.850  0.0000E+00  0.1144E+02  0.5817E+03
   5.860  0.0000E+00  0.9504E+01  0.5818E+03
   5.870  0.0000E+00  0.1069E+02  0.5819E+03
   5.880  0.0000E+00  0.1159E+02  0.5821E+03
   5.890  0.0000E+00  0.1547E+02  0.5822E+03
   5.900  0.0000E+00  0.1707E+02  0.5824E+03
   5.910  0.0000E+00  0.1938E+02  0.5825E+03
   5.920  0.0000E+00  0.3580E+02  0.5828E+03
   5.930  0.0000E+00  0.3752E+02  0.5832E+03
   5.940  0.0000E+00  0.3305E+02  0.5835E+03
   5.950  0.0000E+00  0.1440E+02  0.5838E+03
   5.960  0.0000E+00  0.1074E+02  0.5839E+03
   5.970  0.0000E+00  0.5249E+01  0.5840E+03
   5.980  0.0000E+00  0.1148E+01  0.5840E+03
   5.990  0.0000E+00  0.2367E+00  0.5840E+03
   6.000  0.0000E+00  0.7327E-02  0.5840E+03
   6.010  0.0000E+00  0.1069E-02  0.5840E+03
   6.020  0.0000E+00  0.0000E+00  0.5840E+03
   6.030  0.0000E+00  0.0000E+00  0.5840E+03
   6.040  0.0000E+00  0.0000E+00  0.5840E+03
   6.050  0.0000E+00  0.0000E+00  0.5840E+03
   6.060  0.0000E+00  0.0000E+00  0.5840E+03
   6.070  0.0000E+00  0.0000E+00  0.5840E+03
   6.080  0.0000E+00  0.0000E+00  0.5840E+03
   6.090  0.0000E+00  0.0000E+00  0.5840E+03
   6.100  0.0000E+00  0.0000E+00  0.5840E+03
   6.110  0.0000E+00  0.0000E+00  0.5840E+03
   6.120  0.0000E+00  0.0000E+00  0.5840E+03
   6.130  0.0000E+00  0.0000E+00  0.5840E+03
   6.140  0.0000E+00  0.0000E+00  0.5840E+03
   6.150  0.0000E+00  0.0000E+00  0.5840E+03
   6.160  0.0000E+00  0.0000E+00  0.5840E+03
   6.170  0.0000E+00  0.0000E+00  0.5840E+03
   6.180  0.0000E+00  0.0000E+00  0.5840E+03
   6.190  0.0000E+00  0.0000E+00  0.5840E+03
   6.200  0.0000E+00  0.0000E+00  0.5840E+03
   6.210  0.0000E+00  0.0000E+00  0.5840E+03
   6.220  0.0000E+00  0.0000E+00  0.5840E+03
   6.230  0.0000E+00  0.0000E+00  0.5840E+03
   6.240  0.0000E+00  0.0000E+00  0.5840E+03
   6.250  0.0000E+00  0.0000E+00  0.5840E+03
   6.260  0.0000E+00  0.0000E+00  0.5840E+03
   6.270  0.0000E+00  0.0000E+00  0.5840E+03
   6.280  0.0000E+00  0.0000E+00  0.5840E+03
   6.290  0.0000E+00  0.0000E+00  0.5840E+03
   6.300  0.0000E+00  0.0000E+00  0.5840E+03
   6.310  0.0000E+00  0.0000E+00  0.5840E+03
   6.320  0.0000E+00  0.0000E+00  0.5840E+03
   6.330  0.0000E+00  0.0000E+00  0.5840E+03
   6.340  0.0000E+00  0.0000E+00  0.5840E+03
   6.350  0.0000E+00  0.0000E+00  0.5840E+03
   6.360  0.0000E+00  0.0000E+00  0.5840E+03
   6.370  0.0000E+00  0.0000E+00  0.5840E+03
   6.380  0.0000E+00  0.0000E+00  0.5840E+03
   6.390  0.0000E+00  0.0000E+00  0.5840E+03
   6.400  0.0000E+00  0.0000E+00  0.5840E+03
   6.410  0.0000E+00  0.0000E+00  0.5840E+03
   6.420  0.0000E+00  0.0000E+00  0.5840E+03
   6.430  0.0000E+00  0.0000E+00  0.5840E+03
   6.440  0.0000E+00  0.0000E+00  0.5840E+03
   6.450  0.0000E+00  0.0000E+00  0.5840E+03
   6.460  0.0000E+00  0.0000E+00  0.5840E+03
   6.470  0.0000E+00  0.0000E+00  0.5840E+03
   6.480  0.0000E+00  0.0000E+00  0.5840E+03
   6.490  0.0000E+00  0.0000E+00  0.5840E+03
   6.500  0.0000E+00  0.0000E+00  0.5840E+03
   6.510  0.0000E+00  0.0000E+00  0.5840E+03
   6.520  0.0000E+00  0.0000E+00  0.5840E+03
   6.530  0.0000E+00  0.0000E+00  0.5840E+03
   6.540  0.0000E+00  0.0000E+00  0.5840E+03
   6.550  0.0000E+00  0.0000E+00  0.5840E+03
   6.560  0.0000E+00  0.0000E+00  0.5840E+03
   6.570  0.0000E+00  0.0000E+00  0.5840E+03
   6.580  0.0000E+00  0.0000E+00  0.5840E+03
   6.590  0.0000E+00  0.0000E+00  0.5840E+03
   6.600  0.0000E+00  0.0000E+00  0.5840E+03
   6.610  0.0000E+00  0.0000E+00  0.5840E+03
   6.620  0.0000E+00  0.0000E+00  0.5840E+03
   6.630  0.0000E+00  0.0000E+00  0.5840E+03
   6.640  0.0000E+00  0.0000E+00  0.5840E+03
   6.650  0.0000E+00  0.0000E+00  0.5840E+03
   6.660  0.0000E+00  0.0000E+00  0.5840E+03
   6.670  0.0000E+00  0.0000E+00  0.5840E+03
   6.680  0.0000E+00  0.0000E+00  0.5840E+03
   6.690  0.0000E+00  0.0000E+00  0.5840E+03
   6.700  0.0000E+00  0.0000E+00  0.5840E+03
   6.710  0.0000E+00  0.0000E+00  0.5840E+03
   6.720  0.0000E+00  0.0000E+00  0.5840E+03
   6.730  0.0000E+00  0.0000E+00  0.5840E+03
   6.740  0.0000E+00  0.0000E+00  0.5840E+03
   6.750  0.0000E+00  0.0000E+00  0.5840E+03
   6.760  0.0000E+00  0.0000E+00  0.5840E+03
   6.770  0.0000E+00  0.0000E+00  0.5840E+03
   6.780  0.0000E+00  0.0000E+00  0.5840E+03
   6.790  0.0000E+00  0.0000E+00  0.5840E+03
   6.800  0.0000E+00  0.0000E+00  0.5840E+03
   6.810  0.0000E+00  0.0000E+00  0.5840E+03
   6.820  0.0000E+00  0.0000E+00  0.5840E+03
   6.830  0.0000E+00  0.0000E+00  0.5840E+03
   6.840  0.0000E+00  0.0000E+00  0.5840E+03
   6.850  0.0000E+00  0.0000E+00  0.5840E+03
   6.860  0.0000E+00  0.0000E+00  0.5840E+03
   6.870  0.0000E+00  0.0000E+00  0.5840E+03
   6.880  0.0000E+00  0.0000E+00  0.5840E+03
   6.890  0.0000E+00  0.0000E+00  0.5840E+03
   6.900  0.0000E+00  0.0000E+00  0.5840E+03
   6.910  0.0000E+00  0.0000E+00  0.5840E+03
   6.920  0.0000E+00  0.0000E+00  0.5840E+03
   6.930  0.0000E+00  0.0000E+00  0.5840E+03
   6.940  0.0000E+00  0.0000E+00  0.5840E+03
   6.950  0.0000E+00  0.0000E+00  0.5840E+03
   6.960  0.0000E+00  0.0000E+00  0.5840E+03
   6.970  0.0000E+00  0.0000E+00  0.5840E+03
   6.980  0.0000E+00  0.0000E+00  0.5840E+03
   6.990  0.0000E+00  0.0000E+00  0.5840E+03
   7.000  0.0000E+00  0.0000E+00  0.5840E+03
   7.010  0.0000E+00  0.0000E+00  0.5840E+03
   7.020  0.0000E+00  0.0000E+00  0.5840E+03
   7.030  0.0000E+00  0.0000E+00  0.5840E+03
   7.040  0.0000E+00  0.0000E+00  0.5840E+03
   7.050  0.0000E+00  0.0000E+00  0.5840E+03
   7.060  0.0000E+00  0.0000E+00  0.5840E+03
   7.070  0.0000E+00  0.0000E+00  0.5840E+03
   7.080  0.0000E+00  0.0000E+00  0.5840E+03
   7.090  0.0000E+00  0.0000E+00  0.5840E+03
   7.100  0.0000E+00  0.0000E+00  0.5840E+03
   7.110  0.0000E+00  0.0000E+00  0.5840E+03
   7.120  0.0000E+00  0.0000E+00  0.5840E+03
   7.130  0.0000E+00  0.0000E+00  0.5840E+03
   7.140  0.0000E+00  0.0000E+00  0.5840E+03
   7.150  0.0000E+00  0.0000E+00  0.5840E+03
   7.160  0.0000E+00  0.0000E+00  0.5840E+03
   7.170  0.0000E+00  0.0000E+00  0.5840E+03
   7.180  0.0000E+00  0.0000E+00  0.5840E+03
   7.190  0.0000E+00  0.0000E+00  0.5840E+03
   7.200  0.0000E+00  0.0000E+00  0.5840E+03
   7.210  0.0000E+00  0.0000E+00  0.5840E+03
   7.220  0.0000E+00  0.0000E+00  0.5840E+03
   7.230  0.0000E+00  0.0000E+00  0.5840E+03
   7.240  0.0000E+00  0.0000E+00  0.5840E+03
   7.250  0.0000E+00  0.0000E+00  0.5840E+03
   7.260  0.0000E+00  0.0000E+00  0.5840E+03
   7.270  0.0000E+00  0.0000E+00  0.5840E+03
   7.280  0.0000E+00  0.0000E+00  0.5840E+03
   7.290  0.0000E+00  0.0000E+00  0.5840E+03
   7.300  0.0000E+00  0.0000E+00  0.5840E+03
   7.310  0.0000E+00  0.0000E+00  0.5840E+03
   7.320  0.0000E+00  0.0000E+00  0.5840E+03
   7.330  0.0000E+00  0.0000E+00  0.5840E+03
   7.340  0.0000E+00  0.0000E+00  0.5840E+03
   7.350  0.0000E+00  0.0000E+00  0.5840E+03
   7.360  0.0000E+00  0.0000E+00  0.5840E+03
   7.370  0.0000E+00  0.0000E+00  0.5840E+03
   7.380  0.0000E+00  0.0000E+00  0.5840E+03
   7.390  0.0000E+00  0.0000E+00  0.5840E+03
   7.400  0.0000E+00  0.0000E+00  0.5840E+03
   7.410  0.0000E+00  0.0000E+00  0.5840E+03
   7.420  0.0000E+00  0.0000E+00  0.5840E+03
   7.430  0.0000E+00  0.0000E+00  0.5840E+03
   7.440  0.0000E+00  0.0000E+00  0.5840E+03
   7.450  0.0000E+00  0.0000E+00  0.5840E+03
   7.460  0.5606E-06  0.0000E+00  0.5840E+03
   7.470  0.4230E-04  0.0000E+00  0.5840E+03
   7.480  0.1503E-03  0.3083E-05  0.5840E+03
   7.490  0.3253E-03  0.5513E-04  0.5840E+03
   7.500  0.6803E-03  0.1715E-03  0.5840E+03
   7.510  0.1294E-02  0.3609E-03  0.5840E+03
   7.520  0.2168E-02  0.7553E-03  0.5840E+03
   7.530  0.3300E-02  0.1398E-02  0.5840E+03
   7.540  0.4692E-02  0.2290E-02  0.5840E+03
   7.550  0.6342E-02  0.3431E-02  0.5840E+03
   7.560  0.8252E-02  0.4820E-02  0.5840E+03
   7.570  0.1042E-01  0.6458E-02  0.5840E+03
   7.580  0.1285E-01  0.8345E-02  0.5840E+03
   7.590  0.1554E-01  0.1048E-01  0.5840E+03
   7.600  0.1848E-01  0.1286E-01  0.5840E+03
   7.610  0.2169E-01  0.1550E-01  0.5840E+03
   7.620  0.2515E-01  0.1838E-01  0.5840E+03
   7.630  0.2888E-01  0.2151E-01  0.5840E+03
   7.640  0.3286E-01  0.2489E-01  0.5840E+03
   7.650  0.3710E-01  0.2852E-01  0.5840E+03
   7.660  0.4160E-01  0.3239E-01  0.5840E+03
   7.670  0.4636E-01  0.3652E-01  0.5840E+03
   7.680  0.5138E-01  0.4089E-01  0.5840E+03
   7.690  0.5666E-01  0.4551E-01  0.5840E+03
   7.700  0.6220E-01  0.5038E-01  0.5840E+03
   7.710  0.6800E-01  0.5550E-01  0.5840E+03
   7.720  0.7405E-01  0.6087E-01  0.5840E+03
   7.730  0.8037E-01  0.6649E-01  0.5840E+03
   7.740  0.8694E-01  0.7236E-01  0.5840E+03
   7.750  0.9378E-01  0.7847E-01  0.5840E+03
   7.760  0.1009E+00  0.8483E-01  0.5840E+03
   7.770  0.1082E+00  0.9145E-01  0.5840E+03
   7.780  0.1158E+00  0.9831E-01  0.5840E+03
   7.790  0.1237E+00  0.1054E+00  0.5840E+03
   7.800  0.1318E+00  0.1128E+00  0.5840E+03
   7.810  0.1402E+00  0.1204E+00  0.5840E+03
   7.820  0.1489E+00  0.1282E+00  0.5840E+03
   7.830  0.1578E+00  0.1363E+00  0.5840E+03
   7.840  0.1669E+00  0.1447E+00  0.5840E+03
   7.850  0.1764E+00  0.1533E+00  0.5840E+03
   7.860  0.1858E+00  0.1621E+00  0.5840E+03
   7.870  0.1945E+00  0.1712E+00  0.5840E+03
   7.880  0.2041E+00  0.1806E+00  0.5841E+03
   7.890  0.2150E+00  0.1891E+00  0.5841E+03
   7.900  0.2272E+00  0.1981E+00  0.5841E+03
   7.910  0.2418E+00  0.2082E+00  0.5841E+03
   7.920  0.2558E+00  0.2198E+00  0.5841E+03
   7.930  0.2690E+00  0.2335E+00  0.5841E+03
   7.940  0.2815E+00  0.2479E+00  0.5841E+03
   7.950  0.2933E+00  0.2614E+00  0.5841E+03
   7.960  0.3047E+00  0.2743E+00  0.5841E+03
   7.970  0.3158E+00  0.2865E+00  0.5841E+03
   7.980  0.3264E+00  0.2981E+00  0.5841E+03
   7.990  0.3368E+00  0.3093E+00  0.5841E+03
   8.000  0.3470E+00  0.3202E+00  0.5841E+03
   8.010  0.3569E+00  0.3307E+00  0.5841E+03
   8.020  0.3667E+00  0.3410E+00  0.5841E+03
   8.030  0.3762E+00  0.3511E+00  0.5841E+03
   8.040  0.3856E+00  0.3610E+00  0.5841E+03
   8.050  0.3948E+00  0.3707E+00  0.5841E+03
   8.060  0.4038E+00  0.3803E+00  0.5842E+03
   8.070  0.4125E+00  0.3896E+00  0.5842E+03
   8.080  0.4211E+00  0.3987E+00  0.5842E+03
   8.090  0.4295E+00  0.4077E+00  0.5842E+03
   8.100  0.4377E+00  0.4164E+00  0.5842E+03
   8.110  0.4457E+00  0.4250E+00  0.5842E+03
   8.120  0.4535E+00  0.4334E+00  0.5842E+03
   8.130  0.4611E+00  0.4415E+00  0.5842E+03
   8.140  0.4685E+00  0.4495E+00  0.5842E+03
   8.150  0.4743E+00  0.4573E+00  0.5842E+03
   8.160  0.4776E+00  0.4649E+00  0.5842E+03
   8.170  0.4787E+00  0.4719E+00  0.5843E+03
   8.180  0.4780E+00  0.4763E+00  0.5843E+03
   8.190  0.4793E+00  0.4785E+00  0.5843E+03
   8.200  0.4813E+00  0.4783E+00  0.5843E+03
   8.210  0.4846E+00  0.4783E+00  0.5843E+03
   8.220  0.4881E+00  0.4799E+00  0.5843E+03
   8.230  0.4913E+00  0.4824E+00  0.5843E+03
   8.240  0.4944E+00  0.4860E+00  0.5843E+03
   8.250  0.4976E+00  0.4894E+00  0.5843E+03
   8.260  0.5012E+00  0.4925E+00  0.5843E+03
   8.270  0.5054E+00  0.4956E+00  0.5844E+03
   8.280  0.5102E+00  0.4990E+00  0.5844E+03
   8.290  0.5159E+00  0.5029E+00  0.5844E+03
   8.300  0.5225E+00  0.5074E+00  0.5844E+03
   8.310  0.5300E+00  0.5127E+00  0.5844E+03
   8.320  0.5384E+00  0.5190E+00  0.5844E+03
   8.330  0.5482E+00  0.5261E+00  0.5844E+03
   8.340  0.5597E+00  0.5342E+00  0.5844E+03
   8.350  0.5726E+00  0.5434E+00  0.5844E+03
   8.360  0.5862E+00  0.5542E+00  0.5844E+03
   8.370  0.6001E+00  0.5667E+00  0.5845E+03
   8.380  0.6142E+00  0.5801E+00  0.5845E+03
   8.390  0.6284E+00  0.5940E+00  0.5845E+03
   8.400  0.6428E+00  0.6080E+00  0.5845E+03
   8.410  0.6571E+00  0.6222E+00  0.5845E+03
   8.420  0.6715E+00  0.6366E+00  0.5845E+03
   8.430  0.6861E+00  0.6511E+00  0.5845E+03
   8.440  0.7009E+00  0.6655E+00  0.5845E+03
   8.450  0.7160E+00  0.6801E+00  0.5846E+03
   8.460  0.7315E+00  0.6949E+00  0.5846E+03
   8.470  0.7473E+00  0.7100E+00  0.5846E+03
   8.480  0.7635E+00  0.7254E+00  0.5846E+03
   8.490  0.7801E+00  0.7412E+00  0.5846E+03
   8.500  0.7972E+00  0.7574E+00  0.5846E+03
   8.510  0.8148E+00  0.7739E+00  0.5846E+03
   8.520  0.8330E+00  0.7909E+00  0.5847E+03
   8.530  0.8517E+00  0.8084E+00  0.5847E+03
   8.540  0.8710E+00  0.8265E+00  0.5847E+03
   8.550  0.8908E+00  0.8451E+00  0.5847E+03
   8.560  0.9112E+00  0.8643E+00  0.5847E+03
   8.570  0.9321E+00  0.8840E+00  0.5848E+03
   8.580  0.9536E+00  0.9043E+00  0.5848E+03
   8.590  0.9756E+00  0.9251E+00  0.5848E+03
   8.600  0.9981E+00  0.9465E+00  0.5848E+03
   8.610  0.1021E+01  0.9685E+00  0.5848E+03
   8.620  0.1045E+01  0.9910E+00  0.5848E+03
   8.630  0.1069E+01  0.1014E+01  0.5849E+03
   8.640  0.1094E+01  0.1038E+01  0.5849E+03
   8.650  0.1119E+01  0.1062E+01  0.5849E+03
   8.660  0.1145E+01  0.1087E+01  0.5849E+03
   8.670  0.1171E+01  0.1112E+01  0.5850E+03
   8.680  0.1198E+01  0.1138E+01  0.5850E+03
   8.690  0.1226E+01  0.1164E+01  0.5850E+03
   8.700  0.1254E+01  0.1191E+01  0.5850E+03
   8.710  0.1282E+01  0.1219E+01  0.5851E+03
   8.720  0.1311E+01  0.1247E+01  0.5851E+03
   8.730  0.1337E+01  0.1275E+01  0.5851E+03
   8.740  0.1357E+01  0.1304E+01  0.5851E+03
   8.750  0.1374E+01  0.1334E+01  0.5852E+03
   8.760  0.1405E+01  0.1360E+01  0.5852E+03
   8.770  0.1454E+01  0.1381E+01  0.5852E+03
   8.780  0.1520E+01  0.1407E+01  0.5852E+03
   8.790  0.1600E+01  0.1453E+01  0.5853E+03
   8.800  0.1697E+01  0.1518E+01  0.5853E+03
   8.810  0.1814E+01  0.1602E+01  0.5853E+03
   8.820  0.1946E+01  0.1700E+01  0.5854E+03
   8.830  0.2107E+01  0.1816E+01  0.5854E+03
   8.840  0.2308E+01  0.1947E+01  0.5854E+03
   8.850  0.2626E+01  0.2097E+01  0.5855E+03
   8.860  0.3266E+01  0.2286E+01  0.5855E+03
   8.870  0.5605E+01  0.2514E+01  0.5856E+03
   8.880  0.6104E+01  0.3024E+01  0.5857E+03
   8.890  0.5959E+01  0.4178E+01  0.5858E+03
   8.900  0.6006E+01  0.6626E+01  0.5859E+03
   8.910  0.6436E+01  0.6067E+01  0.5860E+03
   8.920  0.6767E+01  0.6048E+01  0.5862E+03
   8.930  0.7038E+01  0.6562E+01  0.5863E+03
   8.940  0.7208E+01  0.6913E+01  0.5864E+03
   8.950  0.7260E+01  0.7196E+01  0.5866E+03
   8.960  0.7296E+01  0.7346E+01  0.5867E+03
   8.970  0.7309E+01  0.7407E+01  0.5869E+03
   8.980  0.7292E+01  0.7442E+01  0.5870E+03
   8.990  0.7237E+01  0.7453E+01  0.5872E+03
   9.000  0.7254E+01  0.7429E+01  0.5873E+03
   9.010  0.7311E+01  0.7364E+01  0.5875E+03
   9.020  0.7184E+01  0.7378E+01  0.5876E+03
   9.030  0.6959E+01  0.7410E+01  0.5877E+03
   9.040  0.6687E+01  0.7253E+01  0.5879E+03
   9.050  0.6431E+01  0.6991E+01  0.5880E+03
   9.060  0.7170E+01  0.6670E+01  0.5882E+03
   9.070  0.6715E+01  0.6332E+01  0.5883E+03
   9.080  0.5311E+01  0.7083E+01  0.5884E+03
   9.090  0.5416E+01  0.6828E+01  0.5885E+03
   9.100  0.5702E+01  0.5306E+01  0.5887E+03
   9.110  0.5992E+01  0.5409E+01  0.5888E+03
   9.120  0.6265E+01  0.5695E+01  0.5889E+03
   9.130  0.6496E+01  0.5970E+01  0.5890E+03
   9.140  0.6675E+01  0.6208E+01  0.5891E+03
   9.150  0.6968E+01  0.6385E+01  0.5893E+03
   9.160  0.7235E+01  0.6542E+01  0.5894E+03
   9.170  0.7505E+01  0.6822E+01  0.5895E+03
   9.180  0.7793E+01  0.7094E+01  0.5897E+03
   9.190  0.8099E+01  0.7362E+01  0.5898E+03
   9.200  0.8401E+01  0.7645E+01  0.5900E+03
   9.210  0.8702E+01  0.7945E+01  0.5902E+03
   9.220  0.8995E+01  0.8260E+01  0.5903E+03
   9.230  0.9289E+01  0.8585E+01  0.5905E+03
   9.240  0.9589E+01  0.8893E+01  0.5907E+03
   9.250  0.9939E+01  0.9192E+01  0.5909E+03
   9.260  0.1032E+02  0.9493E+01  0.5911E+03
   9.270  0.1070E+02  0.9830E+01  0.5913E+03
   9.280  0.1107E+02  0.1023E+02  0.5915E+03
   9.290  0.1146E+02  0.1062E+02  0.5917E+03
   9.300  0.1187E+02  0.1101E+02  0.5919E+03
   9.310  0.1230E+02  0.1141E+02  0.5922E+03
   9.320  0.1276E+02  0.1182E+02  0.5924E+03
   9.330  0.1322E+02  0.1226E+02  0.5927E+03
   9.340  0.1365E+02  0.1272E+02  0.5929E+03
   9.350  0.1422E+02  0.1319E+02  0.5932E+03
   9.360  0.1494E+02  0.1366E+02  0.5935E+03
   9.370  0.1557E+02  0.1417E+02  0.5938E+03
   9.380  0.1630E+02  0.1484E+02  0.5941E+03
   9.390  0.1689E+02  0.1554E+02  0.5944E+03
   9.400  0.1724E+02  0.1634E+02  0.5947E+03
   9.410  0.1741E+02  0.1705E+02  0.5950E+03
   9.420  0.1729E+02  0.1757E+02  0.5954E+03
   9.430  0.1713E+02  0.1792E+02  0.5957E+03
   9.440  0.1738E+02  0.1793E+02  0.5961E+03
   9.450  0.1803E+02  0.1770E+02  0.5964E+03
   9.460  0.1703E+02  0.1778E+02  0.5968E+03
   9.470  0.1638E+02  0.1844E+02  0.5972E+03
   9.480  0.1555E+02  0.1670E+02  0.5975E+03
   9.490  0.1853E+02  0.1616E+02  0.5978E+03
   9.500  0.1762E+02  0.1514E+02  0.5982E+03
   9.510  0.1919E+02  0.1735E+02  0.5985E+03
   9.520  0.1854E+02  0.1615E+02  0.5989E+03
   9.530  0.1677E+02  0.1834E+02  0.5992E+03
   9.540  0.1613E+02  0.1870E+02  0.5996E+03
   9.550  0.1565E+02  0.1710E+02  0.5999E+03
   9.560  0.1525E+02  0.1656E+02  0.6002E+03
   9.570  0.1489E+02  0.1621E+02  0.6005E+03
   9.580  0.1475E+02  0.1579E+02  0.6008E+03
   9.590  0.1473E+02  0.1533E+02  0.6011E+03
   9.600  0.1450E+02  0.1506E+02  0.6014E+03
   9.610  0.1449E+02  0.1493E+02  0.6017E+03
   9.620  0.1500E+02  0.1473E+02  0.6020E+03
   9.630  0.1545E+02  0.1474E+02  0.6023E+03
   9.640  0.1572E+02  0.1530E+02  0.6026E+03
   9.650  0.1550E+02  0.1576E+02  0.6029E+03
   9.660  0.1495E+02  0.1598E+02  0.6033E+03
   9.670  0.1425E+02  0.1565E+02  0.6036E+03
   9.680  0.1319E+02  0.1491E+02  0.6039E+03
   9.690  0.1304E+02  0.1394E+02  0.6041E+03
   9.700  0.1468E+02  0.1259E+02  0.6044E+03
   9.710  0.1620E+02  0.1270E+02  0.6047E+03
   9.720  0.1716E+02  0.1410E+02  0.6050E+03
   9.730  0.1808E+02  0.1559E+02  0.6053E+03
   9.740  0.1894E+02  0.1660E+02  0.6057E+03
   9.750  0.1969E+02  0.1767E+02  0.6060E+03
   9.760  0.2023E+02  0.1855E+02  0.6064E+03
   9.770  0.2113E+02  0.1930E+02  0.6068E+03
   9.780  0.2053E+02  0.1967E+02  0.6072E+03
   9.790  0.1976E+02  0.1973E+02  0.6076E+03
   9.800  0.1950E+02  0.1964E+02  0.6080E+03
   9.810  0.1932E+02  0.1957E+02  0.6084E+03
   9.820  0.1930E+02  0.1960E+02  0.6088E+03
   9.830  0.1971E+02  0.1957E+02  0.6092E+03
   9.840  0.2047E+02  0.1980E+02  0.6096E+03
   9.850  0.2352E+02  0.2024E+02  0.6100E+03
   9.860  0.3050E+02  0.2156E+02  0.6104E+03
   9.870  0.3937E+02  0.2683E+02  0.6110E+03
   9.880  0.5082E+02  0.3312E+02  0.6118E+03
   9.890  0.5185E+02  0.4084E+02  0.6127E+03
   9.900  0.4388E+02  0.5011E+02  0.6136E+03
   9.910  0.3683E+02  0.5012E+02  0.6145E+03
   9.920  0.3125E+02  0.4465E+02  0.6154E+03
   9.930  0.3048E+02  0.3834E+02  0.6161E+03
   9.940  0.3238E+02  0.3464E+02  0.6167E+03
   9.950  0.3162E+02  0.3255E+02  0.6174E+03
   9.960  0.3622E+02  0.3175E+02  0.6180E+03
   9.970  0.3149E+02  0.3311E+02  0.6187E+03
   9.980  0.3043E+02  0.3710E+02  0.6194E+03
   9.990  0.3101E+02  0.2984E+02  0.6200E+03
  10.000  0.3158E+02  0.2972E+02  0.6206E+03
  10.010  0.3193E+02  0.3016E+02  0.6212E+03
  10.020  0.3200E+02  0.3066E+02  0.6219E+03
  10.030  0.3181E+02  0.3113E+02  0.6225E+03
  10.040  0.3138E+02  0.3134E+02  0.6231E+03
  10.050  0.3097E+02  0.3130E+02  0.6238E+03
  10.060  0.3077E+02  0.3119E+02  0.6244E+03
  10.070  0.3136E+02  0.3094E+02  0.6250E+03
  10.080  0.3260E+02  0.3078E+02  0.6256E+03
  10.090  0.3363E+02  0.3230E+02  0.6263E+03
  10.100  0.3476E+02  0.3323E+02  0.6269E+03
  10.110  0.3710E+02  0.3362E+02  0.6276E+03
  10.120  0.3525E+02  0.3472E+02  0.6283E+03
  10.130  0.3083E+02  0.3401E+02  0.6290E+03
  10.140  0.3001E+02  0.3397E+02  0.6297E+03
  10.150  0.2956E+02  0.3065E+02  0.6303E+03
  10.160  0.2957E+02  0.2878E+02  0.6309E+03
  10.170  0.2909E+02  0.2843E+02  0.6314E+03
  10.180  0.2795E+02  0.2941E+02  0.6320E+03
  10.190  0.2639E+02  0.2911E+02  0.6326E+03
  10.200  0.2413E+02  0.2804E+02  0.6331E+03
  10.210  0.2162E+02  0.2623E+02  0.6336E+03
  10.220  0.2065E+02  0.2354E+02  0.6341E+03
  10.230  0.2006E+02  0.2124E+02  0.6345E+03
  10.240  0.1948E+02  0.2069E+02  0.6349E+03
  10.250  0.1922E+02  0.2026E+02  0.6353E+03
  10.260  0.1934E+02  0.1970E+02  0.6357E+03
  10.270  0.1937E+02  0.1956E+02  0.6361E+03
  10.280  0.1932E+02  0.1942E+02  0.6365E+03
  10.290  0.1917E+02  0.1930E+02  0.6369E+03
  10.300  0.1652E+02  0.1921E+02  0.6372E+03
  10.310  0.1685E+02  0.1912E+02  0.6376E+03
  10.320  0.1881E+02  0.1758E+02  0.6380E+03
  10.330  0.2434E+02  0.1790E+02  0.6384E+03
  10.340  0.2755E+02  0.2114E+02  0.6388E+03
  10.350  0.2772E+02  0.2575E+02  0.6393E+03
  10.360  0.2828E+02  0.2756E+02  0.6399E+03
  10.370  0.3401E+02  0.2768E+02  0.6405E+03
  10.380  0.2926E+02  0.2840E+02  0.6410E+03
  10.390  0.2696E+02  0.3014E+02  0.6416E+03
  10.400  0.2461E+02  0.3198E+02  0.6422E+03
  10.410  0.2179E+02  0.2663E+02  0.6427E+03
  10.420  0.1906E+02  0.2400E+02  0.6432E+03
  10.430  0.1698E+02  0.2145E+02  0.6436E+03
  10.440  0.1645E+02  0.1858E+02  0.6440E+03
  10.450  0.1678E+02  0.1670E+02  0.6443E+03
  10.460  0.1738E+02  0.1607E+02  0.6446E+03
  10.470  0.1748E+02  0.1616E+02  0.6450E+03
  10.480  0.1683E+02  0.1667E+02  0.6453E+03
  10.490  0.1653E+02  0.1723E+02  0.6456E+03
  10.500  0.1647E+02  0.1748E+02  0.6460E+03
  10.510  0.1630E+02  0.1736E+02  0.6463E+03
  10.520  0.1620E+02  0.1696E+02  0.6466E+03
  10.530  0.1593E+02  0.1659E+02  0.6470E+03
  10.540  0.1551E+02  0.1634E+02  0.6473E+03
  10.550  0.1524E+02  0.1592E+02  0.6476E+03
  10.560  0.1510E+02  0.1529E+02  0.6479E+03
  10.570  0.1498E+02  0.1475E+02  0.6482E+03
  10.580  0.1510E+02  0.1440E+02  0.6485E+03
  10.590  0.1539E+02  0.1436E+02  0.6488E+03
  10.600  0.1578E+02  0.1450E+02  0.6491E+03
  10.610  0.1600E+02  0.1466E+02  0.6494E+03
  10.620  0.1628E+02  0.1510E+02  0.6497E+03
  10.630  0.1651E+02  0.1533E+02  0.6500E+03
  10.640  0.1683E+02  0.1555E+02  0.6504E+03
  10.650  0.1708E+02  0.1566E+02  0.6507E+03
  10.660  0.1740E+02  0.1645E+02  0.6510E+03
  10.670  0.1758E+02  0.1707E+02  0.6514E+03
  10.680  0.1745E+02  0.1757E+02  0.6517E+03
  10.690  0.1768E+02  0.1811E+02  0.6521E+03
  10.700  0.1798E+02  0.1771E+02  0.6524E+03
  10.710  0.1825E+02  0.1785E+02  0.6528E+03
  10.720  0.1922E+02  0.1772E+02  0.6531E+03
  10.730  0.2072E+02  0.1741E+02  0.6535E+03
  10.740  0.2030E+02  0.1695E+02  0.6539E+03
  10.750  0.1895E+02  0.1766E+02  0.6543E+03
  10.760  0.1778E+02  0.1801E+02  0.6546E+03
  10.770  0.1662E+02  0.1849E+02  0.6550E+03
  10.780  0.1544E+02  0.1842E+02  0.6553E+03
  10.790  0.1433E+02  0.1781E+02  0.6557E+03
  10.800  0.1303E+02  0.1687E+02  0.6560E+03
  10.810  0.1139E+02  0.1568E+02  0.6563E+03
  10.820  0.1091E+02  0.1399E+02  0.6565E+03
  10.830  0.9628E+01  0.1201E+02  0.6568E+03
  10.840  0.7832E+01  0.1132E+02  0.6570E+03
  10.850  0.6627E+01  0.1057E+02  0.6571E+03
  10.860  0.8142E+01  0.9400E+01  0.6573E+03
  10.870  0.1323E+02  0.7725E+01  0.6575E+03
  10.880  0.1257E+02  0.6750E+01  0.6577E+03
  10.890  0.1255E+02  0.1033E+02  0.6579E+03
  10.900  0.1243E+02  0.1120E+02  0.6581E+03
  10.910  0.1233E+02  0.1167E+02  0.6584E+03
  10.920  0.1236E+02  0.1220E+02  0.6586E+03
  10.930  0.1242E+02  0.1287E+02  0.6589E+03
  10.940  0.1188E+02  0.1355E+02  0.6591E+03
  10.950  0.1072E+02  0.1398E+02  0.6594E+03
  10.960  0.1176E+02  0.1285E+02  0.6596E+03
  10.970  0.8500E+01  0.1301E+02  0.6599E+03
  10.980  0.9459E+01  0.1248E+02  0.6601E+03
  10.990  0.1057E+02  0.1061E+02  0.6603E+03
  11.000  0.1176E+02  0.9150E+01  0.6605E+03
  11.010  0.1301E+02  0.1009E+02  0.6607E+03
  11.020  0.1504E+02  0.1114E+02  0.6610E+03
  11.030  0.1752E+02  0.1230E+02  0.6613E+03
  11.040  0.2036E+02  0.1425E+02  0.6616E+03
  11.050  0.2273E+02  0.1710E+02  0.6619E+03
  11.060  0.2414E+02  0.1988E+02  0.6624E+03
  11.070  0.2388E+02  0.2218E+02  0.6628E+03
  11.080  0.1830E+02  0.2401E+02  0.6633E+03
  11.090  0.1917E+02  0.2421E+02  0.6637E+03
  11.100  0.1804E+02  0.1887E+02  0.6641E+03
  11.110  0.1557E+02  0.1859E+02  0.6644E+03
  11.120  0.1216E+02  0.1713E+02  0.6648E+03
  11.130  0.1035E+02  0.1495E+02  0.6650E+03
  11.140  0.9050E+01  0.1287E+02  0.6653E+03
  11.150  0.8280E+01  0.1090E+02  0.6655E+03
  11.160  0.7971E+01  0.9069E+01  0.6657E+03
  11.170  0.7913E+01  0.7751E+01  0.6658E+03
  11.180  0.7680E+01  0.7364E+01  0.6660E+03
  11.190  0.7444E+01  0.7292E+01  0.6661E+03
  11.200  0.7731E+01  0.7243E+01  0.6663E+03
  11.210  0.7552E+01  0.7204E+01  0.6664E+03
  11.220  0.7618E+01  0.7187E+01  0.6666E+03
  11.230  0.8098E+01  0.7151E+01  0.6667E+03
  11.240  0.8541E+01  0.6832E+01  0.6669E+03
  11.250  0.8939E+01  0.7436E+01  0.6670E+03
  11.260  0.9294E+01  0.7443E+01  0.6672E+03
  11.270  0.9610E+01  0.7441E+01  0.6674E+03
  11.280  0.9889E+01  0.7445E+01  0.6675E+03
  11.290  0.1014E+02  0.7654E+01  0.6677E+03
  11.300  0.1038E+02  0.8532E+01  0.6679E+03
  11.310  0.1091E+02  0.9551E+01  0.6681E+03
  11.320  0.1100E+02  0.1072E+02  0.6683E+03
  11.330  0.1079E+02  0.1225E+02  0.6685E+03
  11.340  0.1095E+02  0.1287E+02  0.6688E+03
  11.350  0.1150E+02  0.1308E+02  0.6690E+03
  11.360  0.1234E+02  0.1321E+02  0.6693E+03
  11.370  0.1357E+02  0.1313E+02  0.6695E+03
  11.380  0.1478E+02  0.1357E+02  0.6698E+03
  11.390  0.1609E+02  0.1459E+02  0.6701E+03
  11.400  0.1764E+02  0.1579E+02  0.6704E+03
  11.410  0.1950E+02  0.1706E+02  0.6708E+03
  11.420  0.2127E+02  0.1862E+02  0.6711E+03
  11.430  0.2326E+02  0.2040E+02  0.6716E+03
  11.440  0.2424E+02  0.2232E+02  0.6720E+03
  11.450  0.2539E+02  0.2381E+02  0.6725E+03
  11.460  0.2690E+02  0.2531E+02  0.6730E+03
  11.470  0.2804E+02  0.2636E+02  0.6735E+03
  11.480  0.2844E+02  0.2770E+02  0.6741E+03
  11.490  0.2887E+02  0.2832E+02  0.6746E+03
  11.500  0.2904E+02  0.2880E+02  0.6752E+03
  11.510  0.2879E+02  0.2922E+02  0.6758E+03
  11.520  0.2762E+02  0.2889E+02  0.6764E+03
  11.530  0.2613E+02  0.2770E+02  0.6769E+03
  11.540  0.2334E+02  0.2607E+02  0.6774E+03
  11.550  0.2370E+02  0.2432E+02  0.6779E+03
  11.560  0.1991E+02  0.2255E+02  0.6784E+03
  11.570  0.2095E+02  0.2285E+02  0.6788E+03
  11.580  0.2176E+02  0.2203E+02  0.6792E+03
  11.590  0.2227E+02  0.2002E+02  0.6797E+03
  11.600  0.2257E+02  0.2034E+02  0.6801E+03
  11.610  0.2450E+02  0.2098E+02  0.6805E+03
  11.620  0.2418E+02  0.2139E+02  0.6810E+03
  11.630  0.2465E+02  0.2268E+02  0.6815E+03
  11.640  0.2627E+02  0.2385E+02  0.6820E+03
  11.650  0.2586E+02  0.2387E+02  0.6825E+03
  11.660  0.2651E+02  0.2564E+02  0.6830E+03
  11.670  0.2725E+02  0.2653E+02  0.6835E+03
  11.680  0.2812E+02  0.2604E+02  0.6840E+03
  11.690  0.2940E+02  0.2726E+02  0.6846E+03
  11.700  0.2807E+02  0.2891E+02  0.6852E+03
  11.710  0.2679E+02  0.2818E+02  0.6857E+03
  11.720  0.2708E+02  0.2525E+02  0.6863E+03
  11.730  0.2665E+02  0.2446E+02  0.6868E+03
  11.740  0.2395E+02  0.2766E+02  0.6873E+03
  11.750  0.2211E+02  0.2700E+02  0.6878E+03
  11.760  0.2121E+02  0.2369E+02  0.6883E+03
  11.770  0.2024E+02  0.2274E+02  0.6887E+03
  11.780  0.2105E+02  0.2235E+02  0.6891E+03
  11.790  0.2590E+02  0.2128E+02  0.6896E+03
  11.800  0.2479E+02  0.2168E+02  0.6900E+03
  11.810  0.2429E+02  0.2288E+02  0.6905E+03
  11.820  0.2360E+02  0.2474E+02  0.6910E+03
  11.830  0.2276E+02  0.2481E+02  0.6915E+03
  11.840  0.2181E+02  0.2427E+02  0.6920E+03
  11.850  0.2068E+02  0.2337E+02  0.6924E+03
  11.860  0.1961E+02  0.2236E+02  0.6929E+03
  11.870  0.1856E+02  0.2119E+02  0.6933E+03
  11.880  0.1741E+02  0.2021E+02  0.6936E+03
  11.890  0.1623E+02  0.1926E+02  0.6940E+03
  11.900  0.1486E+02  0.1815E+02  0.6944E+03
  11.910  0.1360E+02  0.1672E+02  0.6947E+03
  11.920  0.1242E+02  0.1512E+02  0.6950E+03
  11.930  0.1138E+02  0.1413E+02  0.6952E+03
  11.940  0.1042E+02  0.1296E+02  0.6955E+03
  11.950  0.9636E+01  0.1197E+02  0.6957E+03
  11.960  0.9325E+01  0.1094E+02  0.6959E+03
  11.970  0.9094E+01  0.9963E+01  0.6961E+03
  11.980  0.8952E+01  0.9948E+01  0.6963E+03
  11.990  0.8840E+01  0.9351E+01  0.6965E+03
  12.000  0.8365E+01  0.9566E+01  0.6967E+03
  12.010  0.7811E+01  0.9018E+01  0.6968E+03
  12.020  0.7179E+01  0.8509E+01  0.6970E+03
  12.030  0.6464E+01  0.7940E+01  0.6971E+03
  12.040  0.5653E+01  0.7307E+01  0.6973E+03
  12.050  0.4741E+01  0.6603E+01  0.6974E+03
  12.060  0.3898E+01  0.5803E+01  0.6975E+03
  12.070  0.3193E+01  0.4935E+01  0.6976E+03
  12.080  0.2632E+01  0.4038E+01  0.6977E+03
  12.090  0.2200E+01  0.3236E+01  0.6977E+03
  12.100  0.1888E+01  0.2650E+01  0.6978E+03
  12.110  0.1606E+01  0.2256E+01  0.6978E+03
  12.120  0.1349E+01  0.1938E+01  0.6979E+03
  12.130  0.1117E+01  0.1649E+01  0.6979E+03
  12.140  0.9086E+00  0.1383E+01  0.6979E+03
  12.150  0.7235E+00  0.1143E+01  0.6979E+03
  12.160  0.5612E+00  0.9259E+00  0.6979E+03
  12.170  0.4213E+00  0.7335E+00  0.6980E+03
  12.180  0.3038E+00  0.5654E+00  0.6980E+03
  12.190  0.2087E+00  0.4216E+00  0.6980E+03
  12.200  0.1361E+00  0.3020E+00  0.6980E+03
  12.210  0.8585E-01  0.2066E+00  0.6980E+03
  12.220  0.5724E-01  0.1356E+00  0.6980E+03
  12.230  0.4432E-01  0.8864E-01  0.6980E+03
  12.240  0.3875E-01  0.6169E-01  0.6980E+03
  12.250  0.3464E-01  0.4787E-01  0.6980E+03
  12.260  0.3091E-01  0.4210E-01  0.6980E+03
  12.270  0.2738E-01  0.3789E-01  0.6980E+03
  12.280  0.2407E-01  0.3408E-01  0.6980E+03
  12.290  0.2097E-01  0.3047E-01  0.6980E+03
  12.300  0.1809E-01  0.2706E-01  0.6980E+03
  12.310  0.1542E-01  0.2386E-01  0.6980E+03
  12.320  0.1296E-01  0.2085E-01  0.6980E+03
  12.330  0.1072E-01  0.1805E-01  0.6980E+03
  12.340  0.8691E-02  0.1546E-01  0.6980E+03
  12.350  0.6875E-02  0.1306E-01  0.6980E+03
  12.360  0.5272E-02  0.1087E-01  0.6980E+03
  12.370  0.3883E-02  0.8875E-02  0.6980E+03
  12.380  0.2707E-02  0.7086E-02  0.6980E+03
  12.390  0.1745E-02  0.5498E-02  0.6980E+03
  12.400  0.9967E-03  0.4113E-02  0.6980E+03
  12.410  0.4616E-03  0.2929E-02  0.6980E+03
  12.420  0.1400E-03  0.1948E-02  0.6980E+03
  12.430  0.1761E-04  0.1169E-02  0.6980E+03
  12.440  0.0000E+00  0.5918E-03  0.6980E+03
  12.450  0.0000E+00  0.2168E-03  0.6980E+03
  12.460  0.0000E+00  0.4259E-04  0.6980E+03
  12.470  0.0000E+00  0.0000E+00  0.6980E+03
  12.480  0.0000E+00  0.0000E+00  0.6980E+03
  12.490  0.0000E+00  0.0000E+00  0.6980E+03
  12.500  0.0000E+00  0.0000E+00  0.6980E+03
  12.510  0.0000E+00  0.0000E+00  0.6980E+03
  12.520  0.0000E+00  0.0000E+00  0.6980E+03
  12.530  0.0000E+00  0.0000E+00  0.6980E+03
  12.540  0.0000E+00  0.0000E+00  0.6980E+03
  12.550  0.0000E+00  0.0000E+00  0.6980E+03
  12.560  0.0000E+00  0.0000E+00  0.6980E+03
  12.570  0.0000E+00  0.0000E+00  0.6980E+03
  12.580  0.0000E+00  0.0000E+00  0.6980E+03
  12.590  0.0000E+00  0.0000E+00  0.6980E+03
  12.600  0.0000E+00  0.0000E+00  0.6980E+03
  12.610  0.0000E+00  0.0000E+00  0.6980E+03
  12.620  0.0000E+00  0.0000E+00  0.6980E+03
  12.630  0.0000E+00  0.0000E+00  0.6980E+03
  12.640  0.0000E+00  0.0000E+00  0.6980E+03
  12.650  0.0000E+00  0.0000E+00  0.6980E+03
  12.660  0.0000E+00  0.0000E+00  0.6980E+03
  12.670  0.0000E+00  0.0000E+00  0.6980E+03
  12.680  0.0000E+00  0.0000E+00  0.6980E+03
  12.690  0.0000E+00  0.0000E+00  0.6980E+03
  12.700  0.0000E+00  0.0000E+00  0.6980E+03
  12.710  0.0000E+00  0.0000E+00  0.6980E+03
  12.720  0.0000E+00  0.0000E+00  0.6980E+03
  12.730  0.0000E+00  0.0000E+00  0.6980E+03
  12.740  0.0000E+00  0.0000E+00  0.6980E+03
  12.750  0.0000E+00  0.0000E+00  0.6980E+03
  12.760  0.0000E+00  0.0000E+00  0.6980E+03
  12.770  0.0000E+00  0.0000E+00  0.6980E+03
  12.780  0.0000E+00  0.0000E+00  0.6980E+03
  12.790  0.0000E+00  0.0000E+00  0.6980E+03
  12.800  0.0000E+00  0.0000E+00  0.6980E+03
  12.810  0.0000E+00  0.0000E+00  0.6980E+03
  12.820  0.0000E+00  0.0000E+00  0.6980E+03
  12.830  0.0000E+00  0.0000E+00  0.6980E+03
  12.840  0.0000E+00  0.0000E+00  0.6980E+03
  12.850  0.0000E+00  0.0000E+00  0.6980E+03
  12.860  0.0000E+00  0.0000E+00  0.6980E+03
  12.870  0.0000E+00  0.0000E+00  0.6980E+03
  12.880  0.0000E+00  0.0000E+00  0.6980E+03
  12.890  0.0000E+00  0.0000E+00  0.6980E+03
  12.900  0.0000E+00  0.0000E+00  0.6980E+03
  12.910  0.0000E+00  0.0000E+00  0.6980E+03
  12.920  0.0000E+00  0.0000E+00  0.6980E+03
  12.930  0.0000E+00  0.0000E+00  0.6980E+03
  12.940  0.0000E+00  0.0000E+00  0.6980E+03
  12.950  0.0000E+00  0.0000E+00  0.6980E+03
  12.960  0.0000E+00  0.0000E+00  0.6980E+03
  12.970  0.0000E+00  0.0000E+00  0.6980E+03
  12.980  0.0000E+00  0.0000E+00  0.6980E+03
  12.990  0.0000E+00  0.0000E+00  0.6980E+03
  13.000  0.0000E+00  0.0000E+00  0.6980E+03
  13.010  0.0000E+00  0.0000E+00  0.6980E+03
  13.020  0.0000E+00  0.0000E+00  0.6980E+03
  13.030  0.0000E+00  0.0000E+00  0.6980E+03
  13.040  0.0000E+00  0.0000E+00  0.6980E+03
  13.050  0.0000E+00  0.0000E+00  0.6980E+03
  13.060  0.0000E+00  0.0000E+00  0.6980E+03
  13.070  0.0000E+00  0.0000E+00  0.6980E+03
  13.080  0.0000E+00  0.0000E+00  0.6980E+03
  13.090  0.0000E+00  0.0000E+00  0.6980E+03
  13.100  0.0000E+00  0.0000E+00  0.6980E+03
  13.110  0.0000E+00  0.0000E+00  0.6980E+03
  13.120  0.0000E+00  0.0000E+00  0.6980E+03
  13.130  0.0000E+00  0.0000E+00  0.6980E+03
  13.140  0.0000E+00  0.0000E+00  0.6980E+03
  13.150  0.0000E+00  0.0000E+00  0.6980E+03
  13.160  0.0000E+00  0.0000E+00  0.6980E+03
  13.170  0.0000E+00  0.0000E+00  0.6980E+03
  13.180  0.0000E+00  0.0000E+00  0.6980E+03
  13.190  0.0000E+00  0.0000E+00  0.6980E+03
  13.200  0.0000E+00  0.0000E+00  0.6980E+03
  13.210  0.0000E+00  0.0000E+00  0.6980E+03
  13.220  0.0000E+00  0.0000E+00  0.6980E+03
  13.230  0.0000E+00  0.0000E+00  0.6980E+03
  13.240  0.0000E+00  0.0000E+00  0.6980E+03
  13.250  0.0000E+00  0.0000E+00  0.6980E+03
  13.260  0.0000E+00  0.0000E+00  0.6980E+03
  13.270  0.0000E+00  0.0000E+00  0.6980E+03
  13.280  0.0000E+00  0.0000E+00  0.6980E+03
  13.290  0.0000E+00  0.0000E+00  0.6980E+03
  13.300  0.0000E+00  0.0000E+00  0.6980E+03
  13.310  0.0000E+00  0.0000E+00  0.6980E+03
  13.320  0.0000E+00  0.0000E+00  0.6980E+03
  13.330  0.0000E+00  0.0000E+00  0.6980E+03
  13.340  0.0000E+00  0.0000E+00  0.6980E+03
  13.350  0.0000E+00  0.0000E+00  0.6980E+03
  13.360  0.0000E+00  0.0000E+00  0.6980E+03
  13.370  0.0000E+00  0.0000E+00  0.6980E+03
  13.380  0.0000E+00  0.0000E+00  0.6980E+03
  13.390  0.0000E+00  0.0000E+00  0.6980E+03
  13.400  0.0000E+00  0.0000E+00  0.6980E+03
  13.410  0.0000E+00  0.0000E+00  0.6980E+03
  13.420  0.0000E+00  0.0000E+00  0.6980E+03
  13.430  0.0000E+00  0.0000E+00  0.6980E+03
  13.440  0.0000E+00  0.0000E+00  0.6980E+03
  13.450  0.0000E+00  0.0000E+00  0.6980E+03
  13.460  0.0000E+00  0.0000E+00  0.6980E+03
  13.470  0.0000E+00  0.0000E+00  0.6980E+03
  13.480  0.0000E+00  0.0000E+00  0.6980E+03
  13.490  0.0000E+00  0.0000E+00  0.6980E+03
  13.500  0.0000E+00  0.0000E+00  0.6980E+03
  13.510  0.0000E+00  0.0000E+00  0.6980E+03
  13.520  0.0000E+00  0.0000E+00  0.6980E+03
  13.530  0.0000E+00  0.0000E+00  0.6980E+03
  13.540  0.0000E+00  0.0000E+00  0.6980E+03
  13.550  0.0000E+00  0.0000E+00  0.6980E+03
  13.560  0.0000E+00  0.0000E+00  0.6980E+03
  13.570  0.0000E+00  0.0000E+00  0.6980E+03
  13.580  0.0000E+00  0.0000E+00  0.6980E+03
  13.590  0.0000E+00  0.0000E+00  0.6980E+03
  13.600  0.0000E+00  0.0000E+00  0.6980E+03
  13.610  0.0000E+00  0.0000E+00  0.6980E+03
  13.620  0.0000E+00  0.0000E+00  0.6980E+03
  13.630  0.0000E+00  0.0000E+00  0.6980E+03
  13.640  0.0000E+00  0.0000E+00  0.6980E+03
  13.650  0.0000E+00  0.0000E+00  0.6980E+03
  13.660  0.0000E+00  0.0000E+00  0.6980E+03
  13.670  0.0000E+00  0.0000E+00  0.6980E+03
  13.680  0.0000E+00  0.0000E+00  0.6980E+03
  13.690  0.0000E+00  0.0000E+00  0.6980E+03
  13.700  0.0000E+00  0.0000E+00  0.6980E+03
  13.710  0.0000E+00  0.0000E+00  0.6980E+03
  13.720  0.0000E+00  0.0000E+00  0.6980E+03
  13.730  0.0000E+00  0.0000E+00  0.6980E+03
  13.740  0.0000E+00  0.0000E+00  0.6980E+03
  13.750  0.0000E+00  0.0000E+00  0.6980E+03
  13.760  0.0000E+00  0.0000E+00  0.6980E+03
  13.770  0.0000E+00  0.0000E+00  0.6980E+03
  13.780  0.0000E+00  0.0000E+00  0.6980E+03
  13.790  0.0000E+00  0.0000E+00  0.6980E+03
  13.800  0.0000E+00  0.0000E+00  0.6980E+03
  13.810  0.0000E+00  0.0000E+00  0.6980E+03
  13.820  0.0000E+00  0.0000E+00  0.6980E+03
  13.830  0.0000E+00  0.0000E+00  0.6980E+03
  13.840  0.0000E+00  0.0000E+00  0.6980E+03
  13.850  0.0000E+00  0.0000E+00  0.6980E+03
  13.860  0.0000E+00  0.0000E+00  0.6980E+03
  13.870  0.0000E+00  0.0000E+00  0.6980E+03
  13.880  0.0000E+00  0.0000E+00  0.6980E+03
  13.890  0.0000E+00  0.0000E+00  0.6980E+03
  13.900  0.0000E+00  0.0000E+00  0.6980E+03
  13.910  0.0000E+00  0.0000E+00  0.6980E+03
  13.920  0.0000E+00  0.0000E+00  0.6980E+03
  13.930  0.0000E+00  0.0000E+00  0.6980E+03
  13.940  0.0000E+00  0.0000E+00  0.6980E+03
  13.950  0.0000E+00  0.0000E+00  0.6980E+03
  13.960  0.0000E+00  0.0000E+00  0.6980E+03
  13.970  0.0000E+00  0.0000E+00  0.6980E+03
  13.980  0.0000E+00  0.0000E+00  0.6980E+03
  13.990  0.0000E+00  0.0000E+00  0.6980E+03
  14.000  0.0000E+00  0.0000E+00  0.6980E+03
  14.010  0.0000E+00  0.0000E+00  0.6980E+03
  14.020  0.0000E+00  0.0000E+00  0.6980E+03
  14.030  0.0000E+00  0.0000E+00  0.6980E+03
  14.040  0.0000E+00  0.0000E+00  0.6980E+03
  14.050  0.0000E+00  0.0000E+00  0.6980E+03
  14.060  0.0000E+00  0.0000E+00  0.6980E+03
  14.070  0.0000E+00  0.0000E+00  0.6980E+03
  14.080  0.0000E+00  0.0000E+00  0.6980E+03
  14.090  0.0000E+00  0.0000E+00  0.6980E+03
  14.100  0.0000E+00  0.0000E+00  0.6980E+03
  14.110  0.0000E+00  0.0000E+00  0.6980E+03
  14.120  0.0000E+00  0.0000E+00  0.6980E+03
  14.130  0.0000E+00  0.0000E+00  0.6980E+03
  14.140  0.0000E+00  0.0000E+00  0.6980E+03
  14.150  0.0000E+00  0.0000E+00  0.6980E+03
  14.160  0.0000E+00  0.0000E+00  0.6980E+03
  14.170  0.0000E+00  0.0000E+00  0.6980E+03
  14.180  0.0000E+00  0.0000E+00  0.6980E+03
  14.190  0.0000E+00  0.0000E+00  0.6980E+03
  14.200  0.0000E+00  0.0000E+00  0.6980E+03
  14.210  0.0000E+00  0.0000E+00  0.6980E+03
  14.220  0.0000E+00  0.0000E+00  0.6980E+03
  14.230  0.0000E+00  0.0000E+00  0.6980E+03
  14.240  0.0000E+00  0.0000E+00  0.6980E+03
  14.250  0.0000E+00  0.0000E+00  0.6980E+03
  14.260  0.0000E+00  0.0000E+00  0.6980E+03
  14.270  0.0000E+00  0.0000E+00  0.6980E+03
  14.280  0.0000E+00  0.0000E+00  0.6980E+03
  14.290  0.0000E+00  0.0000E+00  0.6980E+03
  14.300  0.0000E+00  0.0000E+00  0.6980E+03
  14.310  0.0000E+00  0.0000E+00  0.6980E+03
  14.320  0.0000E+00  0.0000E+00  0.6980E+03
  14.330  0.0000E+00  0.0000E+00  0.6980E+03
  14.340  0.0000E+00  0.0000E+00  0.6980E+03
  14.350  0.0000E+00  0.0000E+00  0.6980E+03
  14.360  0.0000E+00  0.0000E+00  0.6980E+03
  14.370  0.0000E+00  0.0000E+00  0.6980E+03
  14.380  0.0000E+00  0.0000E+00  0.6980E+03
  14.390  0.0000E+00  0.0000E+00  0.6980E+03
  14.400  0.0000E+00  0.0000E+00  0.6980E+03
  14.410  0.0000E+00  0.0000E+00  0.6980E+03
  14.420  0.0000E+00  0.0000E+00  0.6980E+03
  14.430  0.0000E+00  0.0000E+00  0.6980E+03
  14.440  0.0000E+00  0.0000E+00  0.6980E+03
  14.450  0.0000E+00  0.0000E+00  0.6980E+03
  14.460  0.0000E+00  0.0000E+00  0.6980E+03
  14.470  0.0000E+00  0.0000E+00  0.6980E+03
  14.480  0.0000E+00  0.0000E+00  0.6980E+03
  14.490  0.0000E+00  0.0000E+00  0.6980E+03
  14.500  0.0000E+00  0.0000E+00  0.6980E+03
  14.510  0.0000E+00  0.0000E+00  0.6980E+03
  14.520  0.0000E+00  0.0000E+00  0.6980E+03
  14.530  0.0000E+00  0.0000E+00  0.6980E+03
  14.540  0.0000E+00  0.0000E+00  0.6980E+03
  14.550  0.0000E+00  0.0000E+00  0.6980E+03
  14.560  0.0000E+00  0.0000E+00  0.6980E+03
  14.570  0.0000E+00  0.0000E+00  0.6980E+03
  14.580  0.0000E+00  0.0000E+00  0.6980E+03
  14.590  0.0000E+00  0.0000E+00  0.6980E+03
  14.600  0.0000E+00  0.0000E+00  0.6980E+03
  14.610  0.0000E+00  0.0000E+00  0.6980E+03
  14.620  0.0000E+00  0.0000E+00  0.6980E+03
  14.630  0.0000E+00  0.0000E+00  0.6980E+03
  14.640  0.0000E+00  0.0000E+00  0.6980E+03
  14.650  0.0000E+00  0.0000E+00  0.6980E+03
  14.660  0.0000E+00  0.0000E+00  0.6980E+03
  14.670  0.0000E+00  0.0000E+00  0.6980E+03
  14.680  0.0000E+00  0.0000E+00  0.6980E+03
  14.690  0.0000E+00  0.0000E+00  0.6980E+03
  14.700  0.0000E+00  0.0000E+00  0.6980E+03
  14.710  0.0000E+00  0.0000E+00  0.6980E+03
  14.720  0.0000E+00  0.0000E+00  0.6980E+03
  14.730  0.0000E+00  0.0000E+00  0.6980E+03
  14.740  0.0000E+00  0.0000E+00  0.6980E+03
  14.750  0.0000E+00  0.0000E+00  0.6980E+03
  14.760  0.0000E+00  0.0000E+00  0.6980E+03
  14.770  0.0000E+00  0.0000E+00  0.6980E+03
  14.780  0.0000E+00  0.0000E+00  0.6980E+03
  14.790  0.0000E+00  0.0000E+00  0.6980E+03
  14.800  0.0000E+00  0.0000E+00  0.6980E+03
  14.810  0.0000E+00  0.0000E+00  0.6980E+03
  14.820  0.0000E+00  0.0000E+00  0.6980E+03
  14.830  0.0000E+00  0.0000E+00  0.6980E+03
  14.840  0.0000E+00  0.0000E+00  0.6980E+03
  14.850  0.0000E+00  0.0000E+00  0.6980E+03
  14.860  0.0000E+00  0.0000E+00  0.6980E+03
  14.870  0.0000E+00  0.0000E+00  0.6980E+03
  14.880  0.0000E+00  0.0000E+00  0.6980E+03
  14.890  0.0000E+00  0.0000E+00  0.6980E+03
  14.900  0.0000E+00  0.0000E+00  0.6980E+03
  14.910  0.0000E+00  0.0000E+00  0.6980E+03
  14.920  0.0000E+00  0.0000E+00  0.6980E+03
  14.930  0.0000E+00  0.0000E+00  0.6980E+03
  14.940  0.0000E+00  0.0000E+00  0.6980E+03
  14.950  0.0000E+00  0.0000E+00  0.6980E+03
  14.960  0.0000E+00  0.0000E+00  0.6980E+03
  14.970  0.0000E+00  0.0000E+00  0.6980E+03
  14.980  0.0000E+00  0.0000E+00  0.6980E+03
  14.990  0.0000E+00  0.0000E+00  0.6980E+03
  15.000  0.0000E+00  0.0000E+00  0.6980E+03
