#  E (eV)   dosup(E)     dosdw(E)   Int dos(E) EFermi =    5.623 eV
 -15.000  0.0000E+00  0.0000E+00  0.8000E+01
 -14.990  0.0000E+00  0.0000E+00  0.8000E+01
 -14.980  0.0000E+00  0.0000E+00  0.8000E+01
 -14.970  0.0000E+00  0.0000E+00  0.8000E+01
 -14.960  0.0000E+00  0.0000E+00  0.8000E+01
 -14.950  0.0000E+00  0.0000E+00  0.8000E+01
 -14.940  0.0000E+00  0.0000E+00  0.8000E+01
 -14.930  0.0000E+00  0.0000E+00  0.8000E+01
 -14.920  0.0000E+00  0.0000E+00  0.8000E+01
 -14.910  0.0000E+00  0.0000E+00  0.8000E+01
 -14.900  0.0000E+00  0.0000E+00  0.8000E+01
 -14.890  0.0000E+00  0.0000E+00  0.8000E+01
 -14.880  0.0000E+00  0.0000E+00  0.8000E+01
 -14.870  0.0000E+00  0.0000E+00  0.8000E+01
 -14.860  0.0000E+00  0.0000E+00  0.8000E+01
 -14.850  0.0000E+00  0.0000E+00  0.8000E+01
 -14.840  0.0000E+00  0.0000E+00  0.8000E+01
 -14.830  0.0000E+00  0.0000E+00  0.8000E+01
 -14.820  0.0000E+00  0.0000E+00  0.8000E+01
 -14.810  0.0000E+00  0.0000E+00  0.8000E+01
 -14.800  0.0000E+00  0.0000E+00  0.8000E+01
 -14.790  0.0000E+00  0.0000E+00  0.8000E+01
 -14.780  0.0000E+00  0.0000E+00  0.8000E+01
 -14.770  0.0000E+00  0.0000E+00  0.8000E+01
 -14.760  0.0000E+00  0.0000E+00  0.8000E+01
 -14.750  0.0000E+00  0.0000E+00  0.8000E+01
 -14.740  0.0000E+00  0.0000E+00  0.8000E+01
 -14.730  0.0000E+00  0.0000E+00  0.8000E+01
 -14.720  0.0000E+00  0.0000E+00  0.8000E+01
 -14.710  0.0000E+00  0.0000E+00  0.8000E+01
 -14.700  0.0000E+00  0.0000E+00  0.8000E+01
 -14.690  0.0000E+00  0.0000E+00  0.8000E+01
 -14.680  0.0000E+00  0.0000E+00  0.8000E+01
 -14.670  0.0000E+00  0.0000E+00  0.8000E+01
 -14.660  0.0000E+00  0.0000E+00  0.8000E+01
 -14.650  0.0000E+00  0.0000E+00  0.8000E+01
 -14.640  0.0000E+00  0.0000E+00  0.8000E+01
 -14.630  0.0000E+00  0.0000E+00  0.8000E+01
 -14.620  0.0000E+00  0.0000E+00  0.8000E+01
 -14.610  0.0000E+00  0.0000E+00  0.8000E+01
 -14.600  0.0000E+00  0.0000E+00  0.8000E+01
 -14.590  0.0000E+00  0.0000E+00  0.8000E+01
 -14.580  0.0000E+00  0.0000E+00  0.8000E+01
 -14.570  0.0000E+00  0.0000E+00  0.8000E+01
 -14.560  0.0000E+00  0.0000E+00  0.8000E+01
 -14.550  0.0000E+00  0.0000E+00  0.8000E+01
 -14.540  0.0000E+00  0.0000E+00  0.8000E+01
 -14.530  0.0000E+00  0.0000E+00  0.8000E+01
 -14.520  0.0000E+00  0.0000E+00  0.8000E+01
 -14.510  0.0000E+00  0.0000E+00  0.8000E+01
 -14.500  0.0000E+00  0.0000E+00  0.8000E+01
 -14.490  0.0000E+00  0.0000E+00  0.8000E+01
 -14.480  0.0000E+00  0.0000E+00  0.8000E+01
 -14.470  0.0000E+00  0.0000E+00  0.8000E+01
 -14.460  0.0000E+00  0.0000E+00  0.8000E+01
 -14.450  0.0000E+00  0.0000E+00  0.8000E+01
 -14.440  0.0000E+00  0.0000E+00  0.8000E+01
 -14.430  0.0000E+00  0.0000E+00  0.8000E+01
 -14.420  0.0000E+00  0.0000E+00  0.8000E+01
 -14.410  0.0000E+00  0.0000E+00  0.8000E+01
 -14.400  0.0000E+00  0.0000E+00  0.8000E+01
 -14.390  0.0000E+00  0.0000E+00  0.8000E+01
 -14.380  0.0000E+00  0.0000E+00  0.8000E+01
 -14.370  0.0000E+00  0.0000E+00  0.8000E+01
 -14.360  0.0000E+00  0.0000E+00  0.8000E+01
 -14.350  0.0000E+00  0.0000E+00  0.8000E+01
 -14.340  0.0000E+00  0.0000E+00  0.8000E+01
 -14.330  0.0000E+00  0.0000E+00  0.8000E+01
 -14.320  0.0000E+00  0.0000E+00  0.8000E+01
 -14.310  0.0000E+00  0.0000E+00  0.8000E+01
 -14.300  0.0000E+00  0.0000E+00  0.8000E+01
 -14.290  0.0000E+00  0.0000E+00  0.8000E+01
 -14.280  0.0000E+00  0.0000E+00  0.8000E+01
 -14.270  0.0000E+00  0.0000E+00  0.8000E+01
 -14.260  0.0000E+00  0.0000E+00  0.8000E+01
 -14.250  0.0000E+00  0.0000E+00  0.8000E+01
 -14.240  0.0000E+00  0.0000E+00  0.8000E+01
 -14.230  0.0000E+00  0.0000E+00  0.8000E+01
 -14.220  0.0000E+00  0.0000E+00  0.8000E+01
 -14.210  0.0000E+00  0.0000E+00  0.8000E+01
 -14.200  0.0000E+00  0.0000E+00  0.8000E+01
 -14.190  0.0000E+00  0.0000E+00  0.8000E+01
 -14.180  0.0000E+00  0.0000E+00  0.8000E+01
 -14.170  0.0000E+00  0.0000E+00  0.8000E+01
 -14.160  0.0000E+00  0.0000E+00  0.8000E+01
 -14.150  0.0000E+00  0.0000E+00  0.8000E+01
 -14.140  0.0000E+00  0.0000E+00  0.8000E+01
 -14.130  0.0000E+00  0.0000E+00  0.8000E+01
 -14.120  0.0000E+00  0.0000E+00  0.8000E+01
 -14.110  0.0000E+00  0.0000E+00  0.8000E+01
 -14.100  0.0000E+00  0.0000E+00  0.8000E+01
 -14.090  0.0000E+00  0.0000E+00  0.8000E+01
 -14.080  0.0000E+00  0.0000E+00  0.8000E+01
 -14.070  0.0000E+00  0.0000E+00  0.8000E+01
 -14.060  0.0000E+00  0.0000E+00  0.8000E+01
 -14.050  0.0000E+00  0.0000E+00  0.8000E+01
 -14.040  0.0000E+00  0.0000E+00  0.8000E+01
 -14.030  0.0000E+00  0.0000E+00  0.8000E+01
 -14.020  0.0000E+00  0.0000E+00  0.8000E+01
 -14.010  0.0000E+00  0.0000E+00  0.8000E+01
 -14.000  0.0000E+00  0.0000E+00  0.8000E+01
 -13.990  0.0000E+00  0.0000E+00  0.8000E+01
 -13.980  0.0000E+00  0.0000E+00  0.8000E+01
 -13.970  0.0000E+00  0.0000E+00  0.8000E+01
 -13.960  0.0000E+00  0.0000E+00  0.8000E+01
 -13.950  0.0000E+00  0.0000E+00  0.8000E+01
 -13.940  0.0000E+00  0.0000E+00  0.8000E+01
 -13.930  0.0000E+00  0.0000E+00  0.8000E+01
 -13.920  0.0000E+00  0.0000E+00  0.8000E+01
 -13.910  0.0000E+00  0.0000E+00  0.8000E+01
 -13.900  0.0000E+00  0.0000E+00  0.8000E+01
 -13.890  0.0000E+00  0.0000E+00  0.8000E+01
 -13.880  0.0000E+00  0.0000E+00  0.8000E+01
 -13.870  0.0000E+00  0.0000E+00  0.8000E+01
 -13.860  0.0000E+00  0.0000E+00  0.8000E+01
 -13.850  0.0000E+00  0.0000E+00  0.8000E+01
 -13.840  0.0000E+00  0.0000E+00  0.8000E+01
 -13.830  0.0000E+00  0.0000E+00  0.8000E+01
 -13.820  0.0000E+00  0.0000E+00  0.8000E+01
 -13.810  0.0000E+00  0.0000E+00  0.8000E+01
 -13.800  0.0000E+00  0.0000E+00  0.8000E+01
 -13.790  0.0000E+00  0.0000E+00  0.8000E+01
 -13.780  0.0000E+00  0.0000E+00  0.8000E+01
 -13.770  0.0000E+00  0.0000E+00  0.8000E+01
 -13.760  0.0000E+00  0.0000E+00  0.8000E+01
 -13.750  0.0000E+00  0.0000E+00  0.8000E+01
 -13.740  0.0000E+00  0.0000E+00  0.8000E+01
 -13.730  0.0000E+00  0.0000E+00  0.8000E+01
 -13.720  0.0000E+00  0.0000E+00  0.8000E+01
 -13.710  0.0000E+00  0.0000E+00  0.8000E+01
 -13.700  0.0000E+00  0.0000E+00  0.8000E+01
 -13.690  0.0000E+00  0.0000E+00  0.8000E+01
 -13.680  0.0000E+00  0.0000E+00  0.8000E+01
 -13.670  0.0000E+00  0.0000E+00  0.8000E+01
 -13.660  0.0000E+00  0.0000E+00  0.8000E+01
 -13.650  0.0000E+00  0.0000E+00  0.8000E+01
 -13.640  0.0000E+00  0.0000E+00  0.8000E+01
 -13.630  0.0000E+00  0.0000E+00  0.8000E+01
 -13.620  0.0000E+00  0.0000E+00  0.8000E+01
 -13.610  0.0000E+00  0.0000E+00  0.8000E+01
 -13.600  0.0000E+00  0.0000E+00  0.8000E+01
 -13.590  0.0000E+00  0.0000E+00  0.8000E+01
 -13.580  0.0000E+00  0.0000E+00  0.8000E+01
 -13.570  0.0000E+00  0.0000E+00  0.8000E+01
 -13.560  0.0000E+00  0.0000E+00  0.8000E+01
 -13.550  0.0000E+00  0.0000E+00  0.8000E+01
 -13.540  0.0000E+00  0.0000E+00  0.8000E+01
 -13.530  0.0000E+00  0.0000E+00  0.8000E+01
 -13.520  0.0000E+00  0.0000E+00  0.8000E+01
 -13.510  0.0000E+00  0.0000E+00  0.8000E+01
 -13.500  0.0000E+00  0.0000E+00  0.8000E+01
 -13.490  0.0000E+00  0.0000E+00  0.8000E+01
 -13.480  0.0000E+00  0.0000E+00  0.8000E+01
 -13.470  0.0000E+00  0.0000E+00  0.8000E+01
 -13.460  0.0000E+00  0.0000E+00  0.8000E+01
 -13.450  0.0000E+00  0.0000E+00  0.8000E+01
 -13.440  0.0000E+00  0.0000E+00  0.8000E+01
 -13.430  0.0000E+00  0.0000E+00  0.8000E+01
 -13.420  0.0000E+00  0.0000E+00  0.8000E+01
 -13.410  0.0000E+00  0.0000E+00  0.8000E+01
 -13.400  0.0000E+00  0.0000E+00  0.8000E+01
 -13.390  0.0000E+00  0.0000E+00  0.8000E+01
 -13.380  0.0000E+00  0.0000E+00  0.8000E+01
 -13.370  0.0000E+00  0.0000E+00  0.8000E+01
 -13.360  0.0000E+00  0.0000E+00  0.8000E+01
 -13.350  0.0000E+00  0.0000E+00  0.8000E+01
 -13.340  0.0000E+00  0.0000E+00  0.8000E+01
 -13.330  0.0000E+00  0.0000E+00  0.8000E+01
 -13.320  0.0000E+00  0.0000E+00  0.8000E+01
 -13.310  0.0000E+00  0.0000E+00  0.8000E+01
 -13.300  0.0000E+00  0.0000E+00  0.8000E+01
 -13.290  0.0000E+00  0.0000E+00  0.8000E+01
 -13.280  0.0000E+00  0.0000E+00  0.8000E+01
 -13.270  0.0000E+00  0.0000E+00  0.8000E+01
 -13.260  0.0000E+00  0.0000E+00  0.8000E+01
 -13.250  0.0000E+00  0.0000E+00  0.8000E+01
 -13.240  0.0000E+00  0.0000E+00  0.8000E+01
 -13.230  0.0000E+00  0.0000E+00  0.8000E+01
 -13.220  0.0000E+00  0.0000E+00  0.8000E+01
 -13.210  0.0000E+00  0.0000E+00  0.8000E+01
 -13.200  0.0000E+00  0.0000E+00  0.8000E+01
 -13.190  0.0000E+00  0.0000E+00  0.8000E+01
 -13.180  0.0000E+00  0.0000E+00  0.8000E+01
 -13.170  0.0000E+00  0.0000E+00  0.8000E+01
 -13.160  0.0000E+00  0.0000E+00  0.8000E+01
 -13.150  0.0000E+00  0.0000E+00  0.8000E+01
 -13.140  0.0000E+00  0.0000E+00  0.8000E+01
 -13.130  0.0000E+00  0.0000E+00  0.8000E+01
 -13.120  0.0000E+00  0.0000E+00  0.8000E+01
 -13.110  0.0000E+00  0.0000E+00  0.8000E+01
 -13.100  0.0000E+00  0.0000E+00  0.8000E+01
 -13.090  0.0000E+00  0.0000E+00  0.8000E+01
 -13.080  0.0000E+00  0.0000E+00  0.8000E+01
 -13.070  0.0000E+00  0.0000E+00  0.8000E+01
 -13.060  0.0000E+00  0.0000E+00  0.8000E+01
 -13.050  0.0000E+00  0.0000E+00  0.8000E+01
 -13.040  0.0000E+00  0.0000E+00  0.8000E+01
 -13.030  0.0000E+00  0.0000E+00  0.8000E+01
 -13.020  0.0000E+00  0.0000E+00  0.8000E+01
 -13.010  0.0000E+00  0.0000E+00  0.8000E+01
 -13.000  0.0000E+00  0.0000E+00  0.8000E+01
 -12.990  0.0000E+00  0.0000E+00  0.8000E+01
 -12.980  0.0000E+00  0.0000E+00  0.8000E+01
 -12.970  0.0000E+00  0.0000E+00  0.8000E+01
 -12.960  0.0000E+00  0.0000E+00  0.8000E+01
 -12.950  0.0000E+00  0.0000E+00  0.8000E+01
 -12.940  0.0000E+00  0.0000E+00  0.8000E+01
 -12.930  0.0000E+00  0.0000E+00  0.8000E+01
 -12.920  0.0000E+00  0.0000E+00  0.8000E+01
 -12.910  0.0000E+00  0.0000E+00  0.8000E+01
 -12.900  0.0000E+00  0.0000E+00  0.8000E+01
 -12.890  0.0000E+00  0.0000E+00  0.8000E+01
 -12.880  0.0000E+00  0.0000E+00  0.8000E+01
 -12.870  0.0000E+00  0.0000E+00  0.8000E+01
 -12.860  0.0000E+00  0.0000E+00  0.8000E+01
 -12.850  0.0000E+00  0.0000E+00  0.8000E+01
 -12.840  0.0000E+00  0.0000E+00  0.8000E+01
 -12.830  0.0000E+00  0.0000E+00  0.8000E+01
 -12.820  0.0000E+00  0.0000E+00  0.8000E+01
 -12.810  0.0000E+00  0.0000E+00  0.8000E+01
 -12.800  0.0000E+00  0.0000E+00  0.8000E+01
 -12.790  0.0000E+00  0.0000E+00  0.8000E+01
 -12.780  0.0000E+00  0.0000E+00  0.8000E+01
 -12.770  0.0000E+00  0.0000E+00  0.8000E+01
 -12.760  0.0000E+00  0.0000E+00  0.8000E+01
 -12.750  0.0000E+00  0.0000E+00  0.8000E+01
 -12.740  0.0000E+00  0.0000E+00  0.8000E+01
 -12.730  0.0000E+00  0.0000E+00  0.8000E+01
 -12.720  0.0000E+00  0.0000E+00  0.8000E+01
 -12.710  0.0000E+00  0.0000E+00  0.8000E+01
 -12.700  0.0000E+00  0.0000E+00  0.8000E+01
 -12.690  0.0000E+00  0.0000E+00  0.8000E+01
 -12.680  0.0000E+00  0.0000E+00  0.8000E+01
 -12.670  0.0000E+00  0.0000E+00  0.8000E+01
 -12.660  0.0000E+00  0.0000E+00  0.8000E+01
 -12.650  0.0000E+00  0.0000E+00  0.8000E+01
 -12.640  0.0000E+00  0.0000E+00  0.8000E+01
 -12.630  0.0000E+00  0.0000E+00  0.8000E+01
 -12.620  0.0000E+00  0.0000E+00  0.8000E+01
 -12.610  0.0000E+00  0.0000E+00  0.8000E+01
 -12.600  0.0000E+00  0.0000E+00  0.8000E+01
 -12.590  0.0000E+00  0.0000E+00  0.8000E+01
 -12.580  0.0000E+00  0.0000E+00  0.8000E+01
 -12.570  0.0000E+00  0.0000E+00  0.8000E+01
 -12.560  0.0000E+00  0.0000E+00  0.8000E+01
 -12.550  0.0000E+00  0.0000E+00  0.8000E+01
 -12.540  0.0000E+00  0.0000E+00  0.8000E+01
 -12.530  0.0000E+00  0.0000E+00  0.8000E+01
 -12.520  0.0000E+00  0.0000E+00  0.8000E+01
 -12.510  0.0000E+00  0.0000E+00  0.8000E+01
 -12.500  0.0000E+00  0.0000E+00  0.8000E+01
 -12.490  0.0000E+00  0.0000E+00  0.8000E+01
 -12.480  0.0000E+00  0.0000E+00  0.8000E+01
 -12.470  0.0000E+00  0.0000E+00  0.8000E+01
 -12.460  0.0000E+00  0.0000E+00  0.8000E+01
 -12.450  0.0000E+00  0.0000E+00  0.8000E+01
 -12.440  0.0000E+00  0.0000E+00  0.8000E+01
 -12.430  0.0000E+00  0.0000E+00  0.8000E+01
 -12.420  0.0000E+00  0.0000E+00  0.8000E+01
 -12.410  0.0000E+00  0.0000E+00  0.8000E+01
 -12.400  0.0000E+00  0.0000E+00  0.8000E+01
 -12.390  0.0000E+00  0.0000E+00  0.8000E+01
 -12.380  0.0000E+00  0.0000E+00  0.8000E+01
 -12.370  0.0000E+00  0.0000E+00  0.8000E+01
 -12.360  0.0000E+00  0.0000E+00  0.8000E+01
 -12.350  0.0000E+00  0.0000E+00  0.8000E+01
 -12.340  0.0000E+00  0.0000E+00  0.8000E+01
 -12.330  0.0000E+00  0.0000E+00  0.8000E+01
 -12.320  0.0000E+00  0.0000E+00  0.8000E+01
 -12.310  0.0000E+00  0.0000E+00  0.8000E+01
 -12.300  0.0000E+00  0.0000E+00  0.8000E+01
 -12.290  0.0000E+00  0.0000E+00  0.8000E+01
 -12.280  0.0000E+00  0.0000E+00  0.8000E+01
 -12.270  0.0000E+00  0.0000E+00  0.8000E+01
 -12.260  0.0000E+00  0.0000E+00  0.8000E+01
 -12.250  0.0000E+00  0.0000E+00  0.8000E+01
 -12.240  0.0000E+00  0.0000E+00  0.8000E+01
 -12.230  0.0000E+00  0.0000E+00  0.8000E+01
 -12.220  0.0000E+00  0.0000E+00  0.8000E+01
 -12.210  0.0000E+00  0.0000E+00  0.8000E+01
 -12.200  0.0000E+00  0.0000E+00  0.8000E+01
 -12.190  0.0000E+00  0.0000E+00  0.8000E+01
 -12.180  0.0000E+00  0.0000E+00  0.8000E+01
 -12.170  0.0000E+00  0.0000E+00  0.8000E+01
 -12.160  0.0000E+00  0.0000E+00  0.8000E+01
 -12.150  0.0000E+00  0.0000E+00  0.8000E+01
 -12.140  0.0000E+00  0.0000E+00  0.8000E+01
 -12.130  0.0000E+00  0.0000E+00  0.8000E+01
 -12.120  0.0000E+00  0.0000E+00  0.8000E+01
 -12.110  0.0000E+00  0.0000E+00  0.8000E+01
 -12.100  0.0000E+00  0.0000E+00  0.8000E+01
 -12.090  0.0000E+00  0.0000E+00  0.8000E+01
 -12.080  0.0000E+00  0.0000E+00  0.8000E+01
 -12.070  0.0000E+00  0.0000E+00  0.8000E+01
 -12.060  0.0000E+00  0.0000E+00  0.8000E+01
 -12.050  0.0000E+00  0.0000E+00  0.8000E+01
 -12.040  0.0000E+00  0.0000E+00  0.8000E+01
 -12.030  0.0000E+00  0.0000E+00  0.8000E+01
 -12.020  0.0000E+00  0.0000E+00  0.8000E+01
 -12.010  0.0000E+00  0.0000E+00  0.8000E+01
 -12.000  0.0000E+00  0.0000E+00  0.8000E+01
 -11.990  0.0000E+00  0.0000E+00  0.8000E+01
 -11.980  0.0000E+00  0.0000E+00  0.8000E+01
 -11.970  0.0000E+00  0.0000E+00  0.8000E+01
 -11.960  0.0000E+00  0.0000E+00  0.8000E+01
 -11.950  0.0000E+00  0.0000E+00  0.8000E+01
 -11.940  0.0000E+00  0.0000E+00  0.8000E+01
 -11.930  0.0000E+00  0.0000E+00  0.8000E+01
 -11.920  0.0000E+00  0.0000E+00  0.8000E+01
 -11.910  0.0000E+00  0.0000E+00  0.8000E+01
 -11.900  0.0000E+00  0.0000E+00  0.8000E+01
 -11.890  0.0000E+00  0.0000E+00  0.8000E+01
 -11.880  0.0000E+00  0.0000E+00  0.8000E+01
 -11.870  0.0000E+00  0.0000E+00  0.8000E+01
 -11.860  0.0000E+00  0.0000E+00  0.8000E+01
 -11.850  0.0000E+00  0.0000E+00  0.8000E+01
 -11.840  0.0000E+00  0.0000E+00  0.8000E+01
 -11.830  0.0000E+00  0.0000E+00  0.8000E+01
 -11.820  0.0000E+00  0.0000E+00  0.8000E+01
 -11.810  0.0000E+00  0.0000E+00  0.8000E+01
 -11.800  0.0000E+00  0.0000E+00  0.8000E+01
 -11.790  0.0000E+00  0.0000E+00  0.8000E+01
 -11.780  0.0000E+00  0.0000E+00  0.8000E+01
 -11.770  0.0000E+00  0.0000E+00  0.8000E+01
 -11.760  0.0000E+00  0.0000E+00  0.8000E+01
 -11.750  0.0000E+00  0.0000E+00  0.8000E+01
 -11.740  0.0000E+00  0.0000E+00  0.8000E+01
 -11.730  0.0000E+00  0.0000E+00  0.8000E+01
 -11.720  0.0000E+00  0.0000E+00  0.8000E+01
 -11.710  0.0000E+00  0.0000E+00  0.8000E+01
 -11.700  0.0000E+00  0.0000E+00  0.8000E+01
 -11.690  0.0000E+00  0.0000E+00  0.8000E+01
 -11.680  0.0000E+00  0.0000E+00  0.8000E+01
 -11.670  0.0000E+00  0.0000E+00  0.8000E+01
 -11.660  0.0000E+00  0.0000E+00  0.8000E+01
 -11.650  0.0000E+00  0.0000E+00  0.8000E+01
 -11.640  0.0000E+00  0.0000E+00  0.8000E+01
 -11.630  0.0000E+00  0.0000E+00  0.8000E+01
 -11.620  0.0000E+00  0.0000E+00  0.8000E+01
 -11.610  0.0000E+00  0.0000E+00  0.8000E+01
 -11.600  0.0000E+00  0.0000E+00  0.8000E+01
 -11.590  0.0000E+00  0.0000E+00  0.8000E+01
 -11.580  0.0000E+00  0.0000E+00  0.8000E+01
 -11.570  0.0000E+00  0.0000E+00  0.8000E+01
 -11.560  0.0000E+00  0.0000E+00  0.8000E+01
 -11.550  0.0000E+00  0.0000E+00  0.8000E+01
 -11.540  0.0000E+00  0.0000E+00  0.8000E+01
 -11.530  0.0000E+00  0.0000E+00  0.8000E+01
 -11.520  0.0000E+00  0.0000E+00  0.8000E+01
 -11.510  0.0000E+00  0.0000E+00  0.8000E+01
 -11.500  0.0000E+00  0.0000E+00  0.8000E+01
 -11.490  0.0000E+00  0.0000E+00  0.8000E+01
 -11.480  0.0000E+00  0.0000E+00  0.8000E+01
 -11.470  0.0000E+00  0.0000E+00  0.8000E+01
 -11.460  0.0000E+00  0.0000E+00  0.8000E+01
 -11.450  0.0000E+00  0.0000E+00  0.8000E+01
 -11.440  0.0000E+00  0.0000E+00  0.8000E+01
 -11.430  0.0000E+00  0.0000E+00  0.8000E+01
 -11.420  0.0000E+00  0.0000E+00  0.8000E+01
 -11.410  0.0000E+00  0.0000E+00  0.8000E+01
 -11.400  0.0000E+00  0.0000E+00  0.8000E+01
 -11.390  0.0000E+00  0.0000E+00  0.8000E+01
 -11.380  0.0000E+00  0.0000E+00  0.8000E+01
 -11.370  0.0000E+00  0.0000E+00  0.8000E+01
 -11.360  0.0000E+00  0.0000E+00  0.8000E+01
 -11.350  0.0000E+00  0.0000E+00  0.8000E+01
 -11.340  0.0000E+00  0.0000E+00  0.8000E+01
 -11.330  0.0000E+00  0.0000E+00  0.8000E+01
 -11.320  0.0000E+00  0.0000E+00  0.8000E+01
 -11.310  0.0000E+00  0.0000E+00  0.8000E+01
 -11.300  0.0000E+00  0.0000E+00  0.8000E+01
 -11.290  0.0000E+00  0.0000E+00  0.8000E+01
 -11.280  0.0000E+00  0.0000E+00  0.8000E+01
 -11.270  0.0000E+00  0.0000E+00  0.8000E+01
 -11.260  0.0000E+00  0.0000E+00  0.8000E+01
 -11.250  0.0000E+00  0.0000E+00  0.8000E+01
 -11.240  0.0000E+00  0.0000E+00  0.8000E+01
 -11.230  0.0000E+00  0.0000E+00  0.8000E+01
 -11.220  0.0000E+00  0.0000E+00  0.8000E+01
 -11.210  0.0000E+00  0.0000E+00  0.8000E+01
 -11.200  0.0000E+00  0.0000E+00  0.8000E+01
 -11.190  0.0000E+00  0.0000E+00  0.8000E+01
 -11.180  0.0000E+00  0.0000E+00  0.8000E+01
 -11.170  0.0000E+00  0.0000E+00  0.8000E+01
 -11.160  0.0000E+00  0.0000E+00  0.8000E+01
 -11.150  0.0000E+00  0.0000E+00  0.8000E+01
 -11.140  0.0000E+00  0.0000E+00  0.8000E+01
 -11.130  0.0000E+00  0.0000E+00  0.8000E+01
 -11.120  0.0000E+00  0.0000E+00  0.8000E+01
 -11.110  0.0000E+00  0.0000E+00  0.8000E+01
 -11.100  0.0000E+00  0.0000E+00  0.8000E+01
 -11.090  0.0000E+00  0.0000E+00  0.8000E+01
 -11.080  0.0000E+00  0.0000E+00  0.8000E+01
 -11.070  0.0000E+00  0.0000E+00  0.8000E+01
 -11.060  0.0000E+00  0.0000E+00  0.8000E+01
 -11.050  0.0000E+00  0.0000E+00  0.8000E+01
 -11.040  0.0000E+00  0.0000E+00  0.8000E+01
 -11.030  0.0000E+00  0.0000E+00  0.8000E+01
 -11.020  0.0000E+00  0.0000E+00  0.8000E+01
 -11.010  0.0000E+00  0.0000E+00  0.8000E+01
 -11.000  0.0000E+00  0.0000E+00  0.8000E+01
 -10.990  0.0000E+00  0.0000E+00  0.8000E+01
 -10.980  0.0000E+00  0.0000E+00  0.8000E+01
 -10.970  0.0000E+00  0.0000E+00  0.8000E+01
 -10.960  0.0000E+00  0.0000E+00  0.8000E+01
 -10.950  0.0000E+00  0.0000E+00  0.8000E+01
 -10.940  0.0000E+00  0.0000E+00  0.8000E+01
 -10.930  0.0000E+00  0.0000E+00  0.8000E+01
 -10.920  0.0000E+00  0.0000E+00  0.8000E+01
 -10.910  0.0000E+00  0.0000E+00  0.8000E+01
 -10.900  0.0000E+00  0.0000E+00  0.8000E+01
 -10.890  0.0000E+00  0.0000E+00  0.8000E+01
 -10.880  0.0000E+00  0.0000E+00  0.8000E+01
 -10.870  0.0000E+00  0.0000E+00  0.8000E+01
 -10.860  0.0000E+00  0.0000E+00  0.8000E+01
 -10.850  0.0000E+00  0.0000E+00  0.8000E+01
 -10.840  0.0000E+00  0.0000E+00  0.8000E+01
 -10.830  0.0000E+00  0.0000E+00  0.8000E+01
 -10.820  0.0000E+00  0.0000E+00  0.8000E+01
 -10.810  0.0000E+00  0.0000E+00  0.8000E+01
 -10.800  0.0000E+00  0.0000E+00  0.8000E+01
 -10.790  0.0000E+00  0.0000E+00  0.8000E+01
 -10.780  0.0000E+00  0.0000E+00  0.8000E+01
 -10.770  0.0000E+00  0.0000E+00  0.8000E+01
 -10.760  0.0000E+00  0.0000E+00  0.8000E+01
 -10.750  0.0000E+00  0.0000E+00  0.8000E+01
 -10.740  0.0000E+00  0.0000E+00  0.8000E+01
 -10.730  0.0000E+00  0.0000E+00  0.8000E+01
 -10.720  0.0000E+00  0.0000E+00  0.8000E+01
 -10.710  0.0000E+00  0.0000E+00  0.8000E+01
 -10.700  0.0000E+00  0.0000E+00  0.8000E+01
 -10.690  0.0000E+00  0.0000E+00  0.8000E+01
 -10.680  0.0000E+00  0.0000E+00  0.8000E+01
 -10.670  0.0000E+00  0.0000E+00  0.8000E+01
 -10.660  0.0000E+00  0.0000E+00  0.8000E+01
 -10.650  0.0000E+00  0.0000E+00  0.8000E+01
 -10.640  0.0000E+00  0.0000E+00  0.8000E+01
 -10.630  0.0000E+00  0.0000E+00  0.8000E+01
 -10.620  0.0000E+00  0.0000E+00  0.8000E+01
 -10.610  0.0000E+00  0.0000E+00  0.8000E+01
 -10.600  0.0000E+00  0.0000E+00  0.8000E+01
 -10.590  0.0000E+00  0.0000E+00  0.8000E+01
 -10.580  0.0000E+00  0.0000E+00  0.8000E+01
 -10.570  0.0000E+00  0.0000E+00  0.8000E+01
 -10.560  0.0000E+00  0.0000E+00  0.8000E+01
 -10.550  0.0000E+00  0.0000E+00  0.8000E+01
 -10.540  0.0000E+00  0.0000E+00  0.8000E+01
 -10.530  0.0000E+00  0.0000E+00  0.8000E+01
 -10.520  0.0000E+00  0.0000E+00  0.8000E+01
 -10.510  0.0000E+00  0.0000E+00  0.8000E+01
 -10.500  0.0000E+00  0.0000E+00  0.8000E+01
 -10.490  0.0000E+00  0.0000E+00  0.8000E+01
 -10.480  0.0000E+00  0.0000E+00  0.8000E+01
 -10.470  0.0000E+00  0.0000E+00  0.8000E+01
 -10.460  0.0000E+00  0.0000E+00  0.8000E+01
 -10.450  0.0000E+00  0.0000E+00  0.8000E+01
 -10.440  0.0000E+00  0.0000E+00  0.8000E+01
 -10.430  0.0000E+00  0.0000E+00  0.8000E+01
 -10.420  0.0000E+00  0.0000E+00  0.8000E+01
 -10.410  0.0000E+00  0.0000E+00  0.8000E+01
 -10.400  0.0000E+00  0.0000E+00  0.8000E+01
 -10.390  0.0000E+00  0.0000E+00  0.8000E+01
 -10.380  0.0000E+00  0.0000E+00  0.8000E+01
 -10.370  0.0000E+00  0.0000E+00  0.8000E+01
 -10.360  0.0000E+00  0.0000E+00  0.8000E+01
 -10.350  0.0000E+00  0.0000E+00  0.8000E+01
 -10.340  0.0000E+00  0.0000E+00  0.8000E+01
 -10.330  0.0000E+00  0.0000E+00  0.8000E+01
 -10.320  0.0000E+00  0.0000E+00  0.8000E+01
 -10.310  0.0000E+00  0.0000E+00  0.8000E+01
 -10.300  0.0000E+00  0.0000E+00  0.8000E+01
 -10.290  0.0000E+00  0.0000E+00  0.8000E+01
 -10.280  0.0000E+00  0.0000E+00  0.8000E+01
 -10.270  0.0000E+00  0.0000E+00  0.8000E+01
 -10.260  0.0000E+00  0.0000E+00  0.8000E+01
 -10.250  0.0000E+00  0.0000E+00  0.8000E+01
 -10.240  0.0000E+00  0.0000E+00  0.8000E+01
 -10.230  0.0000E+00  0.0000E+00  0.8000E+01
 -10.220  0.0000E+00  0.0000E+00  0.8000E+01
 -10.210  0.0000E+00  0.0000E+00  0.8000E+01
 -10.200  0.0000E+00  0.0000E+00  0.8000E+01
 -10.190  0.0000E+00  0.0000E+00  0.8000E+01
 -10.180  0.0000E+00  0.0000E+00  0.8000E+01
 -10.170  0.0000E+00  0.0000E+00  0.8000E+01
 -10.160  0.0000E+00  0.0000E+00  0.8000E+01
 -10.150  0.0000E+00  0.0000E+00  0.8000E+01
 -10.140  0.0000E+00  0.0000E+00  0.8000E+01
 -10.130  0.0000E+00  0.0000E+00  0.8000E+01
 -10.120  0.0000E+00  0.0000E+00  0.8000E+01
 -10.110  0.0000E+00  0.0000E+00  0.8000E+01
 -10.100  0.0000E+00  0.0000E+00  0.8000E+01
 -10.090  0.0000E+00  0.0000E+00  0.8000E+01
 -10.080  0.0000E+00  0.0000E+00  0.8000E+01
 -10.070  0.0000E+00  0.0000E+00  0.8000E+01
 -10.060  0.0000E+00  0.0000E+00  0.8000E+01
 -10.050  0.0000E+00  0.0000E+00  0.8000E+01
 -10.040  0.0000E+00  0.0000E+00  0.8000E+01
 -10.030  0.0000E+00  0.0000E+00  0.8000E+01
 -10.020  0.0000E+00  0.0000E+00  0.8000E+01
 -10.010  0.0000E+00  0.0000E+00  0.8000E+01
 -10.000  0.0000E+00  0.0000E+00  0.8000E+01
  -9.990  0.0000E+00  0.0000E+00  0.8000E+01
  -9.980  0.0000E+00  0.0000E+00  0.8000E+01
  -9.970  0.0000E+00  0.0000E+00  0.8000E+01
  -9.960  0.0000E+00  0.0000E+00  0.8000E+01
  -9.950  0.0000E+00  0.0000E+00  0.8000E+01
  -9.940  0.0000E+00  0.0000E+00  0.8000E+01
  -9.930  0.0000E+00  0.0000E+00  0.8000E+01
  -9.920  0.0000E+00  0.0000E+00  0.8000E+01
  -9.910  0.0000E+00  0.0000E+00  0.8000E+01
  -9.900  0.0000E+00  0.0000E+00  0.8000E+01
  -9.890  0.0000E+00  0.0000E+00  0.8000E+01
  -9.880  0.0000E+00  0.0000E+00  0.8000E+01
  -9.870  0.0000E+00  0.0000E+00  0.8000E+01
  -9.860  0.0000E+00  0.0000E+00  0.8000E+01
  -9.850  0.0000E+00  0.0000E+00  0.8000E+01
  -9.840  0.0000E+00  0.0000E+00  0.8000E+01
  -9.830  0.0000E+00  0.0000E+00  0.8000E+01
  -9.820  0.0000E+00  0.0000E+00  0.8000E+01
  -9.810  0.0000E+00  0.0000E+00  0.8000E+01
  -9.800  0.0000E+00  0.0000E+00  0.8000E+01
  -9.790  0.0000E+00  0.0000E+00  0.8000E+01
  -9.780  0.0000E+00  0.0000E+00  0.8000E+01
  -9.770  0.0000E+00  0.0000E+00  0.8000E+01
  -9.760  0.0000E+00  0.0000E+00  0.8000E+01
  -9.750  0.0000E+00  0.0000E+00  0.8000E+01
  -9.740  0.0000E+00  0.0000E+00  0.8000E+01
  -9.730  0.0000E+00  0.0000E+00  0.8000E+01
  -9.720  0.0000E+00  0.0000E+00  0.8000E+01
  -9.710  0.0000E+00  0.0000E+00  0.8000E+01
  -9.700  0.0000E+00  0.0000E+00  0.8000E+01
  -9.690  0.0000E+00  0.0000E+00  0.8000E+01
  -9.680  0.0000E+00  0.0000E+00  0.8000E+01
  -9.670  0.0000E+00  0.0000E+00  0.8000E+01
  -9.660  0.0000E+00  0.0000E+00  0.8000E+01
  -9.650  0.0000E+00  0.0000E+00  0.8000E+01
  -9.640  0.0000E+00  0.0000E+00  0.8000E+01
  -9.630  0.0000E+00  0.0000E+00  0.8000E+01
  -9.620  0.0000E+00  0.0000E+00  0.8000E+01
  -9.610  0.0000E+00  0.0000E+00  0.8000E+01
  -9.600  0.0000E+00  0.0000E+00  0.8000E+01
  -9.590  0.0000E+00  0.0000E+00  0.8000E+01
  -9.580  0.0000E+00  0.0000E+00  0.8000E+01
  -9.570  0.0000E+00  0.0000E+00  0.8000E+01
  -9.560  0.0000E+00  0.0000E+00  0.8000E+01
  -9.550  0.0000E+00  0.0000E+00  0.8000E+01
  -9.540  0.0000E+00  0.0000E+00  0.8000E+01
  -9.530  0.0000E+00  0.0000E+00  0.8000E+01
  -9.520  0.0000E+00  0.0000E+00  0.8000E+01
  -9.510  0.0000E+00  0.0000E+00  0.8000E+01
  -9.500  0.0000E+00  0.0000E+00  0.8000E+01
  -9.490  0.0000E+00  0.0000E+00  0.8000E+01
  -9.480  0.0000E+00  0.0000E+00  0.8000E+01
  -9.470  0.0000E+00  0.0000E+00  0.8000E+01
  -9.460  0.0000E+00  0.0000E+00  0.8000E+01
  -9.450  0.0000E+00  0.0000E+00  0.8000E+01
  -9.440  0.0000E+00  0.0000E+00  0.8000E+01
  -9.430  0.0000E+00  0.0000E+00  0.8000E+01
  -9.420  0.0000E+00  0.0000E+00  0.8000E+01
  -9.410  0.0000E+00  0.0000E+00  0.8000E+01
  -9.400  0.0000E+00  0.0000E+00  0.8000E+01
  -9.390  0.0000E+00  0.0000E+00  0.8000E+01
  -9.380  0.0000E+00  0.0000E+00  0.8000E+01
  -9.370  0.0000E+00  0.0000E+00  0.8000E+01
  -9.360  0.0000E+00  0.0000E+00  0.8000E+01
  -9.350  0.0000E+00  0.0000E+00  0.8000E+01
  -9.340  0.0000E+00  0.0000E+00  0.8000E+01
  -9.330  0.0000E+00  0.0000E+00  0.8000E+01
  -9.320  0.0000E+00  0.0000E+00  0.8000E+01
  -9.310  0.0000E+00  0.0000E+00  0.8000E+01
  -9.300  0.0000E+00  0.0000E+00  0.8000E+01
  -9.290  0.0000E+00  0.0000E+00  0.8000E+01
  -9.280  0.0000E+00  0.0000E+00  0.8000E+01
  -9.270  0.0000E+00  0.0000E+00  0.8000E+01
  -9.260  0.0000E+00  0.0000E+00  0.8000E+01
  -9.250  0.0000E+00  0.0000E+00  0.8000E+01
  -9.240  0.0000E+00  0.0000E+00  0.8000E+01
  -9.230  0.0000E+00  0.0000E+00  0.8000E+01
  -9.220  0.0000E+00  0.0000E+00  0.8000E+01
  -9.210  0.0000E+00  0.0000E+00  0.8000E+01
  -9.200  0.0000E+00  0.0000E+00  0.8000E+01
  -9.190  0.0000E+00  0.0000E+00  0.8000E+01
  -9.180  0.0000E+00  0.0000E+00  0.8000E+01
  -9.170  0.0000E+00  0.0000E+00  0.8000E+01
  -9.160  0.0000E+00  0.0000E+00  0.8000E+01
  -9.150  0.0000E+00  0.0000E+00  0.8000E+01
  -9.140  0.0000E+00  0.0000E+00  0.8000E+01
  -9.130  0.0000E+00  0.0000E+00  0.8000E+01
  -9.120  0.0000E+00  0.0000E+00  0.8000E+01
  -9.110  0.0000E+00  0.0000E+00  0.8000E+01
  -9.100  0.0000E+00  0.0000E+00  0.8000E+01
  -9.090  0.0000E+00  0.0000E+00  0.8000E+01
  -9.080  0.0000E+00  0.0000E+00  0.8000E+01
  -9.070  0.0000E+00  0.0000E+00  0.8000E+01
  -9.060  0.0000E+00  0.0000E+00  0.8000E+01
  -9.050  0.0000E+00  0.0000E+00  0.8000E+01
  -9.040  0.0000E+00  0.0000E+00  0.8000E+01
  -9.030  0.0000E+00  0.0000E+00  0.8000E+01
  -9.020  0.0000E+00  0.0000E+00  0.8000E+01
  -9.010  0.0000E+00  0.0000E+00  0.8000E+01
  -9.000  0.0000E+00  0.0000E+00  0.8000E+01
  -8.990  0.0000E+00  0.0000E+00  0.8000E+01
  -8.980  0.0000E+00  0.0000E+00  0.8000E+01
  -8.970  0.0000E+00  0.0000E+00  0.8000E+01
  -8.960  0.0000E+00  0.0000E+00  0.8000E+01
  -8.950  0.0000E+00  0.0000E+00  0.8000E+01
  -8.940  0.0000E+00  0.0000E+00  0.8000E+01
  -8.930  0.0000E+00  0.0000E+00  0.8000E+01
  -8.920  0.0000E+00  0.0000E+00  0.8000E+01
  -8.910  0.0000E+00  0.0000E+00  0.8000E+01
  -8.900  0.0000E+00  0.0000E+00  0.8000E+01
  -8.890  0.0000E+00  0.0000E+00  0.8000E+01
  -8.880  0.0000E+00  0.0000E+00  0.8000E+01
  -8.870  0.0000E+00  0.0000E+00  0.8000E+01
  -8.860  0.0000E+00  0.0000E+00  0.8000E+01
  -8.850  0.0000E+00  0.0000E+00  0.8000E+01
  -8.840  0.0000E+00  0.0000E+00  0.8000E+01
  -8.830  0.0000E+00  0.0000E+00  0.8000E+01
  -8.820  0.0000E+00  0.0000E+00  0.8000E+01
  -8.810  0.0000E+00  0.0000E+00  0.8000E+01
  -8.800  0.0000E+00  0.0000E+00  0.8000E+01
  -8.790  0.0000E+00  0.0000E+00  0.8000E+01
  -8.780  0.0000E+00  0.0000E+00  0.8000E+01
  -8.770  0.0000E+00  0.0000E+00  0.8000E+01
  -8.760  0.0000E+00  0.0000E+00  0.8000E+01
  -8.750  0.0000E+00  0.0000E+00  0.8000E+01
  -8.740  0.0000E+00  0.0000E+00  0.8000E+01
  -8.730  0.0000E+00  0.0000E+00  0.8000E+01
  -8.720  0.0000E+00  0.0000E+00  0.8000E+01
  -8.710  0.0000E+00  0.0000E+00  0.8000E+01
  -8.700  0.0000E+00  0.0000E+00  0.8000E+01
  -8.690  0.0000E+00  0.0000E+00  0.8000E+01
  -8.680  0.0000E+00  0.0000E+00  0.8000E+01
  -8.670  0.0000E+00  0.0000E+00  0.8000E+01
  -8.660  0.0000E+00  0.0000E+00  0.8000E+01
  -8.650  0.0000E+00  0.0000E+00  0.8000E+01
  -8.640  0.0000E+00  0.0000E+00  0.8000E+01
  -8.630  0.0000E+00  0.0000E+00  0.8000E+01
  -8.620  0.0000E+00  0.0000E+00  0.8000E+01
  -8.610  0.0000E+00  0.0000E+00  0.8000E+01
  -8.600  0.0000E+00  0.0000E+00  0.8000E+01
  -8.590  0.0000E+00  0.0000E+00  0.8000E+01
  -8.580  0.0000E+00  0.0000E+00  0.8000E+01
  -8.570  0.0000E+00  0.0000E+00  0.8000E+01
  -8.560  0.0000E+00  0.0000E+00  0.8000E+01
  -8.550  0.0000E+00  0.0000E+00  0.8000E+01
  -8.540  0.0000E+00  0.0000E+00  0.8000E+01
  -8.530  0.0000E+00  0.0000E+00  0.8000E+01
  -8.520  0.0000E+00  0.0000E+00  0.8000E+01
  -8.510  0.0000E+00  0.0000E+00  0.8000E+01
  -8.500  0.0000E+00  0.0000E+00  0.8000E+01
  -8.490  0.0000E+00  0.0000E+00  0.8000E+01
  -8.480  0.0000E+00  0.0000E+00  0.8000E+01
  -8.470  0.0000E+00  0.0000E+00  0.8000E+01
  -8.460  0.0000E+00  0.0000E+00  0.8000E+01
  -8.450  0.0000E+00  0.0000E+00  0.8000E+01
  -8.440  0.0000E+00  0.0000E+00  0.8000E+01
  -8.430  0.0000E+00  0.0000E+00  0.8000E+01
  -8.420  0.0000E+00  0.0000E+00  0.8000E+01
  -8.410  0.0000E+00  0.0000E+00  0.8000E+01
  -8.400  0.0000E+00  0.0000E+00  0.8000E+01
  -8.390  0.0000E+00  0.0000E+00  0.8000E+01
  -8.380  0.0000E+00  0.0000E+00  0.8000E+01
  -8.370  0.0000E+00  0.0000E+00  0.8000E+01
  -8.360  0.0000E+00  0.0000E+00  0.8000E+01
  -8.350  0.0000E+00  0.0000E+00  0.8000E+01
  -8.340  0.0000E+00  0.0000E+00  0.8000E+01
  -8.330  0.0000E+00  0.0000E+00  0.8000E+01
  -8.320  0.0000E+00  0.0000E+00  0.8000E+01
  -8.310  0.0000E+00  0.0000E+00  0.8000E+01
  -8.300  0.0000E+00  0.0000E+00  0.8000E+01
  -8.290  0.0000E+00  0.0000E+00  0.8000E+01
  -8.280  0.0000E+00  0.0000E+00  0.8000E+01
  -8.270  0.0000E+00  0.0000E+00  0.8000E+01
  -8.260  0.0000E+00  0.0000E+00  0.8000E+01
  -8.250  0.0000E+00  0.0000E+00  0.8000E+01
  -8.240  0.0000E+00  0.0000E+00  0.8000E+01
  -8.230  0.0000E+00  0.0000E+00  0.8000E+01
  -8.220  0.0000E+00  0.0000E+00  0.8000E+01
  -8.210  0.0000E+00  0.0000E+00  0.8000E+01
  -8.200  0.0000E+00  0.0000E+00  0.8000E+01
  -8.190  0.0000E+00  0.0000E+00  0.8000E+01
  -8.180  0.0000E+00  0.0000E+00  0.8000E+01
  -8.170  0.0000E+00  0.0000E+00  0.8000E+01
  -8.160  0.0000E+00  0.0000E+00  0.8000E+01
  -8.150  0.0000E+00  0.0000E+00  0.8000E+01
  -8.140  0.0000E+00  0.0000E+00  0.8000E+01
  -8.130  0.0000E+00  0.0000E+00  0.8000E+01
  -8.120  0.0000E+00  0.0000E+00  0.8000E+01
  -8.110  0.0000E+00  0.0000E+00  0.8000E+01
  -8.100  0.0000E+00  0.0000E+00  0.8000E+01
  -8.090  0.0000E+00  0.0000E+00  0.8000E+01
  -8.080  0.0000E+00  0.0000E+00  0.8000E+01
  -8.070  0.0000E+00  0.0000E+00  0.8000E+01
  -8.060  0.0000E+00  0.0000E+00  0.8000E+01
  -8.050  0.0000E+00  0.0000E+00  0.8000E+01
  -8.040  0.0000E+00  0.0000E+00  0.8000E+01
  -8.030  0.0000E+00  0.0000E+00  0.8000E+01
  -8.020  0.0000E+00  0.0000E+00  0.8000E+01
  -8.010  0.0000E+00  0.0000E+00  0.8000E+01
  -8.000  0.0000E+00  0.0000E+00  0.8000E+01
  -7.990  0.0000E+00  0.0000E+00  0.8000E+01
  -7.980  0.0000E+00  0.0000E+00  0.8000E+01
  -7.970  0.0000E+00  0.0000E+00  0.8000E+01
  -7.960  0.0000E+00  0.0000E+00  0.8000E+01
  -7.950  0.0000E+00  0.0000E+00  0.8000E+01
  -7.940  0.0000E+00  0.0000E+00  0.8000E+01
  -7.930  0.0000E+00  0.0000E+00  0.8000E+01
  -7.920  0.0000E+00  0.0000E+00  0.8000E+01
  -7.910  0.0000E+00  0.0000E+00  0.8000E+01
  -7.900  0.0000E+00  0.0000E+00  0.8000E+01
  -7.890  0.0000E+00  0.0000E+00  0.8000E+01
  -7.880  0.0000E+00  0.0000E+00  0.8000E+01
  -7.870  0.0000E+00  0.0000E+00  0.8000E+01
  -7.860  0.0000E+00  0.0000E+00  0.8000E+01
  -7.850  0.0000E+00  0.0000E+00  0.8000E+01
  -7.840  0.0000E+00  0.0000E+00  0.8000E+01
  -7.830  0.0000E+00  0.0000E+00  0.8000E+01
  -7.820  0.0000E+00  0.0000E+00  0.8000E+01
  -7.810  0.0000E+00  0.0000E+00  0.8000E+01
  -7.800  0.0000E+00  0.0000E+00  0.8000E+01
  -7.790  0.0000E+00  0.0000E+00  0.8000E+01
  -7.780  0.0000E+00  0.0000E+00  0.8000E+01
  -7.770  0.0000E+00  0.0000E+00  0.8000E+01
  -7.760  0.0000E+00  0.0000E+00  0.8000E+01
  -7.750  0.0000E+00  0.0000E+00  0.8000E+01
  -7.740  0.0000E+00  0.0000E+00  0.8000E+01
  -7.730  0.0000E+00  0.0000E+00  0.8000E+01
  -7.720  0.0000E+00  0.0000E+00  0.8000E+01
  -7.710  0.0000E+00  0.0000E+00  0.8000E+01
  -7.700  0.0000E+00  0.0000E+00  0.8000E+01
  -7.690  0.0000E+00  0.0000E+00  0.8000E+01
  -7.680  0.0000E+00  0.0000E+00  0.8000E+01
  -7.670  0.0000E+00  0.0000E+00  0.8000E+01
  -7.660  0.0000E+00  0.0000E+00  0.8000E+01
  -7.650  0.0000E+00  0.0000E+00  0.8000E+01
  -7.640  0.0000E+00  0.0000E+00  0.8000E+01
  -7.630  0.3507E-03  0.0000E+00  0.8000E+01
  -7.620  0.3524E-01  0.0000E+00  0.8000E+01
  -7.610  0.3245E+00  0.1220E-01  0.8002E+01
  -7.600  0.9658E+00  0.1716E+00  0.8008E+01
  -7.590  0.1845E+01  0.6747E+00  0.8026E+01
  -7.580  0.2488E+01  0.1515E+01  0.8059E+01
  -7.570  0.2824E+01  0.2286E+01  0.8105E+01
  -7.560  0.2936E+01  0.2732E+01  0.8159E+01
  -7.550  0.2993E+01  0.2945E+01  0.8218E+01
  -7.540  0.3115E+01  0.3022E+01  0.8278E+01
  -7.530  0.3250E+01  0.3158E+01  0.8340E+01
  -7.520  0.3542E+01  0.3290E+01  0.8407E+01
  -7.510  0.4036E+01  0.3549E+01  0.8478E+01
  -7.500  0.4522E+01  0.4020E+01  0.8559E+01
  -7.490  0.5147E+01  0.4569E+01  0.8650E+01
  -7.480  0.5822E+01  0.5179E+01  0.8753E+01
  -7.470  0.6100E+01  0.5916E+01  0.8869E+01
  -7.460  0.5949E+01  0.6216E+01  0.8991E+01
  -7.450  0.5675E+01  0.5978E+01  0.9110E+01
  -7.440  0.5828E+01  0.5502E+01  0.9224E+01
  -7.430  0.6810E+01  0.5363E+01  0.9341E+01
  -7.420  0.8202E+01  0.5999E+01  0.9472E+01
  -7.410  0.9429E+01  0.7339E+01  0.9627E+01
  -7.400  0.9960E+01  0.8634E+01  0.9804E+01
  -7.390  0.1007E+02  0.1009E+02  0.9998E+01
  -7.380  0.9992E+01  0.1049E+02  0.1020E+02
  -7.370  0.9753E+01  0.1053E+02  0.1041E+02
  -7.360  0.9325E+01  0.1034E+02  0.1061E+02
  -7.350  0.8816E+01  0.9839E+01  0.1080E+02
  -7.340  0.8433E+01  0.9213E+01  0.1098E+02
  -7.330  0.8276E+01  0.8546E+01  0.1115E+02
  -7.320  0.8369E+01  0.7881E+01  0.1132E+02
  -7.310  0.8275E+01  0.7179E+01  0.1148E+02
  -7.300  0.8044E+01  0.6817E+01  0.1163E+02
  -7.290  0.1202E+02  0.7028E+01  0.1179E+02
  -7.280  0.9287E+01  0.1021E+02  0.1197E+02
  -7.270  0.7334E+01  0.9513E+01  0.1216E+02
  -7.260  0.9328E+01  0.8288E+01  0.1233E+02
  -7.250  0.1084E+02  0.8876E+01  0.1251E+02
  -7.240  0.1232E+02  0.1095E+02  0.1272E+02
  -7.230  0.1366E+02  0.1253E+02  0.1297E+02
  -7.220  0.1479E+02  0.1403E+02  0.1325E+02
  -7.210  0.1237E+02  0.1531E+02  0.1353E+02
  -7.200  0.9332E+01  0.1254E+02  0.1378E+02
  -7.190  0.9639E+01  0.1081E+02  0.1399E+02
  -7.180  0.1045E+02  0.9530E+01  0.1419E+02
  -7.170  0.1167E+02  0.9785E+01  0.1440E+02
  -7.160  0.1140E+02  0.1034E+02  0.1462E+02
  -7.150  0.1451E+02  0.1100E+02  0.1485E+02
  -7.140  0.1736E+02  0.1287E+02  0.1513E+02
  -7.130  0.1805E+02  0.1520E+02  0.1545E+02
  -7.120  0.1666E+02  0.1523E+02  0.1578E+02
  -7.110  0.1681E+02  0.1618E+02  0.1610E+02
  -7.100  0.1816E+02  0.1372E+02  0.1642E+02
  -7.090  0.1541E+02  0.1428E+02  0.1674E+02
  -7.080  0.1566E+02  0.1595E+02  0.1703E+02
  -7.070  0.1926E+02  0.2172E+02  0.1739E+02
  -7.060  0.2368E+02  0.1799E+02  0.1782E+02
  -7.050  0.2701E+02  0.2028E+02  0.1827E+02
  -7.040  0.1322E+02  0.2391E+02  0.1867E+02
  -7.030  0.1250E+02  0.2266E+02  0.1906E+02
  -7.020  0.1354E+02  0.1324E+02  0.1936E+02
  -7.010  0.1585E+02  0.1294E+02  0.1963E+02
  -7.000  0.2669E+02  0.1478E+02  0.1997E+02
  -6.990  0.1797E+02  0.2376E+02  0.2036E+02
  -6.980  0.1619E+02  0.1745E+02  0.2072E+02
  -6.970  0.1715E+02  0.1773E+02  0.2106E+02
  -6.960  0.1924E+02  0.1877E+02  0.2142E+02
  -6.950  0.2378E+02  0.1897E+02  0.2182E+02
  -6.940  0.2791E+02  0.1919E+02  0.2228E+02
  -6.930  0.2652E+02  0.2472E+02  0.2277E+02
  -6.920  0.2255E+02  0.2419E+02  0.2332E+02
  -6.910  0.2983E+02  0.2774E+02  0.2379E+02
  -6.900  0.2830E+02  0.2018E+02  0.2429E+02
  -6.890  0.2775E+02  0.2881E+02  0.2482E+02
  -6.880  0.2640E+02  0.3439E+02  0.2543E+02
  -6.870  0.2523E+02  0.3178E+02  0.2600E+02
  -6.860  0.2726E+02  0.2377E+02  0.2656E+02
  -6.850  0.2694E+02  0.2316E+02  0.2705E+02
  -6.840  0.2605E+02  0.2650E+02  0.2757E+02
  -6.830  0.2163E+02  0.2637E+02  0.2808E+02
  -6.820  0.2341E+02  0.2477E+02  0.2856E+02
  -6.810  0.3026E+02  0.2172E+02  0.2906E+02
  -6.800  0.3390E+02  0.2022E+02  0.2960E+02
  -6.790  0.3336E+02  0.3340E+02  0.3026E+02
  -6.780  0.5975E+02  0.3726E+02  0.3105E+02
  -6.770  0.4608E+02  0.5421E+02  0.3197E+02
  -6.760  0.5574E+02  0.5261E+02  0.3302E+02
  -6.750  0.4113E+02  0.4286E+02  0.3405E+02
  -6.740  0.3551E+02  0.3516E+02  0.3482E+02
  -6.730  0.3710E+02  0.3277E+02  0.3556E+02
  -6.720  0.3388E+02  0.4129E+02  0.3627E+02
  -6.710  0.2903E+02  0.3821E+02  0.3698E+02
  -6.700  0.2805E+02  0.3736E+02  0.3764E+02
  -6.690  0.3373E+02  0.3742E+02  0.3831E+02
  -6.680  0.4042E+02  0.4022E+02  0.3907E+02
  -6.670  0.4394E+02  0.4059E+02  0.3994E+02
  -6.660  0.4180E+02  0.3377E+02  0.4081E+02
  -6.650  0.4840E+02  0.3193E+02  0.4156E+02
  -6.640  0.4985E+02  0.4970E+02  0.4248E+02
  -6.630  0.5959E+02  0.5760E+02  0.4357E+02
  -6.620  0.6043E+02  0.5026E+02  0.4473E+02
  -6.610  0.4826E+02  0.6062E+02  0.4589E+02
  -6.600  0.8944E+02  0.5334E+02  0.4719E+02
  -6.590  0.4338E+02  0.8976E+02  0.4834E+02
  -6.580  0.4412E+02  0.5250E+02  0.4940E+02
  -6.570  0.5760E+02  0.3346E+02  0.5037E+02
  -6.560  0.2972E+02  0.4284E+02  0.5115E+02
  -6.550  0.8522E+02  0.5369E+02  0.5227E+02
  -6.540  0.6972E+02  0.4018E+02  0.5357E+02
  -6.530  0.2598E+02  0.5844E+02  0.5468E+02
  -6.520  0.2696E+02  0.8212E+02  0.5572E+02
  -6.510  0.2468E+02  0.3116E+02  0.5644E+02
  -6.500  0.2999E+02  0.4209E+02  0.5713E+02
  -6.490  0.3326E+02  0.3852E+02  0.5785E+02
  -6.480  0.3106E+02  0.3516E+02  0.5855E+02
  -6.470  0.3665E+02  0.3104E+02  0.5920E+02
  -6.460  0.4577E+02  0.3623E+02  0.5994E+02
  -6.450  0.4766E+02  0.4667E+02  0.6084E+02
  -6.440  0.5618E+02  0.4668E+02  0.6180E+02
  -6.430  0.5654E+02  0.5417E+02  0.6289E+02
  -6.420  0.5627E+02  0.5318E+02  0.6398E+02
  -6.410  0.5083E+02  0.5284E+02  0.6506E+02
  -6.400  0.4914E+02  0.5387E+02  0.6611E+02
  -6.390  0.3965E+02  0.5116E+02  0.6707E+02
  -6.380  0.2605E+02  0.3748E+02  0.6787E+02
  -6.370  0.2532E+02  0.2726E+02  0.6843E+02
  -6.360  0.2550E+02  0.2797E+02  0.6897E+02
  -6.350  0.2120E+02  0.2033E+02  0.6944E+02
  -6.340  0.1194E+02  0.1877E+02  0.6983E+02
  -6.330  0.1901E+00  0.4233E+01  0.6999E+02
  -6.320  0.0000E+00  0.0000E+00  0.7000E+02
  -6.310  0.0000E+00  0.0000E+00  0.7000E+02
  -6.300  0.0000E+00  0.0000E+00  0.7000E+02
  -6.290  0.0000E+00  0.0000E+00  0.7000E+02
  -6.280  0.0000E+00  0.0000E+00  0.7000E+02
  -6.270  0.0000E+00  0.0000E+00  0.7000E+02
  -6.260  0.0000E+00  0.0000E+00  0.7000E+02
  -6.250  0.0000E+00  0.0000E+00  0.7000E+02
  -6.240  0.0000E+00  0.0000E+00  0.7000E+02
  -6.230  0.0000E+00  0.0000E+00  0.7000E+02
  -6.220  0.0000E+00  0.0000E+00  0.7000E+02
  -6.210  0.0000E+00  0.0000E+00  0.7000E+02
  -6.200  0.0000E+00  0.0000E+00  0.7000E+02
  -6.190  0.0000E+00  0.0000E+00  0.7000E+02
  -6.180  0.0000E+00  0.0000E+00  0.7000E+02
  -6.170  0.0000E+00  0.0000E+00  0.7000E+02
  -6.160  0.0000E+00  0.0000E+00  0.7000E+02
  -6.150  0.0000E+00  0.0000E+00  0.7000E+02
  -6.140  0.0000E+00  0.0000E+00  0.7000E+02
  -6.130  0.0000E+00  0.0000E+00  0.7000E+02
  -6.120  0.0000E+00  0.0000E+00  0.7000E+02
  -6.110  0.0000E+00  0.0000E+00  0.7000E+02
  -6.100  0.0000E+00  0.0000E+00  0.7000E+02
  -6.090  0.0000E+00  0.0000E+00  0.7000E+02
  -6.080  0.0000E+00  0.0000E+00  0.7000E+02
  -6.070  0.0000E+00  0.0000E+00  0.7000E+02
  -6.060  0.0000E+00  0.0000E+00  0.7000E+02
  -6.050  0.0000E+00  0.0000E+00  0.7000E+02
  -6.040  0.0000E+00  0.0000E+00  0.7000E+02
  -6.030  0.0000E+00  0.0000E+00  0.7000E+02
  -6.020  0.0000E+00  0.0000E+00  0.7000E+02
  -6.010  0.0000E+00  0.0000E+00  0.7000E+02
  -6.000  0.0000E+00  0.0000E+00  0.7000E+02
  -5.990  0.0000E+00  0.0000E+00  0.7000E+02
  -5.980  0.0000E+00  0.0000E+00  0.7000E+02
  -5.970  0.0000E+00  0.0000E+00  0.7000E+02
  -5.960  0.0000E+00  0.0000E+00  0.7000E+02
  -5.950  0.0000E+00  0.0000E+00  0.7000E+02
  -5.940  0.0000E+00  0.0000E+00  0.7000E+02
  -5.930  0.0000E+00  0.0000E+00  0.7000E+02
  -5.920  0.0000E+00  0.0000E+00  0.7000E+02
  -5.910  0.0000E+00  0.0000E+00  0.7000E+02
  -5.900  0.0000E+00  0.0000E+00  0.7000E+02
  -5.890  0.0000E+00  0.0000E+00  0.7000E+02
  -5.880  0.0000E+00  0.0000E+00  0.7000E+02
  -5.870  0.0000E+00  0.0000E+00  0.7000E+02
  -5.860  0.0000E+00  0.0000E+00  0.7000E+02
  -5.850  0.0000E+00  0.0000E+00  0.7000E+02
  -5.840  0.0000E+00  0.0000E+00  0.7000E+02
  -5.830  0.0000E+00  0.0000E+00  0.7000E+02
  -5.820  0.0000E+00  0.0000E+00  0.7000E+02
  -5.810  0.0000E+00  0.0000E+00  0.7000E+02
  -5.800  0.0000E+00  0.0000E+00  0.7000E+02
  -5.790  0.0000E+00  0.0000E+00  0.7000E+02
  -5.780  0.0000E+00  0.0000E+00  0.7000E+02
  -5.770  0.0000E+00  0.0000E+00  0.7000E+02
  -5.760  0.0000E+00  0.0000E+00  0.7000E+02
  -5.750  0.0000E+00  0.0000E+00  0.7000E+02
  -5.740  0.0000E+00  0.0000E+00  0.7000E+02
  -5.730  0.0000E+00  0.0000E+00  0.7000E+02
  -5.720  0.0000E+00  0.0000E+00  0.7000E+02
  -5.710  0.0000E+00  0.0000E+00  0.7000E+02
  -5.700  0.0000E+00  0.0000E+00  0.7000E+02
  -5.690  0.0000E+00  0.0000E+00  0.7000E+02
  -5.680  0.0000E+00  0.0000E+00  0.7000E+02
  -5.670  0.0000E+00  0.0000E+00  0.7000E+02
  -5.660  0.0000E+00  0.0000E+00  0.7000E+02
  -5.650  0.0000E+00  0.0000E+00  0.7000E+02
  -5.640  0.0000E+00  0.0000E+00  0.7000E+02
  -5.630  0.0000E+00  0.0000E+00  0.7000E+02
  -5.620  0.0000E+00  0.0000E+00  0.7000E+02
  -5.610  0.0000E+00  0.0000E+00  0.7000E+02
  -5.600  0.0000E+00  0.0000E+00  0.7000E+02
  -5.590  0.0000E+00  0.0000E+00  0.7000E+02
  -5.580  0.0000E+00  0.0000E+00  0.7000E+02
  -5.570  0.0000E+00  0.0000E+00  0.7000E+02
  -5.560  0.0000E+00  0.0000E+00  0.7000E+02
  -5.550  0.0000E+00  0.0000E+00  0.7000E+02
  -5.540  0.0000E+00  0.0000E+00  0.7000E+02
  -5.530  0.0000E+00  0.0000E+00  0.7000E+02
  -5.520  0.0000E+00  0.0000E+00  0.7000E+02
  -5.510  0.0000E+00  0.0000E+00  0.7000E+02
  -5.500  0.0000E+00  0.0000E+00  0.7000E+02
  -5.490  0.0000E+00  0.0000E+00  0.7000E+02
  -5.480  0.0000E+00  0.0000E+00  0.7000E+02
  -5.470  0.0000E+00  0.0000E+00  0.7000E+02
  -5.460  0.0000E+00  0.0000E+00  0.7000E+02
  -5.450  0.0000E+00  0.0000E+00  0.7000E+02
  -5.440  0.0000E+00  0.0000E+00  0.7000E+02
  -5.430  0.0000E+00  0.0000E+00  0.7000E+02
  -5.420  0.0000E+00  0.0000E+00  0.7000E+02
  -5.410  0.0000E+00  0.0000E+00  0.7000E+02
  -5.400  0.0000E+00  0.0000E+00  0.7000E+02
  -5.390  0.0000E+00  0.0000E+00  0.7000E+02
  -5.380  0.0000E+00  0.0000E+00  0.7000E+02
  -5.370  0.0000E+00  0.0000E+00  0.7000E+02
  -5.360  0.0000E+00  0.0000E+00  0.7000E+02
  -5.350  0.0000E+00  0.0000E+00  0.7000E+02
  -5.340  0.0000E+00  0.0000E+00  0.7000E+02
  -5.330  0.0000E+00  0.0000E+00  0.7000E+02
  -5.320  0.0000E+00  0.0000E+00  0.7000E+02
  -5.310  0.0000E+00  0.0000E+00  0.7000E+02
  -5.300  0.0000E+00  0.0000E+00  0.7000E+02
  -5.290  0.0000E+00  0.0000E+00  0.7000E+02
  -5.280  0.0000E+00  0.0000E+00  0.7000E+02
  -5.270  0.0000E+00  0.0000E+00  0.7000E+02
  -5.260  0.0000E+00  0.0000E+00  0.7000E+02
  -5.250  0.0000E+00  0.0000E+00  0.7000E+02
  -5.240  0.0000E+00  0.0000E+00  0.7000E+02
  -5.230  0.0000E+00  0.0000E+00  0.7000E+02
  -5.220  0.0000E+00  0.0000E+00  0.7000E+02
  -5.210  0.0000E+00  0.0000E+00  0.7000E+02
  -5.200  0.0000E+00  0.0000E+00  0.7000E+02
  -5.190  0.0000E+00  0.0000E+00  0.7000E+02
  -5.180  0.0000E+00  0.0000E+00  0.7000E+02
  -5.170  0.0000E+00  0.0000E+00  0.7000E+02
  -5.160  0.0000E+00  0.0000E+00  0.7000E+02
  -5.150  0.0000E+00  0.0000E+00  0.7000E+02
  -5.140  0.0000E+00  0.0000E+00  0.7000E+02
  -5.130  0.0000E+00  0.0000E+00  0.7000E+02
  -5.120  0.0000E+00  0.0000E+00  0.7000E+02
  -5.110  0.0000E+00  0.0000E+00  0.7000E+02
  -5.100  0.0000E+00  0.0000E+00  0.7000E+02
  -5.090  0.0000E+00  0.0000E+00  0.7000E+02
  -5.080  0.0000E+00  0.0000E+00  0.7000E+02
  -5.070  0.0000E+00  0.0000E+00  0.7000E+02
  -5.060  0.0000E+00  0.0000E+00  0.7000E+02
  -5.050  0.0000E+00  0.0000E+00  0.7000E+02
  -5.040  0.0000E+00  0.0000E+00  0.7000E+02
  -5.030  0.0000E+00  0.0000E+00  0.7000E+02
  -5.020  0.0000E+00  0.0000E+00  0.7000E+02
  -5.010  0.0000E+00  0.0000E+00  0.7000E+02
  -5.000  0.0000E+00  0.0000E+00  0.7000E+02
  -4.990  0.0000E+00  0.0000E+00  0.7000E+02
  -4.980  0.0000E+00  0.0000E+00  0.7000E+02
  -4.970  0.0000E+00  0.0000E+00  0.7000E+02
  -4.960  0.0000E+00  0.0000E+00  0.7000E+02
  -4.950  0.0000E+00  0.0000E+00  0.7000E+02
  -4.940  0.0000E+00  0.0000E+00  0.7000E+02
  -4.930  0.0000E+00  0.0000E+00  0.7000E+02
  -4.920  0.0000E+00  0.0000E+00  0.7000E+02
  -4.910  0.0000E+00  0.0000E+00  0.7000E+02
  -4.900  0.0000E+00  0.0000E+00  0.7000E+02
  -4.890  0.0000E+00  0.0000E+00  0.7000E+02
  -4.880  0.0000E+00  0.0000E+00  0.7000E+02
  -4.870  0.0000E+00  0.0000E+00  0.7000E+02
  -4.860  0.0000E+00  0.0000E+00  0.7000E+02
  -4.850  0.0000E+00  0.0000E+00  0.7000E+02
  -4.840  0.0000E+00  0.0000E+00  0.7000E+02
  -4.830  0.0000E+00  0.0000E+00  0.7000E+02
  -4.820  0.0000E+00  0.0000E+00  0.7000E+02
  -4.810  0.0000E+00  0.0000E+00  0.7000E+02
  -4.800  0.0000E+00  0.0000E+00  0.7000E+02
  -4.790  0.0000E+00  0.0000E+00  0.7000E+02
  -4.780  0.0000E+00  0.0000E+00  0.7000E+02
  -4.770  0.0000E+00  0.0000E+00  0.7000E+02
  -4.760  0.0000E+00  0.0000E+00  0.7000E+02
  -4.750  0.0000E+00  0.0000E+00  0.7000E+02
  -4.740  0.0000E+00  0.0000E+00  0.7000E+02
  -4.730  0.0000E+00  0.0000E+00  0.7000E+02
  -4.720  0.0000E+00  0.0000E+00  0.7000E+02
  -4.710  0.0000E+00  0.0000E+00  0.7000E+02
  -4.700  0.0000E+00  0.0000E+00  0.7000E+02
  -4.690  0.0000E+00  0.0000E+00  0.7000E+02
  -4.680  0.0000E+00  0.0000E+00  0.7000E+02
  -4.670  0.0000E+00  0.0000E+00  0.7000E+02
  -4.660  0.0000E+00  0.0000E+00  0.7000E+02
  -4.650  0.0000E+00  0.0000E+00  0.7000E+02
  -4.640  0.0000E+00  0.0000E+00  0.7000E+02
  -4.630  0.0000E+00  0.0000E+00  0.7000E+02
  -4.620  0.0000E+00  0.0000E+00  0.7000E+02
  -4.610  0.0000E+00  0.0000E+00  0.7000E+02
  -4.600  0.0000E+00  0.0000E+00  0.7000E+02
  -4.590  0.0000E+00  0.0000E+00  0.7000E+02
  -4.580  0.0000E+00  0.0000E+00  0.7000E+02
  -4.570  0.0000E+00  0.0000E+00  0.7000E+02
  -4.560  0.0000E+00  0.0000E+00  0.7000E+02
  -4.550  0.0000E+00  0.0000E+00  0.7000E+02
  -4.540  0.0000E+00  0.0000E+00  0.7000E+02
  -4.530  0.0000E+00  0.0000E+00  0.7000E+02
  -4.520  0.0000E+00  0.0000E+00  0.7000E+02
  -4.510  0.0000E+00  0.0000E+00  0.7000E+02
  -4.500  0.0000E+00  0.0000E+00  0.7000E+02
  -4.490  0.0000E+00  0.0000E+00  0.7000E+02
  -4.480  0.0000E+00  0.0000E+00  0.7000E+02
  -4.470  0.0000E+00  0.0000E+00  0.7000E+02
  -4.460  0.0000E+00  0.0000E+00  0.7000E+02
  -4.450  0.0000E+00  0.0000E+00  0.7000E+02
  -4.440  0.0000E+00  0.0000E+00  0.7000E+02
  -4.430  0.0000E+00  0.0000E+00  0.7000E+02
  -4.420  0.0000E+00  0.0000E+00  0.7000E+02
  -4.410  0.0000E+00  0.0000E+00  0.7000E+02
  -4.400  0.0000E+00  0.0000E+00  0.7000E+02
  -4.390  0.0000E+00  0.0000E+00  0.7000E+02
  -4.380  0.0000E+00  0.0000E+00  0.7000E+02
  -4.370  0.0000E+00  0.0000E+00  0.7000E+02
  -4.360  0.0000E+00  0.0000E+00  0.7000E+02
  -4.350  0.0000E+00  0.0000E+00  0.7000E+02
  -4.340  0.0000E+00  0.0000E+00  0.7000E+02
  -4.330  0.0000E+00  0.0000E+00  0.7000E+02
  -4.320  0.0000E+00  0.0000E+00  0.7000E+02
  -4.310  0.0000E+00  0.0000E+00  0.7000E+02
  -4.300  0.0000E+00  0.0000E+00  0.7000E+02
  -4.290  0.0000E+00  0.0000E+00  0.7000E+02
  -4.280  0.0000E+00  0.0000E+00  0.7000E+02
  -4.270  0.0000E+00  0.0000E+00  0.7000E+02
  -4.260  0.0000E+00  0.0000E+00  0.7000E+02
  -4.250  0.0000E+00  0.0000E+00  0.7000E+02
  -4.240  0.0000E+00  0.0000E+00  0.7000E+02
  -4.230  0.0000E+00  0.0000E+00  0.7000E+02
  -4.220  0.0000E+00  0.0000E+00  0.7000E+02
  -4.210  0.0000E+00  0.0000E+00  0.7000E+02
  -4.200  0.0000E+00  0.0000E+00  0.7000E+02
  -4.190  0.0000E+00  0.0000E+00  0.7000E+02
  -4.180  0.0000E+00  0.0000E+00  0.7000E+02
  -4.170  0.0000E+00  0.0000E+00  0.7000E+02
  -4.160  0.0000E+00  0.0000E+00  0.7000E+02
  -4.150  0.0000E+00  0.0000E+00  0.7000E+02
  -4.140  0.0000E+00  0.0000E+00  0.7000E+02
  -4.130  0.0000E+00  0.0000E+00  0.7000E+02
  -4.120  0.0000E+00  0.0000E+00  0.7000E+02
  -4.110  0.0000E+00  0.0000E+00  0.7000E+02
  -4.100  0.0000E+00  0.0000E+00  0.7000E+02
  -4.090  0.0000E+00  0.0000E+00  0.7000E+02
  -4.080  0.0000E+00  0.0000E+00  0.7000E+02
  -4.070  0.0000E+00  0.0000E+00  0.7000E+02
  -4.060  0.0000E+00  0.0000E+00  0.7000E+02
  -4.050  0.0000E+00  0.0000E+00  0.7000E+02
  -4.040  0.0000E+00  0.0000E+00  0.7000E+02
  -4.030  0.0000E+00  0.0000E+00  0.7000E+02
  -4.020  0.0000E+00  0.0000E+00  0.7000E+02
  -4.010  0.0000E+00  0.0000E+00  0.7000E+02
  -4.000  0.0000E+00  0.0000E+00  0.7000E+02
  -3.990  0.0000E+00  0.0000E+00  0.7000E+02
  -3.980  0.0000E+00  0.0000E+00  0.7000E+02
  -3.970  0.0000E+00  0.0000E+00  0.7000E+02
  -3.960  0.0000E+00  0.0000E+00  0.7000E+02
  -3.950  0.0000E+00  0.0000E+00  0.7000E+02
  -3.940  0.0000E+00  0.0000E+00  0.7000E+02
  -3.930  0.0000E+00  0.0000E+00  0.7000E+02
  -3.920  0.0000E+00  0.0000E+00  0.7000E+02
  -3.910  0.0000E+00  0.0000E+00  0.7000E+02
  -3.900  0.0000E+00  0.0000E+00  0.7000E+02
  -3.890  0.0000E+00  0.0000E+00  0.7000E+02
  -3.880  0.0000E+00  0.0000E+00  0.7000E+02
  -3.870  0.0000E+00  0.0000E+00  0.7000E+02
  -3.860  0.0000E+00  0.0000E+00  0.7000E+02
  -3.850  0.0000E+00  0.0000E+00  0.7000E+02
  -3.840  0.0000E+00  0.0000E+00  0.7000E+02
  -3.830  0.0000E+00  0.0000E+00  0.7000E+02
  -3.820  0.0000E+00  0.0000E+00  0.7000E+02
  -3.810  0.0000E+00  0.0000E+00  0.7000E+02
  -3.800  0.0000E+00  0.0000E+00  0.7000E+02
  -3.790  0.0000E+00  0.0000E+00  0.7000E+02
  -3.780  0.0000E+00  0.0000E+00  0.7000E+02
  -3.770  0.0000E+00  0.0000E+00  0.7000E+02
  -3.760  0.0000E+00  0.0000E+00  0.7000E+02
  -3.750  0.0000E+00  0.0000E+00  0.7000E+02
  -3.740  0.0000E+00  0.0000E+00  0.7000E+02
  -3.730  0.0000E+00  0.0000E+00  0.7000E+02
  -3.720  0.0000E+00  0.0000E+00  0.7000E+02
  -3.710  0.0000E+00  0.0000E+00  0.7000E+02
  -3.700  0.0000E+00  0.0000E+00  0.7000E+02
  -3.690  0.0000E+00  0.0000E+00  0.7000E+02
  -3.680  0.0000E+00  0.0000E+00  0.7000E+02
  -3.670  0.0000E+00  0.0000E+00  0.7000E+02
  -3.660  0.0000E+00  0.0000E+00  0.7000E+02
  -3.650  0.0000E+00  0.0000E+00  0.7000E+02
  -3.640  0.0000E+00  0.0000E+00  0.7000E+02
  -3.630  0.0000E+00  0.0000E+00  0.7000E+02
  -3.620  0.0000E+00  0.0000E+00  0.7000E+02
  -3.610  0.0000E+00  0.0000E+00  0.7000E+02
  -3.600  0.0000E+00  0.0000E+00  0.7000E+02
  -3.590  0.0000E+00  0.0000E+00  0.7000E+02
  -3.580  0.0000E+00  0.0000E+00  0.7000E+02
  -3.570  0.0000E+00  0.0000E+00  0.7000E+02
  -3.560  0.0000E+00  0.0000E+00  0.7000E+02
  -3.550  0.0000E+00  0.0000E+00  0.7000E+02
  -3.540  0.0000E+00  0.0000E+00  0.7000E+02
  -3.530  0.0000E+00  0.0000E+00  0.7000E+02
  -3.520  0.0000E+00  0.0000E+00  0.7000E+02
  -3.510  0.0000E+00  0.0000E+00  0.7000E+02
  -3.500  0.0000E+00  0.0000E+00  0.7000E+02
  -3.490  0.0000E+00  0.0000E+00  0.7000E+02
  -3.480  0.0000E+00  0.0000E+00  0.7000E+02
  -3.470  0.0000E+00  0.0000E+00  0.7000E+02
  -3.460  0.0000E+00  0.0000E+00  0.7000E+02
  -3.450  0.0000E+00  0.0000E+00  0.7000E+02
  -3.440  0.0000E+00  0.0000E+00  0.7000E+02
  -3.430  0.0000E+00  0.0000E+00  0.7000E+02
  -3.420  0.0000E+00  0.0000E+00  0.7000E+02
  -3.410  0.0000E+00  0.0000E+00  0.7000E+02
  -3.400  0.0000E+00  0.0000E+00  0.7000E+02
  -3.390  0.0000E+00  0.0000E+00  0.7000E+02
  -3.380  0.0000E+00  0.0000E+00  0.7000E+02
  -3.370  0.0000E+00  0.0000E+00  0.7000E+02
  -3.360  0.0000E+00  0.0000E+00  0.7000E+02
  -3.350  0.0000E+00  0.0000E+00  0.7000E+02
  -3.340  0.0000E+00  0.0000E+00  0.7000E+02
  -3.330  0.0000E+00  0.0000E+00  0.7000E+02
  -3.320  0.0000E+00  0.0000E+00  0.7000E+02
  -3.310  0.0000E+00  0.0000E+00  0.7000E+02
  -3.300  0.0000E+00  0.0000E+00  0.7000E+02
  -3.290  0.0000E+00  0.0000E+00  0.7000E+02
  -3.280  0.0000E+00  0.0000E+00  0.7000E+02
  -3.270  0.0000E+00  0.0000E+00  0.7000E+02
  -3.260  0.0000E+00  0.0000E+00  0.7000E+02
  -3.250  0.0000E+00  0.0000E+00  0.7000E+02
  -3.240  0.0000E+00  0.0000E+00  0.7000E+02
  -3.230  0.0000E+00  0.0000E+00  0.7000E+02
  -3.220  0.0000E+00  0.0000E+00  0.7000E+02
  -3.210  0.0000E+00  0.0000E+00  0.7000E+02
  -3.200  0.0000E+00  0.0000E+00  0.7000E+02
  -3.190  0.0000E+00  0.0000E+00  0.7000E+02
  -3.180  0.0000E+00  0.0000E+00  0.7000E+02
  -3.170  0.0000E+00  0.0000E+00  0.7000E+02
  -3.160  0.0000E+00  0.0000E+00  0.7000E+02
  -3.150  0.0000E+00  0.0000E+00  0.7000E+02
  -3.140  0.0000E+00  0.0000E+00  0.7000E+02
  -3.130  0.0000E+00  0.0000E+00  0.7000E+02
  -3.120  0.0000E+00  0.0000E+00  0.7000E+02
  -3.110  0.0000E+00  0.0000E+00  0.7000E+02
  -3.100  0.0000E+00  0.0000E+00  0.7000E+02
  -3.090  0.0000E+00  0.0000E+00  0.7000E+02
  -3.080  0.0000E+00  0.0000E+00  0.7000E+02
  -3.070  0.0000E+00  0.0000E+00  0.7000E+02
  -3.060  0.0000E+00  0.0000E+00  0.7000E+02
  -3.050  0.0000E+00  0.0000E+00  0.7000E+02
  -3.040  0.0000E+00  0.0000E+00  0.7000E+02
  -3.030  0.0000E+00  0.0000E+00  0.7000E+02
  -3.020  0.0000E+00  0.0000E+00  0.7000E+02
  -3.010  0.0000E+00  0.0000E+00  0.7000E+02
  -3.000  0.0000E+00  0.0000E+00  0.7000E+02
  -2.990  0.0000E+00  0.0000E+00  0.7000E+02
  -2.980  0.0000E+00  0.0000E+00  0.7000E+02
  -2.970  0.0000E+00  0.0000E+00  0.7000E+02
  -2.960  0.0000E+00  0.0000E+00  0.7000E+02
  -2.950  0.0000E+00  0.0000E+00  0.7000E+02
  -2.940  0.0000E+00  0.0000E+00  0.7000E+02
  -2.930  0.0000E+00  0.0000E+00  0.7000E+02
  -2.920  0.0000E+00  0.0000E+00  0.7000E+02
  -2.910  0.0000E+00  0.0000E+00  0.7000E+02
  -2.900  0.0000E+00  0.0000E+00  0.7000E+02
  -2.890  0.0000E+00  0.0000E+00  0.7000E+02
  -2.880  0.0000E+00  0.0000E+00  0.7000E+02
  -2.870  0.0000E+00  0.0000E+00  0.7000E+02
  -2.860  0.0000E+00  0.0000E+00  0.7000E+02
  -2.850  0.0000E+00  0.0000E+00  0.7000E+02
  -2.840  0.0000E+00  0.0000E+00  0.7000E+02
  -2.830  0.0000E+00  0.0000E+00  0.7000E+02
  -2.820  0.0000E+00  0.0000E+00  0.7000E+02
  -2.810  0.0000E+00  0.0000E+00  0.7000E+02
  -2.800  0.0000E+00  0.0000E+00  0.7000E+02
  -2.790  0.0000E+00  0.0000E+00  0.7000E+02
  -2.780  0.0000E+00  0.0000E+00  0.7000E+02
  -2.770  0.0000E+00  0.0000E+00  0.7000E+02
  -2.760  0.0000E+00  0.0000E+00  0.7000E+02
  -2.750  0.0000E+00  0.0000E+00  0.7000E+02
  -2.740  0.0000E+00  0.0000E+00  0.7000E+02
  -2.730  0.0000E+00  0.0000E+00  0.7000E+02
  -2.720  0.0000E+00  0.0000E+00  0.7000E+02
  -2.710  0.0000E+00  0.0000E+00  0.7000E+02
  -2.700  0.0000E+00  0.0000E+00  0.7000E+02
  -2.690  0.0000E+00  0.0000E+00  0.7000E+02
  -2.680  0.0000E+00  0.0000E+00  0.7000E+02
  -2.670  0.0000E+00  0.0000E+00  0.7000E+02
  -2.660  0.0000E+00  0.0000E+00  0.7000E+02
  -2.650  0.0000E+00  0.0000E+00  0.7000E+02
  -2.640  0.0000E+00  0.0000E+00  0.7000E+02
  -2.630  0.0000E+00  0.0000E+00  0.7000E+02
  -2.620  0.0000E+00  0.0000E+00  0.7000E+02
  -2.610  0.0000E+00  0.0000E+00  0.7000E+02
  -2.600  0.0000E+00  0.0000E+00  0.7000E+02
  -2.590  0.0000E+00  0.0000E+00  0.7000E+02
  -2.580  0.0000E+00  0.0000E+00  0.7000E+02
  -2.570  0.0000E+00  0.0000E+00  0.7000E+02
  -2.560  0.0000E+00  0.0000E+00  0.7000E+02
  -2.550  0.0000E+00  0.0000E+00  0.7000E+02
  -2.540  0.0000E+00  0.0000E+00  0.7000E+02
  -2.530  0.0000E+00  0.0000E+00  0.7000E+02
  -2.520  0.0000E+00  0.0000E+00  0.7000E+02
  -2.510  0.0000E+00  0.0000E+00  0.7000E+02
  -2.500  0.0000E+00  0.0000E+00  0.7000E+02
  -2.490  0.0000E+00  0.0000E+00  0.7000E+02
  -2.480  0.0000E+00  0.0000E+00  0.7000E+02
  -2.470  0.0000E+00  0.0000E+00  0.7000E+02
  -2.460  0.0000E+00  0.0000E+00  0.7000E+02
  -2.450  0.0000E+00  0.0000E+00  0.7000E+02
  -2.440  0.0000E+00  0.0000E+00  0.7000E+02
  -2.430  0.0000E+00  0.0000E+00  0.7000E+02
  -2.420  0.0000E+00  0.0000E+00  0.7000E+02
  -2.410  0.0000E+00  0.0000E+00  0.7000E+02
  -2.400  0.0000E+00  0.0000E+00  0.7000E+02
  -2.390  0.0000E+00  0.0000E+00  0.7000E+02
  -2.380  0.0000E+00  0.0000E+00  0.7000E+02
  -2.370  0.0000E+00  0.0000E+00  0.7000E+02
  -2.360  0.0000E+00  0.0000E+00  0.7000E+02
  -2.350  0.0000E+00  0.0000E+00  0.7000E+02
  -2.340  0.0000E+00  0.0000E+00  0.7000E+02
  -2.330  0.0000E+00  0.0000E+00  0.7000E+02
  -2.320  0.0000E+00  0.0000E+00  0.7000E+02
  -2.310  0.0000E+00  0.0000E+00  0.7000E+02
  -2.300  0.0000E+00  0.0000E+00  0.7000E+02
  -2.290  0.0000E+00  0.0000E+00  0.7000E+02
  -2.280  0.0000E+00  0.0000E+00  0.7000E+02
  -2.270  0.0000E+00  0.0000E+00  0.7000E+02
  -2.260  0.0000E+00  0.0000E+00  0.7000E+02
  -2.250  0.0000E+00  0.0000E+00  0.7000E+02
  -2.240  0.0000E+00  0.0000E+00  0.7000E+02
  -2.230  0.0000E+00  0.0000E+00  0.7000E+02
  -2.220  0.0000E+00  0.0000E+00  0.7000E+02
  -2.210  0.0000E+00  0.0000E+00  0.7000E+02
  -2.200  0.0000E+00  0.0000E+00  0.7000E+02
  -2.190  0.0000E+00  0.0000E+00  0.7000E+02
  -2.180  0.0000E+00  0.0000E+00  0.7000E+02
  -2.170  0.0000E+00  0.0000E+00  0.7000E+02
  -2.160  0.0000E+00  0.0000E+00  0.7000E+02
  -2.150  0.0000E+00  0.0000E+00  0.7000E+02
  -2.140  0.0000E+00  0.0000E+00  0.7000E+02
  -2.130  0.0000E+00  0.0000E+00  0.7000E+02
  -2.120  0.0000E+00  0.0000E+00  0.7000E+02
  -2.110  0.0000E+00  0.0000E+00  0.7000E+02
  -2.100  0.0000E+00  0.0000E+00  0.7000E+02
  -2.090  0.0000E+00  0.0000E+00  0.7000E+02
  -2.080  0.0000E+00  0.0000E+00  0.7000E+02
  -2.070  0.0000E+00  0.0000E+00  0.7000E+02
  -2.060  0.0000E+00  0.0000E+00  0.7000E+02
  -2.050  0.0000E+00  0.0000E+00  0.7000E+02
  -2.040  0.0000E+00  0.0000E+00  0.7000E+02
  -2.030  0.0000E+00  0.0000E+00  0.7000E+02
  -2.020  0.0000E+00  0.0000E+00  0.7000E+02
  -2.010  0.0000E+00  0.0000E+00  0.7000E+02
  -2.000  0.0000E+00  0.0000E+00  0.7000E+02
  -1.990  0.0000E+00  0.0000E+00  0.7000E+02
  -1.980  0.0000E+00  0.0000E+00  0.7000E+02
  -1.970  0.0000E+00  0.0000E+00  0.7000E+02
  -1.960  0.0000E+00  0.0000E+00  0.7000E+02
  -1.950  0.0000E+00  0.0000E+00  0.7000E+02
  -1.940  0.0000E+00  0.0000E+00  0.7000E+02
  -1.930  0.0000E+00  0.0000E+00  0.7000E+02
  -1.920  0.0000E+00  0.0000E+00  0.7000E+02
  -1.910  0.0000E+00  0.0000E+00  0.7000E+02
  -1.900  0.0000E+00  0.0000E+00  0.7000E+02
  -1.890  0.0000E+00  0.0000E+00  0.7000E+02
  -1.880  0.0000E+00  0.0000E+00  0.7000E+02
  -1.870  0.0000E+00  0.0000E+00  0.7000E+02
  -1.860  0.0000E+00  0.0000E+00  0.7000E+02
  -1.850  0.0000E+00  0.0000E+00  0.7000E+02
  -1.840  0.0000E+00  0.0000E+00  0.7000E+02
  -1.830  0.0000E+00  0.0000E+00  0.7000E+02
  -1.820  0.0000E+00  0.0000E+00  0.7000E+02
  -1.810  0.0000E+00  0.0000E+00  0.7000E+02
  -1.800  0.0000E+00  0.0000E+00  0.7000E+02
  -1.790  0.0000E+00  0.0000E+00  0.7000E+02
  -1.780  0.0000E+00  0.0000E+00  0.7000E+02
  -1.770  0.0000E+00  0.0000E+00  0.7000E+02
  -1.760  0.0000E+00  0.0000E+00  0.7000E+02
  -1.750  0.0000E+00  0.0000E+00  0.7000E+02
  -1.740  0.0000E+00  0.0000E+00  0.7000E+02
  -1.730  0.0000E+00  0.0000E+00  0.7000E+02
  -1.720  0.0000E+00  0.0000E+00  0.7000E+02
  -1.710  0.0000E+00  0.0000E+00  0.7000E+02
  -1.700  0.0000E+00  0.0000E+00  0.7000E+02
  -1.690  0.0000E+00  0.0000E+00  0.7000E+02
  -1.680  0.0000E+00  0.0000E+00  0.7000E+02
  -1.670  0.0000E+00  0.0000E+00  0.7000E+02
  -1.660  0.0000E+00  0.0000E+00  0.7000E+02
  -1.650  0.0000E+00  0.0000E+00  0.7000E+02
  -1.640  0.0000E+00  0.0000E+00  0.7000E+02
  -1.630  0.0000E+00  0.0000E+00  0.7000E+02
  -1.620  0.0000E+00  0.0000E+00  0.7000E+02
  -1.610  0.0000E+00  0.0000E+00  0.7000E+02
  -1.600  0.0000E+00  0.0000E+00  0.7000E+02
  -1.590  0.0000E+00  0.0000E+00  0.7000E+02
  -1.580  0.0000E+00  0.0000E+00  0.7000E+02
  -1.570  0.0000E+00  0.0000E+00  0.7000E+02
  -1.560  0.0000E+00  0.0000E+00  0.7000E+02
  -1.550  0.0000E+00  0.0000E+00  0.7000E+02
  -1.540  0.0000E+00  0.0000E+00  0.7000E+02
  -1.530  0.0000E+00  0.0000E+00  0.7000E+02
  -1.520  0.0000E+00  0.0000E+00  0.7000E+02
  -1.510  0.0000E+00  0.0000E+00  0.7000E+02
  -1.500  0.0000E+00  0.0000E+00  0.7000E+02
  -1.490  0.0000E+00  0.0000E+00  0.7000E+02
  -1.480  0.0000E+00  0.0000E+00  0.7000E+02
  -1.470  0.0000E+00  0.0000E+00  0.7000E+02
  -1.460  0.0000E+00  0.0000E+00  0.7000E+02
  -1.450  0.0000E+00  0.0000E+00  0.7000E+02
  -1.440  0.0000E+00  0.0000E+00  0.7000E+02
  -1.430  0.0000E+00  0.0000E+00  0.7000E+02
  -1.420  0.0000E+00  0.0000E+00  0.7000E+02
  -1.410  0.0000E+00  0.0000E+00  0.7000E+02
  -1.400  0.0000E+00  0.0000E+00  0.7000E+02
  -1.390  0.0000E+00  0.0000E+00  0.7000E+02
  -1.380  0.0000E+00  0.0000E+00  0.7000E+02
  -1.370  0.0000E+00  0.0000E+00  0.7000E+02
  -1.360  0.0000E+00  0.0000E+00  0.7000E+02
  -1.350  0.0000E+00  0.0000E+00  0.7000E+02
  -1.340  0.0000E+00  0.0000E+00  0.7000E+02
  -1.330  0.0000E+00  0.0000E+00  0.7000E+02
  -1.320  0.0000E+00  0.0000E+00  0.7000E+02
  -1.310  0.0000E+00  0.0000E+00  0.7000E+02
  -1.300  0.0000E+00  0.0000E+00  0.7000E+02
  -1.290  0.0000E+00  0.0000E+00  0.7000E+02
  -1.280  0.0000E+00  0.0000E+00  0.7000E+02
  -1.270  0.0000E+00  0.0000E+00  0.7000E+02
  -1.260  0.0000E+00  0.0000E+00  0.7000E+02
  -1.250  0.0000E+00  0.0000E+00  0.7000E+02
  -1.240  0.0000E+00  0.0000E+00  0.7000E+02
  -1.230  0.0000E+00  0.0000E+00  0.7000E+02
  -1.220  0.0000E+00  0.0000E+00  0.7000E+02
  -1.210  0.0000E+00  0.0000E+00  0.7000E+02
  -1.200  0.0000E+00  0.0000E+00  0.7000E+02
  -1.190  0.0000E+00  0.0000E+00  0.7000E+02
  -1.180  0.0000E+00  0.0000E+00  0.7000E+02
  -1.170  0.0000E+00  0.0000E+00  0.7000E+02
  -1.160  0.0000E+00  0.0000E+00  0.7000E+02
  -1.150  0.0000E+00  0.0000E+00  0.7000E+02
  -1.140  0.0000E+00  0.0000E+00  0.7000E+02
  -1.130  0.0000E+00  0.0000E+00  0.7000E+02
  -1.120  0.0000E+00  0.0000E+00  0.7000E+02
  -1.110  0.0000E+00  0.0000E+00  0.7000E+02
  -1.100  0.0000E+00  0.0000E+00  0.7000E+02
  -1.090  0.0000E+00  0.0000E+00  0.7000E+02
  -1.080  0.0000E+00  0.0000E+00  0.7000E+02
  -1.070  0.7347E+03  0.7544E+03  0.7503E+02
  -1.060  0.1875E+03  0.1847E+03  0.7699E+02
  -1.050  0.0000E+00  0.0000E+00  0.8200E+02
  -1.040  0.6863E+02  0.8601E+02  0.8594E+02
  -1.030  0.0000E+00  0.0000E+00  0.8800E+02
  -1.020  0.0000E+00  0.0000E+00  0.8800E+02
  -1.010  0.0000E+00  0.0000E+00  0.8800E+02
  -1.000  0.0000E+00  0.0000E+00  0.8800E+02
  -0.990  0.0000E+00  0.0000E+00  0.8800E+02
  -0.980  0.0000E+00  0.0000E+00  0.8800E+02
  -0.970  0.0000E+00  0.0000E+00  0.8800E+02
  -0.960  0.0000E+00  0.0000E+00  0.8800E+02
  -0.950  0.4542E+02  0.4055E+02  0.8828E+02
  -0.940  0.2275E+03  0.2176E+03  0.9012E+02
  -0.930  0.0000E+00  0.0000E+00  0.9400E+02
  -0.920  0.2781E+03  0.2703E+03  0.9702E+02
  -0.910  0.4218E+02  0.4770E+02  0.9985E+02
  -0.900  0.0000E+00  0.0000E+00  0.1000E+03
  -0.890  0.0000E+00  0.0000E+00  0.1000E+03
  -0.880  0.0000E+00  0.0000E+00  0.1000E+03
  -0.870  0.0000E+00  0.0000E+00  0.1000E+03
  -0.860  0.0000E+00  0.0000E+00  0.1000E+03
  -0.850  0.0000E+00  0.0000E+00  0.1000E+03
  -0.840  0.0000E+00  0.0000E+00  0.1000E+03
  -0.830  0.0000E+00  0.0000E+00  0.1000E+03
  -0.820  0.0000E+00  0.0000E+00  0.1000E+03
  -0.810  0.0000E+00  0.0000E+00  0.1000E+03
  -0.800  0.1020E+02  0.4577E+01  0.1000E+03
  -0.790  0.4692E+02  0.3191E+02  0.1005E+03
  -0.780  0.7975E+02  0.6891E+02  0.1016E+03
  -0.770  0.1138E+03  0.9004E+02  0.1035E+03
  -0.760  0.1002E+03  0.5361E+02  0.1051E+03
  -0.750  0.8937E+02  0.9251E+02  0.1069E+03
  -0.740  0.1467E+03  0.1573E+03  0.1093E+03
  -0.730  0.2171E+02  0.1003E+03  0.1118E+03
  -0.720  0.1695E+03  0.4120E+02  0.1132E+03
  -0.710  0.3806E+03  0.3213E+03  0.1161E+03
  -0.700  0.2655E+03  0.3495E+03  0.1214E+03
  -0.690  0.2481E+03  0.1738E+03  0.1263E+03
  -0.680  0.4802E+03  0.2501E+03  0.1315E+03
  -0.670  0.2740E+03  0.2444E+03  0.1372E+03
  -0.660  0.2189E+03  0.3531E+03  0.1431E+03
  -0.650  0.2983E+03  0.2344E+03  0.1478E+03
  -0.640  0.3509E+03  0.4457E+03  0.1545E+03
  -0.630  0.3004E+03  0.2580E+03  0.1609E+03
  -0.620  0.2547E+03  0.3138E+03  0.1673E+03
  -0.610  0.1292E+03  0.2060E+03  0.1732E+03
  -0.600  0.1609E+03  0.1504E+03  0.1783E+03
  -0.590  0.2353E+03  0.2214E+03  0.1818E+03
  -0.580  0.3630E+03  0.1663E+03  0.1865E+03
  -0.570  0.2062E+03  0.3284E+03  0.1917E+03
  -0.560  0.2965E+03  0.1050E+03  0.1961E+03
  -0.550  0.3196E+03  0.2157E+03  0.2008E+03
  -0.540  0.1449E+03  0.2199E+03  0.2048E+03
  -0.530  0.1399E+03  0.1802E+03  0.2075E+03
  -0.520  0.2126E+03  0.1832E+03  0.2110E+03
  -0.510  0.1057E+03  0.2260E+03  0.2155E+03
  -0.500  0.2266E+03  0.1349E+03  0.2189E+03
  -0.490  0.1938E+03  0.2118E+03  0.2235E+03
  -0.480  0.1146E+03  0.1403E+03  0.2271E+03
  -0.470  0.1173E+03  0.9315E+02  0.2291E+03
  -0.460  0.1506E+03  0.1577E+03  0.2318E+03
  -0.450  0.9316E+02  0.1111E+03  0.2344E+03
  -0.440  0.1177E+03  0.9562E+02  0.2362E+03
  -0.430  0.1063E+03  0.1458E+03  0.2386E+03
  -0.420  0.1020E+03  0.1112E+03  0.2407E+03
  -0.410  0.9542E+02  0.9871E+02  0.2427E+03
  -0.400  0.7716E+02  0.6534E+02  0.2444E+03
  -0.390  0.1029E+03  0.9780E+02  0.2461E+03
  -0.380  0.1063E+03  0.1104E+03  0.2482E+03
  -0.370  0.1518E+03  0.1253E+03  0.2507E+03
  -0.360  0.1647E+03  0.2874E+03  0.2546E+03
  -0.350  0.1821E+03  0.1910E+03  0.2582E+03
  -0.340  0.1406E+03  0.1386E+03  0.2613E+03
  -0.330  0.1377E+03  0.1438E+03  0.2642E+03
  -0.320  0.1997E+03  0.2051E+03  0.2673E+03
  -0.310  0.4182E+03  0.2500E+03  0.2716E+03
  -0.300  0.4464E+03  0.3982E+03  0.2796E+03
  -0.290  0.3231E+03  0.3931E+03  0.2882E+03
  -0.280  0.2240E+03  0.2499E+03  0.2943E+03
  -0.270  0.2740E+03  0.3057E+03  0.2997E+03
  -0.260  0.2319E+03  0.2041E+03  0.3045E+03
  -0.250  0.4072E+03  0.3892E+03  0.3109E+03
  -0.240  0.2338E+03  0.2490E+03  0.3178E+03
  -0.230  0.2933E+03  0.2743E+03  0.3232E+03
  -0.220  0.2341E+03  0.2306E+03  0.3280E+03
  -0.210  0.1751E+03  0.1891E+03  0.3322E+03
  -0.200  0.1057E+03  0.1169E+03  0.3351E+03
  -0.190  0.1121E+03  0.1257E+03  0.3375E+03
  -0.180  0.2520E+03  0.1237E+03  0.3396E+03
  -0.170  0.1598E+03  0.2563E+03  0.3438E+03
  -0.160  0.1738E+03  0.1195E+03  0.3467E+03
  -0.150  0.2367E+03  0.3071E+03  0.3515E+03
  -0.140  0.1669E+03  0.1790E+03  0.3550E+03
  -0.130  0.7649E+02  0.7663E+02  0.3571E+03
  -0.120  0.6651E+02  0.7395E+02  0.3587E+03
  -0.110  0.5824E+02  0.5401E+02  0.3598E+03
  -0.100  0.6406E+02  0.6030E+02  0.3610E+03
  -0.090  0.5068E+02  0.5063E+02  0.3622E+03
  -0.080  0.6221E+02  0.5389E+02  0.3632E+03
  -0.070  0.6747E+02  0.7500E+02  0.3645E+03
  -0.060  0.6573E+02  0.7398E+02  0.3659E+03
  -0.050  0.5726E+02  0.5929E+02  0.3672E+03
  -0.040  0.3858E+02  0.4862E+02  0.3682E+03
  -0.030  0.3472E+02  0.3536E+02  0.3689E+03
  -0.020  0.4173E+02  0.3949E+02  0.3697E+03
  -0.010  0.5039E+02  0.4728E+02  0.3706E+03
   0.000  0.5701E+02  0.5397E+02  0.3717E+03
   0.010  0.7824E+02  0.7456E+02  0.3730E+03
   0.020  0.6000E+02  0.6465E+02  0.3744E+03
   0.030  0.6468E+02  0.7643E+02  0.3758E+03
   0.040  0.4559E+02  0.4909E+02  0.3769E+03
   0.050  0.3670E+02  0.3797E+02  0.3778E+03
   0.060  0.3951E+02  0.3920E+02  0.3785E+03
   0.070  0.6216E+02  0.4588E+02  0.3794E+03
   0.080  0.5617E+01  0.7830E+01  0.3799E+03
   0.090  0.1398E+01  0.1896E+01  0.3800E+03
   0.100  0.6856E-01  0.1499E+00  0.3800E+03
   0.110  0.1389E-01  0.4416E-02  0.3800E+03
   0.120  0.2490E-01  0.1114E-01  0.3800E+03
   0.130  0.3917E-01  0.2109E-01  0.3800E+03
   0.140  0.5669E-01  0.3427E-01  0.3800E+03
   0.150  0.7747E-01  0.5067E-01  0.3800E+03
   0.160  0.1015E+00  0.7030E-01  0.3800E+03
   0.170  0.1288E+00  0.9315E-01  0.3800E+03
   0.180  0.1593E+00  0.1192E+00  0.3800E+03
   0.190  0.1932E+00  0.1485E+00  0.3800E+03
   0.200  0.2302E+00  0.1811E+00  0.3800E+03
   0.210  0.2705E+00  0.2168E+00  0.3800E+03
   0.220  0.3141E+00  0.2558E+00  0.3800E+03
   0.230  0.3609E+00  0.2980E+00  0.3800E+03
   0.240  0.4110E+00  0.3434E+00  0.3800E+03
   0.250  0.4644E+00  0.3921E+00  0.3800E+03
   0.260  0.5210E+00  0.4440E+00  0.3801E+03
   0.270  0.5809E+00  0.4991E+00  0.3801E+03
   0.280  0.1022E+01  0.5574E+00  0.3801E+03
   0.290  0.3148E+01  0.8008E+00  0.3801E+03
   0.300  0.2101E+01  0.2056E+01  0.3801E+03
   0.310  0.1300E+01  0.3213E+01  0.3802E+03
   0.320  0.1346E+01  0.1431E+01  0.3802E+03
   0.330  0.1424E+01  0.1333E+01  0.3803E+03
   0.340  0.1525E+01  0.1404E+01  0.3803E+03
   0.350  0.1649E+01  0.1500E+01  0.3803E+03
   0.360  0.1796E+01  0.1619E+01  0.3803E+03
   0.370  0.1966E+01  0.1760E+01  0.3804E+03
   0.380  0.2160E+01  0.1924E+01  0.3804E+03
   0.390  0.2376E+01  0.2110E+01  0.3805E+03
   0.400  0.2616E+01  0.2320E+01  0.3805E+03
   0.410  0.2879E+01  0.2551E+01  0.3806E+03
   0.420  0.3164E+01  0.2806E+01  0.3806E+03
   0.430  0.3489E+01  0.3083E+01  0.3807E+03
   0.440  0.4128E+01  0.3389E+01  0.3808E+03
   0.450  0.5078E+01  0.3919E+01  0.3808E+03
   0.460  0.5955E+01  0.4770E+01  0.3809E+03
   0.470  0.6754E+01  0.5616E+01  0.3810E+03
   0.480  0.7485E+01  0.6433E+01  0.3812E+03
   0.490  0.8144E+01  0.7236E+01  0.3813E+03
   0.500  0.8794E+01  0.8014E+01  0.3815E+03
   0.510  0.9648E+01  0.8740E+01  0.3817E+03
   0.520  0.1009E+02  0.9246E+01  0.3819E+03
   0.530  0.9720E+01  0.9696E+01  0.3820E+03
   0.540  0.8896E+01  0.9494E+01  0.3822E+03
   0.550  0.8884E+01  0.8660E+01  0.3824E+03
   0.560  0.9209E+01  0.8445E+01  0.3826E+03
   0.570  0.1070E+02  0.8665E+01  0.3828E+03
   0.580  0.1245E+02  0.9459E+01  0.3830E+03
   0.590  0.1286E+02  0.1073E+02  0.3832E+03
   0.600  0.9790E+01  0.1156E+02  0.3834E+03
   0.610  0.8862E+01  0.1272E+02  0.3836E+03
   0.620  0.8726E+01  0.9477E+01  0.3838E+03
   0.630  0.8725E+01  0.8955E+01  0.3840E+03
   0.640  0.9013E+01  0.8837E+01  0.3842E+03
   0.650  0.9606E+01  0.8964E+01  0.3844E+03
   0.660  0.1045E+02  0.9350E+01  0.3846E+03
   0.670  0.1183E+02  0.9919E+01  0.3848E+03
   0.680  0.1363E+02  0.1093E+02  0.3850E+03
   0.690  0.1540E+02  0.1220E+02  0.3853E+03
   0.700  0.1693E+02  0.1333E+02  0.3856E+03
   0.710  0.1701E+02  0.1468E+02  0.3859E+03
   0.720  0.1690E+02  0.1554E+02  0.3862E+03
   0.730  0.1392E+02  0.1840E+02  0.3865E+03
   0.740  0.1394E+02  0.1464E+02  0.3868E+03
   0.750  0.1672E+02  0.1241E+02  0.3871E+03
   0.760  0.1878E+02  0.1319E+02  0.3874E+03
   0.770  0.1658E+02  0.1596E+02  0.3878E+03
   0.780  0.1784E+02  0.1591E+02  0.3881E+03
   0.790  0.2084E+02  0.1884E+02  0.3885E+03
   0.800  0.1939E+02  0.2000E+02  0.3889E+03
   0.810  0.1930E+02  0.1992E+02  0.3893E+03
   0.820  0.2045E+02  0.1969E+02  0.3897E+03
   0.830  0.2262E+02  0.1951E+02  0.3901E+03
   0.840  0.2291E+02  0.2216E+02  0.3905E+03
   0.850  0.2090E+02  0.2563E+02  0.3910E+03
   0.860  0.1938E+02  0.2462E+02  0.3914E+03
   0.870  0.2141E+02  0.2185E+02  0.3918E+03
   0.880  0.2672E+02  0.2040E+02  0.3923E+03
   0.890  0.3435E+02  0.2181E+02  0.3929E+03
   0.900  0.2521E+02  0.2731E+02  0.3934E+03
   0.910  0.3130E+02  0.3325E+02  0.3940E+03
   0.920  0.2718E+02  0.2846E+02  0.3946E+03
   0.930  0.2973E+02  0.3270E+02  0.3952E+03
   0.940  0.4548E+02  0.2450E+02  0.3960E+03
   0.950  0.2713E+02  0.2364E+02  0.3966E+03
   0.960  0.3162E+02  0.5452E+02  0.3972E+03
   0.970  0.4529E+02  0.3768E+02  0.3981E+03
   0.980  0.4190E+02  0.3857E+02  0.3989E+03
   0.990  0.5048E+02  0.4119E+02  0.3998E+03
   1.000  0.2985E+02  0.3156E+02  0.4006E+03
   1.010  0.2171E+02  0.3168E+02  0.4011E+03
   1.020  0.3593E+02  0.2759E+02  0.4017E+03
   1.030  0.3804E+02  0.2255E+02  0.4023E+03
   1.040  0.2778E+02  0.1902E+02  0.4029E+03
   1.050  0.2830E+02  0.3190E+02  0.4034E+03
   1.060  0.2449E+02  0.3760E+02  0.4040E+03
   1.070  0.1804E+02  0.3471E+02  0.4046E+03
   1.080  0.2147E+02  0.2809E+02  0.4051E+03
   1.090  0.2920E+02  0.2478E+02  0.4056E+03
   1.100  0.3103E+02  0.2763E+02  0.4062E+03
   1.110  0.3020E+02  0.2692E+02  0.4067E+03
   1.120  0.3233E+02  0.2509E+02  0.4073E+03
   1.130  0.2865E+02  0.2539E+02  0.4079E+03
   1.140  0.2496E+02  0.2530E+02  0.4084E+03
   1.150  0.2303E+02  0.2374E+02  0.4089E+03
   1.160  0.2290E+02  0.2256E+02  0.4093E+03
   1.170  0.2363E+02  0.2200E+02  0.4098E+03
   1.180  0.2056E+02  0.2418E+02  0.4102E+03
   1.190  0.1951E+02  0.2462E+02  0.4107E+03
   1.200  0.2001E+02  0.2342E+02  0.4111E+03
   1.210  0.2192E+02  0.1861E+02  0.4115E+03
   1.220  0.2137E+02  0.1784E+02  0.4119E+03
   1.230  0.1554E+02  0.1791E+02  0.4123E+03
   1.240  0.1221E+02  0.1764E+02  0.4126E+03
   1.250  0.9322E+01  0.1722E+02  0.4129E+03
   1.260  0.7008E+01  0.1607E+02  0.4131E+03
   1.270  0.7283E+01  0.1538E+02  0.4134E+03
   1.280  0.9746E+01  0.1668E+02  0.4136E+03
   1.290  0.1163E+02  0.1070E+02  0.4138E+03
   1.300  0.1468E+02  0.8563E+01  0.4141E+03
   1.310  0.1856E+02  0.8282E+01  0.4143E+03
   1.320  0.2153E+02  0.1049E+02  0.4146E+03
   1.330  0.2239E+02  0.1391E+02  0.4150E+03
   1.340  0.2123E+02  0.1587E+02  0.4153E+03
   1.350  0.2007E+02  0.1750E+02  0.4157E+03
   1.360  0.1991E+02  0.1874E+02  0.4161E+03
   1.370  0.2029E+02  0.1940E+02  0.4165E+03
   1.380  0.2045E+02  0.1933E+02  0.4169E+03
   1.390  0.2039E+02  0.1851E+02  0.4173E+03
   1.400  0.2146E+02  0.1754E+02  0.4176E+03
   1.410  0.1532E+02  0.1716E+02  0.4180E+03
   1.420  0.1309E+02  0.1697E+02  0.4183E+03
   1.430  0.1248E+02  0.1642E+02  0.4186E+03
   1.440  0.1208E+02  0.1737E+02  0.4189E+03
   1.450  0.1136E+02  0.1597E+02  0.4192E+03
   1.460  0.1086E+02  0.1533E+02  0.4195E+03
   1.470  0.1100E+02  0.1444E+02  0.4197E+03
   1.480  0.1159E+02  0.1332E+02  0.4200E+03
   1.490  0.1257E+02  0.1248E+02  0.4202E+03
   1.500  0.1565E+02  0.1167E+02  0.4205E+03
   1.510  0.2004E+02  0.1097E+02  0.4208E+03
   1.520  0.2442E+02  0.1035E+02  0.4211E+03
   1.530  0.1477E+02  0.8705E+01  0.4214E+03
   1.540  0.1141E+02  0.9412E+01  0.4216E+03
   1.550  0.1096E+02  0.1367E+02  0.4218E+03
   1.560  0.1101E+02  0.1738E+02  0.4221E+03
   1.570  0.1129E+02  0.1892E+02  0.4224E+03
   1.580  0.1190E+02  0.1781E+02  0.4227E+03
   1.590  0.1116E+02  0.1583E+02  0.4230E+03
   1.600  0.1133E+02  0.1429E+02  0.4232E+03
   1.610  0.1169E+02  0.1035E+02  0.4235E+03
   1.620  0.1186E+02  0.1306E+02  0.4237E+03
   1.630  0.1164E+02  0.1074E+02  0.4239E+03
   1.640  0.1151E+02  0.1096E+02  0.4242E+03
   1.650  0.1173E+02  0.1007E+02  0.4244E+03
   1.660  0.1243E+02  0.7961E+01  0.4246E+03
   1.670  0.1284E+02  0.7238E+01  0.4248E+03
   1.680  0.1239E+02  0.6796E+01  0.4250E+03
   1.690  0.1231E+02  0.6548E+01  0.4252E+03
   1.700  0.1139E+02  0.6378E+01  0.4254E+03
   1.710  0.9263E+01  0.6302E+01  0.4255E+03
   1.720  0.7320E+01  0.6317E+01  0.4257E+03
   1.730  0.6789E+01  0.6390E+01  0.4258E+03
   1.740  0.5794E+01  0.6534E+01  0.4259E+03
   1.750  0.6008E+01  0.6699E+01  0.4261E+03
   1.760  0.6530E+01  0.6898E+01  0.4262E+03
   1.770  0.7642E+01  0.7120E+01  0.4263E+03
   1.780  0.8910E+01  0.7360E+01  0.4265E+03
   1.790  0.9903E+01  0.7624E+01  0.4267E+03
   1.800  0.9785E+01  0.7922E+01  0.4268E+03
   1.810  0.9955E+01  0.8221E+01  0.4270E+03
   1.820  0.1070E+02  0.8557E+01  0.4272E+03
   1.830  0.1169E+02  0.9065E+01  0.4274E+03
   1.840  0.1251E+02  0.9350E+01  0.4276E+03
   1.850  0.1274E+02  0.9499E+01  0.4278E+03
   1.860  0.1272E+02  0.9655E+01  0.4281E+03
   1.870  0.1252E+02  0.9699E+01  0.4283E+03
   1.880  0.1167E+02  0.9617E+01  0.4285E+03
   1.890  0.1063E+02  0.9474E+01  0.4287E+03
   1.900  0.1002E+02  0.9316E+01  0.4289E+03
   1.910  0.1018E+02  0.9334E+01  0.4291E+03
   1.920  0.8983E+01  0.9407E+01  0.4293E+03
   1.930  0.7577E+01  0.9221E+01  0.4295E+03
   1.940  0.6706E+01  0.7744E+01  0.4296E+03
   1.950  0.6641E+01  0.7534E+01  0.4298E+03
   1.960  0.6488E+01  0.7925E+01  0.4299E+03
   1.970  0.6284E+01  0.8455E+01  0.4301E+03
   1.980  0.6717E+01  0.8908E+01  0.4302E+03
   1.990  0.7318E+01  0.9378E+01  0.4304E+03
   2.000  0.7977E+01  0.9922E+01  0.4305E+03
   2.010  0.8279E+01  0.1052E+02  0.4307E+03
   2.020  0.8318E+01  0.1118E+02  0.4309E+03
   2.030  0.8699E+01  0.1111E+02  0.4311E+03
   2.040  0.8972E+01  0.1085E+02  0.4313E+03
   2.050  0.9254E+01  0.1040E+02  0.4315E+03
   2.060  0.9557E+01  0.9721E+01  0.4317E+03
   2.070  0.9523E+01  0.8929E+01  0.4319E+03
   2.080  0.9043E+01  0.8138E+01  0.4321E+03
   2.090  0.9088E+01  0.7337E+01  0.4322E+03
   2.100  0.9820E+01  0.6535E+01  0.4324E+03
   2.110  0.1058E+02  0.5775E+01  0.4326E+03
   2.120  0.1069E+02  0.5592E+01  0.4327E+03
   2.130  0.9466E+01  0.5585E+01  0.4329E+03
   2.140  0.9093E+01  0.5654E+01  0.4330E+03
   2.150  0.9346E+01  0.5734E+01  0.4332E+03
   2.160  0.9081E+01  0.5794E+01  0.4333E+03
   2.170  0.8098E+01  0.5831E+01  0.4335E+03
   2.180  0.6624E+01  0.5841E+01  0.4336E+03
   2.190  0.5894E+01  0.5826E+01  0.4337E+03
   2.200  0.5390E+01  0.5793E+01  0.4338E+03
   2.210  0.5276E+01  0.5872E+01  0.4340E+03
   2.220  0.5287E+01  0.6047E+01  0.4341E+03
   2.230  0.5390E+01  0.6241E+01  0.4342E+03
   2.240  0.5590E+01  0.6476E+01  0.4343E+03
   2.250  0.5958E+01  0.6712E+01  0.4344E+03
   2.260  0.6578E+01  0.6946E+01  0.4346E+03
   2.270  0.7246E+01  0.7174E+01  0.4347E+03
   2.280  0.7828E+01  0.7378E+01  0.4348E+03
   2.290  0.8229E+01  0.7554E+01  0.4350E+03
   2.300  0.8436E+01  0.7687E+01  0.4352E+03
   2.310  0.8622E+01  0.7765E+01  0.4353E+03
   2.320  0.8995E+01  0.7792E+01  0.4355E+03
   2.330  0.9575E+01  0.7779E+01  0.4357E+03
   2.340  0.1017E+02  0.7683E+01  0.4358E+03
   2.350  0.1077E+02  0.7416E+01  0.4360E+03
   2.360  0.1190E+02  0.7986E+01  0.4362E+03
   2.370  0.1287E+02  0.8094E+01  0.4364E+03
   2.380  0.1359E+02  0.8252E+01  0.4366E+03
   2.390  0.1385E+02  0.8458E+01  0.4368E+03
   2.400  0.1399E+02  0.8826E+01  0.4371E+03
   2.410  0.1422E+02  0.1081E+02  0.4373E+03
   2.420  0.1410E+02  0.1166E+02  0.4376E+03
   2.430  0.1641E+02  0.1239E+02  0.4378E+03
   2.440  0.1704E+02  0.1319E+02  0.4381E+03
   2.450  0.1736E+02  0.1401E+02  0.4384E+03
   2.460  0.1766E+02  0.1455E+02  0.4388E+03
   2.470  0.1768E+02  0.1469E+02  0.4391E+03
   2.480  0.1785E+02  0.1483E+02  0.4394E+03
   2.490  0.1832E+02  0.1530E+02  0.4397E+03
   2.500  0.1885E+02  0.1604E+02  0.4401E+03
   2.510  0.1937E+02  0.1699E+02  0.4404E+03
   2.520  0.1997E+02  0.1800E+02  0.4408E+03
   2.530  0.2014E+02  0.1986E+02  0.4412E+03
   2.540  0.2050E+02  0.2197E+02  0.4416E+03
   2.550  0.2175E+02  0.2462E+02  0.4420E+03
   2.560  0.2305E+02  0.2619E+02  0.4425E+03
   2.570  0.2155E+02  0.2744E+02  0.4430E+03
   2.580  0.2257E+02  0.2853E+02  0.4435E+03
   2.590  0.1997E+02  0.3529E+02  0.4441E+03
   2.600  0.2220E+02  0.3758E+02  0.4446E+03
   2.610  0.2302E+02  0.3156E+02  0.4452E+03
   2.620  0.2316E+02  0.2690E+02  0.4457E+03
   2.630  0.1868E+02  0.2847E+02  0.4462E+03
   2.640  0.1667E+02  0.1909E+02  0.4466E+03
   2.650  0.2461E+02  0.9627E+01  0.4469E+03
   2.660  0.2713E+02  0.9122E+01  0.4473E+03
   2.670  0.1915E+02  0.1539E+02  0.4476E+03
   2.680  0.1665E+02  0.2775E+02  0.4481E+03
   2.690  0.2285E+02  0.1831E+02  0.4485E+03
   2.700  0.2587E+02  0.1497E+02  0.4489E+03
   2.710  0.2139E+02  0.1594E+02  0.4493E+03
   2.720  0.1833E+02  0.1909E+02  0.4497E+03
   2.730  0.1703E+02  0.2267E+02  0.4501E+03
   2.740  0.1776E+02  0.2025E+02  0.4505E+03
   2.750  0.1736E+02  0.2006E+02  0.4508E+03
   2.760  0.2110E+02  0.1647E+02  0.4512E+03
   2.770  0.2874E+02  0.1702E+02  0.4517E+03
   2.780  0.2046E+02  0.2005E+02  0.4521E+03
   2.790  0.1777E+02  0.2549E+02  0.4525E+03
   2.800  0.2005E+02  0.2807E+02  0.4529E+03
   2.810  0.2493E+02  0.2215E+02  0.4534E+03
   2.820  0.2547E+02  0.1896E+02  0.4539E+03
   2.830  0.2311E+02  0.1814E+02  0.4543E+03
   2.840  0.2057E+02  0.1880E+02  0.4547E+03
   2.850  0.1853E+02  0.1926E+02  0.4551E+03
   2.860  0.2044E+02  0.1951E+02  0.4555E+03
   2.870  0.2245E+02  0.1824E+02  0.4559E+03
   2.880  0.2318E+02  0.1770E+02  0.4563E+03
   2.890  0.2366E+02  0.2115E+02  0.4567E+03
   2.900  0.2429E+02  0.2567E+02  0.4572E+03
   2.910  0.2625E+02  0.2553E+02  0.4577E+03
   2.920  0.2541E+02  0.2479E+02  0.4582E+03
   2.930  0.2401E+02  0.2213E+02  0.4587E+03
   2.940  0.2322E+02  0.2036E+02  0.4591E+03
   2.950  0.2860E+02  0.1845E+02  0.4596E+03
   2.960  0.2692E+02  0.1780E+02  0.4600E+03
   2.970  0.2063E+02  0.2483E+02  0.4605E+03
   2.980  0.1945E+02  0.2579E+02  0.4610E+03
   2.990  0.2173E+02  0.2445E+02  0.4614E+03
   3.000  0.2173E+02  0.2674E+02  0.4619E+03
   3.010  0.2149E+02  0.2778E+02  0.4624E+03
   3.020  0.2115E+02  0.2321E+02  0.4629E+03
   3.030  0.2037E+02  0.1771E+02  0.4633E+03
   3.040  0.1898E+02  0.1622E+02  0.4636E+03
   3.050  0.1938E+02  0.1563E+02  0.4640E+03
   3.060  0.2064E+02  0.1850E+02  0.4643E+03
   3.070  0.2171E+02  0.2287E+02  0.4648E+03
   3.080  0.2359E+02  0.3373E+02  0.4652E+03
   3.090  0.2580E+02  0.2654E+02  0.4657E+03
   3.100  0.2720E+02  0.2592E+02  0.4663E+03
   3.110  0.2905E+02  0.2648E+02  0.4668E+03
   3.120  0.2965E+02  0.3155E+02  0.4674E+03
   3.130  0.2866E+02  0.2860E+02  0.4680E+03
   3.140  0.2902E+02  0.2264E+02  0.4685E+03
   3.150  0.2636E+02  0.2436E+02  0.4691E+03
   3.160  0.2784E+02  0.2233E+02  0.4696E+03
   3.170  0.2856E+02  0.2247E+02  0.4701E+03
   3.180  0.2828E+02  0.2704E+02  0.4706E+03
   3.190  0.2632E+02  0.2823E+02  0.4712E+03
   3.200  0.2414E+02  0.2896E+02  0.4717E+03
   3.210  0.2336E+02  0.2957E+02  0.4722E+03
   3.220  0.2293E+02  0.2998E+02  0.4728E+03
   3.230  0.2382E+02  0.2633E+02  0.4733E+03
   3.240  0.2491E+02  0.2561E+02  0.4738E+03
   3.250  0.2326E+02  0.2666E+02  0.4743E+03
   3.260  0.2310E+02  0.2777E+02  0.4748E+03
   3.270  0.2383E+02  0.2851E+02  0.4753E+03
   3.280  0.2514E+02  0.2753E+02  0.4758E+03
   3.290  0.2687E+02  0.2833E+02  0.4764E+03
   3.300  0.2923E+02  0.2951E+02  0.4769E+03
   3.310  0.3131E+02  0.2829E+02  0.4775E+03
   3.320  0.3102E+02  0.2731E+02  0.4781E+03
   3.330  0.3114E+02  0.2768E+02  0.4787E+03
   3.340  0.3147E+02  0.2865E+02  0.4793E+03
   3.350  0.3177E+02  0.2941E+02  0.4799E+03
   3.360  0.2945E+02  0.3010E+02  0.4805E+03
   3.370  0.2987E+02  0.3095E+02  0.4811E+03
   3.380  0.3083E+02  0.2998E+02  0.4817E+03
   3.390  0.3194E+02  0.3065E+02  0.4823E+03
   3.400  0.3002E+02  0.3199E+02  0.4830E+03
   3.410  0.3112E+02  0.3322E+02  0.4836E+03
   3.420  0.3263E+02  0.3179E+02  0.4842E+03
   3.430  0.3259E+02  0.2996E+02  0.4849E+03
   3.440  0.3293E+02  0.2961E+02  0.4855E+03
   3.450  0.3380E+02  0.2989E+02  0.4861E+03
   3.460  0.3381E+02  0.3039E+02  0.4868E+03
   3.470  0.3269E+02  0.2868E+02  0.4874E+03
   3.480  0.3290E+02  0.2766E+02  0.4880E+03
   3.490  0.3214E+02  0.2873E+02  0.4886E+03
   3.500  0.3169E+02  0.2940E+02  0.4892E+03
   3.510  0.3152E+02  0.2864E+02  0.4898E+03
   3.520  0.3078E+02  0.2664E+02  0.4904E+03
   3.530  0.2835E+02  0.2632E+02  0.4910E+03
   3.540  0.2723E+02  0.2641E+02  0.4915E+03
   3.550  0.2628E+02  0.2620E+02  0.4920E+03
   3.560  0.2469E+02  0.2603E+02  0.4926E+03
   3.570  0.2321E+02  0.2689E+02  0.4931E+03
   3.580  0.2243E+02  0.2993E+02  0.4936E+03
   3.590  0.2302E+02  0.3053E+02  0.4941E+03
   3.600  0.2377E+02  0.2908E+02  0.4946E+03
   3.610  0.2373E+02  0.2685E+02  0.4951E+03
   3.620  0.2393E+02  0.2653E+02  0.4956E+03
   3.630  0.2548E+02  0.2617E+02  0.4962E+03
   3.640  0.2695E+02  0.2795E+02  0.4967E+03
   3.650  0.3023E+02  0.2976E+02  0.4973E+03
   3.660  0.2615E+02  0.2746E+02  0.4978E+03
   3.670  0.3350E+02  0.2585E+02  0.4984E+03
   3.680  0.3814E+02  0.2679E+02  0.4990E+03
   3.690  0.3573E+02  0.2584E+02  0.4997E+03
   3.700  0.3077E+02  0.3516E+02  0.5003E+03
   3.710  0.4643E+02  0.3155E+02  0.5010E+03
   3.720  0.3944E+02  0.3920E+02  0.5018E+03
   3.730  0.3510E+02  0.5922E+02  0.5027E+03
   3.740  0.3005E+02  0.3951E+02  0.5034E+03
   3.750  0.2876E+02  0.3450E+02  0.5041E+03
   3.760  0.2572E+02  0.2936E+02  0.5047E+03
   3.770  0.2212E+02  0.2385E+02  0.5052E+03
   3.780  0.2031E+02  0.2082E+02  0.5056E+03
   3.790  0.2612E+02  0.1925E+02  0.5060E+03
   3.800  0.4211E+02  0.2071E+02  0.5066E+03
   3.810  0.2989E+02  0.2471E+02  0.5072E+03
   3.820  0.2151E+02  0.2670E+02  0.5077E+03
   3.830  0.2401E+02  0.2359E+02  0.5082E+03
   3.840  0.3058E+02  0.2394E+02  0.5087E+03
   3.850  0.3399E+02  0.2457E+02  0.5092E+03
   3.860  0.3154E+02  0.2521E+02  0.5098E+03
   3.870  0.2609E+02  0.2413E+02  0.5104E+03
   3.880  0.2624E+02  0.2436E+02  0.5109E+03
   3.890  0.2856E+02  0.2490E+02  0.5114E+03
   3.900  0.2853E+02  0.2512E+02  0.5119E+03
   3.910  0.2775E+02  0.2493E+02  0.5125E+03
   3.920  0.2573E+02  0.2483E+02  0.5130E+03
   3.930  0.2710E+02  0.2496E+02  0.5135E+03
   3.940  0.2742E+02  0.2462E+02  0.5140E+03
   3.950  0.2710E+02  0.2605E+02  0.5145E+03
   3.960  0.2730E+02  0.2798E+02  0.5151E+03
   3.970  0.2896E+02  0.2906E+02  0.5156E+03
   3.980  0.3377E+02  0.2949E+02  0.5162E+03
   3.990  0.3200E+02  0.3036E+02  0.5169E+03
   4.000  0.2900E+02  0.3125E+02  0.5175E+03
   4.010  0.3077E+02  0.3419E+02  0.5181E+03
   4.020  0.3108E+02  0.3589E+02  0.5187E+03
   4.030  0.3090E+02  0.3644E+02  0.5194E+03
   4.040  0.3266E+02  0.3558E+02  0.5201E+03
   4.050  0.3222E+02  0.3593E+02  0.5208E+03
   4.060  0.3151E+02  0.3461E+02  0.5214E+03
   4.070  0.3135E+02  0.3380E+02  0.5221E+03
   4.080  0.3025E+02  0.3399E+02  0.5227E+03
   4.090  0.2938E+02  0.3268E+02  0.5234E+03
   4.100  0.2912E+02  0.3072E+02  0.5240E+03
   4.110  0.2897E+02  0.3040E+02  0.5246E+03
   4.120  0.2896E+02  0.2970E+02  0.5252E+03
   4.130  0.2945E+02  0.2894E+02  0.5258E+03
   4.140  0.3273E+02  0.2846E+02  0.5264E+03
   4.150  0.3266E+02  0.2830E+02  0.5270E+03
   4.160  0.3118E+02  0.2802E+02  0.5276E+03
   4.170  0.3084E+02  0.2788E+02  0.5282E+03
   4.180  0.2925E+02  0.3001E+02  0.5288E+03
   4.190  0.2752E+02  0.3128E+02  0.5293E+03
   4.200  0.2715E+02  0.3283E+02  0.5299E+03
   4.210  0.2737E+02  0.3305E+02  0.5305E+03
   4.220  0.2886E+02  0.3002E+02  0.5311E+03
   4.230  0.2808E+02  0.2734E+02  0.5317E+03
   4.240  0.2864E+02  0.2626E+02  0.5323E+03
   4.250  0.2784E+02  0.2616E+02  0.5328E+03
   4.260  0.2709E+02  0.2564E+02  0.5333E+03
   4.270  0.2975E+02  0.2400E+02  0.5339E+03
   4.280  0.3302E+02  0.2582E+02  0.5344E+03
   4.290  0.3624E+02  0.2595E+02  0.5351E+03
   4.300  0.2854E+02  0.2687E+02  0.5357E+03
   4.310  0.2686E+02  0.3141E+02  0.5362E+03
   4.320  0.2523E+02  0.3473E+02  0.5368E+03
   4.330  0.2397E+02  0.3488E+02  0.5374E+03
   4.340  0.2548E+02  0.3340E+02  0.5380E+03
   4.350  0.2731E+02  0.3096E+02  0.5386E+03
   4.360  0.2495E+02  0.2853E+02  0.5391E+03
   4.370  0.2742E+02  0.2447E+02  0.5397E+03
   4.380  0.2718E+02  0.2109E+02  0.5402E+03
   4.390  0.2280E+02  0.2080E+02  0.5406E+03
   4.400  0.2262E+02  0.2277E+02  0.5411E+03
   4.410  0.2335E+02  0.2567E+02  0.5416E+03
   4.420  0.2542E+02  0.2576E+02  0.5421E+03
   4.430  0.2795E+02  0.2614E+02  0.5426E+03
   4.440  0.2872E+02  0.2369E+02  0.5431E+03
   4.450  0.2852E+02  0.2356E+02  0.5437E+03
   4.460  0.2798E+02  0.2384E+02  0.5442E+03
   4.470  0.2745E+02  0.2446E+02  0.5447E+03
   4.480  0.2682E+02  0.2472E+02  0.5452E+03
   4.490  0.2492E+02  0.2512E+02  0.5457E+03
   4.500  0.2313E+02  0.2195E+02  0.5462E+03
   4.510  0.2234E+02  0.2025E+02  0.5467E+03
   4.520  0.2229E+02  0.2036E+02  0.5471E+03
   4.530  0.2283E+02  0.2085E+02  0.5475E+03
   4.540  0.2345E+02  0.2184E+02  0.5480E+03
   4.550  0.2401E+02  0.2272E+02  0.5484E+03
   4.560  0.2485E+02  0.2294E+02  0.5489E+03
   4.570  0.2578E+02  0.2295E+02  0.5494E+03
   4.580  0.2769E+02  0.2379E+02  0.5499E+03
   4.590  0.2476E+02  0.2527E+02  0.5504E+03
   4.600  0.2573E+02  0.2804E+02  0.5509E+03
   4.610  0.2998E+02  0.2923E+02  0.5515E+03
   4.620  0.3511E+02  0.3468E+02  0.5521E+03
   4.630  0.3119E+02  0.3709E+02  0.5528E+03
   4.640  0.3301E+02  0.2379E+02  0.5534E+03
   4.650  0.3127E+02  0.2570E+02  0.5540E+03
   4.660  0.2133E+02  0.2283E+02  0.5545E+03
   4.670  0.1873E+02  0.2016E+02  0.5549E+03
   4.680  0.2700E+02  0.1873E+02  0.5553E+03
   4.690  0.2057E+02  0.1790E+02  0.5558E+03
   4.700  0.1800E+02  0.1736E+02  0.5561E+03
   4.710  0.1822E+02  0.1694E+02  0.5565E+03
   4.720  0.2213E+02  0.1656E+02  0.5569E+03
   4.730  0.2419E+02  0.1621E+02  0.5573E+03
   4.740  0.2325E+02  0.1591E+02  0.5577E+03
   4.750  0.2285E+02  0.1576E+02  0.5581E+03
   4.760  0.1811E+02  0.1574E+02  0.5584E+03
   4.770  0.1662E+02  0.1575E+02  0.5587E+03
   4.780  0.1584E+02  0.1535E+02  0.5591E+03
   4.790  0.1515E+02  0.1422E+02  0.5594E+03
   4.800  0.1445E+02  0.1414E+02  0.5597E+03
   4.810  0.1374E+02  0.1348E+02  0.5599E+03
   4.820  0.1351E+02  0.1263E+02  0.5602E+03
   4.830  0.1790E+02  0.1499E+02  0.5605E+03
   4.840  0.1771E+02  0.1411E+02  0.5608E+03
   4.850  0.1771E+02  0.1345E+02  0.5611E+03
   4.860  0.1829E+02  0.1354E+02  0.5614E+03
   4.870  0.1834E+02  0.1437E+02  0.5618E+03
   4.880  0.1718E+02  0.1463E+02  0.5621E+03
   4.890  0.1827E+02  0.1479E+02  0.5624E+03
   4.900  0.1879E+02  0.1738E+02  0.5628E+03
   4.910  0.1773E+02  0.1362E+02  0.5631E+03
   4.920  0.1617E+02  0.1206E+02  0.5634E+03
   4.930  0.1490E+02  0.1149E+02  0.5637E+03
   4.940  0.1354E+02  0.1090E+02  0.5639E+03
   4.950  0.1228E+02  0.1029E+02  0.5642E+03
   4.960  0.1197E+02  0.9661E+01  0.5644E+03
   4.970  0.1299E+02  0.9085E+01  0.5646E+03
   4.980  0.1316E+02  0.8401E+01  0.5648E+03
   4.990  0.1231E+02  0.7935E+01  0.5650E+03
   5.000  0.1081E+02  0.7591E+01  0.5652E+03
   5.010  0.1147E+02  0.7218E+01  0.5654E+03
   5.020  0.1069E+02  0.6755E+01  0.5656E+03
   5.030  0.1132E+02  0.8769E+01  0.5658E+03
   5.040  0.1493E+02  0.1582E+02  0.5660E+03
   5.050  0.1654E+02  0.1843E+02  0.5664E+03
   5.060  0.1655E+02  0.1587E+02  0.5667E+03
   5.070  0.1309E+02  0.1435E+02  0.5670E+03
   5.080  0.1033E+02  0.1447E+02  0.5673E+03
   5.090  0.7755E+01  0.1423E+02  0.5675E+03
   5.100  0.5601E+01  0.1370E+02  0.5677E+03
   5.110  0.5010E+01  0.1262E+02  0.5679E+03
   5.120  0.4643E+01  0.1129E+02  0.5680E+03
   5.130  0.4342E+01  0.1026E+02  0.5682E+03
   5.140  0.4062E+01  0.9191E+01  0.5683E+03
   5.150  0.3749E+01  0.8143E+01  0.5685E+03
   5.160  0.3394E+01  0.6949E+01  0.5686E+03
   5.170  0.3025E+01  0.5856E+01  0.5687E+03
   5.180  0.6691E+01  0.4951E+01  0.5688E+03
   5.190  0.1349E+02  0.4279E+01  0.5689E+03
   5.200  0.1474E+02  0.3718E+01  0.5691E+03
   5.210  0.1482E+02  0.3206E+01  0.5693E+03
   5.220  0.1316E+02  0.2806E+01  0.5694E+03
   5.230  0.1123E+02  0.2510E+01  0.5696E+03
   5.240  0.9608E+01  0.2861E+01  0.5697E+03
   5.250  0.9688E+01  0.2769E+01  0.5699E+03
   5.260  0.1066E+02  0.2323E+01  0.5700E+03
   5.270  0.1045E+02  0.1437E+01  0.5701E+03
   5.280  0.9945E+01  0.7461E+00  0.5702E+03
   5.290  0.9337E+01  0.6000E+00  0.5703E+03
   5.300  0.8623E+01  0.4756E+00  0.5704E+03
   5.310  0.7860E+01  0.3661E+00  0.5705E+03
   5.320  0.7207E+01  0.2711E+00  0.5706E+03
   5.330  0.6493E+01  0.1904E+00  0.5707E+03
   5.340  0.5762E+01  0.1239E+00  0.5707E+03
   5.350  0.4986E+01  0.7165E-01  0.5708E+03
   5.360  0.4877E+01  0.7568E+00  0.5708E+03
   5.370  0.3875E+01  0.2104E+02  0.5709E+03
   5.380  0.3111E+01  0.3516E+02  0.5713E+03
   5.390  0.2538E+01  0.3809E+02  0.5717E+03
   5.400  0.1995E+01  0.3173E+02  0.5721E+03
   5.410  0.1471E+01  0.2501E+02  0.5724E+03
   5.420  0.9659E+00  0.2405E+02  0.5726E+03
   5.430  0.4730E+00  0.1551E+02  0.5728E+03
   5.440  0.1343E+00  0.6302E+01  0.5729E+03
   5.450  0.3902E-01  0.2025E+01  0.5730E+03
   5.460  0.4822E-02  0.4705E+00  0.5730E+03
   5.470  0.3575E-03  0.1293E-02  0.5730E+03
   5.480  0.0000E+00  0.0000E+00  0.5730E+03
   5.490  0.0000E+00  0.0000E+00  0.5730E+03
   5.500  0.0000E+00  0.0000E+00  0.5730E+03
   5.510  0.0000E+00  0.0000E+00  0.5730E+03
   5.520  0.0000E+00  0.0000E+00  0.5730E+03
   5.530  0.0000E+00  0.0000E+00  0.5730E+03
   5.540  0.0000E+00  0.0000E+00  0.5730E+03
   5.550  0.0000E+00  0.0000E+00  0.5730E+03
   5.560  0.0000E+00  0.0000E+00  0.5730E+03
   5.570  0.0000E+00  0.0000E+00  0.5730E+03
   5.580  0.0000E+00  0.0000E+00  0.5730E+03
   5.590  0.0000E+00  0.0000E+00  0.5730E+03
   5.600  0.0000E+00  0.0000E+00  0.5730E+03
   5.610  0.0000E+00  0.0000E+00  0.5730E+03
   5.620  0.0000E+00  0.0000E+00  0.5730E+03
   5.630  0.0000E+00  0.0000E+00  0.5730E+03
   5.640  0.0000E+00  0.0000E+00  0.5730E+03
   5.650  0.0000E+00  0.0000E+00  0.5730E+03
   5.660  0.0000E+00  0.0000E+00  0.5730E+03
   5.670  0.0000E+00  0.0000E+00  0.5730E+03
   5.680  0.0000E+00  0.0000E+00  0.5730E+03
   5.690  0.0000E+00  0.0000E+00  0.5730E+03
   5.700  0.0000E+00  0.0000E+00  0.5730E+03
   5.710  0.0000E+00  0.0000E+00  0.5730E+03
   5.720  0.0000E+00  0.0000E+00  0.5730E+03
   5.730  0.0000E+00  0.0000E+00  0.5730E+03
   5.740  0.0000E+00  0.0000E+00  0.5730E+03
   5.750  0.0000E+00  0.0000E+00  0.5730E+03
   5.760  0.0000E+00  0.0000E+00  0.5730E+03
   5.770  0.0000E+00  0.0000E+00  0.5730E+03
   5.780  0.0000E+00  0.0000E+00  0.5730E+03
   5.790  0.0000E+00  0.0000E+00  0.5730E+03
   5.800  0.0000E+00  0.0000E+00  0.5730E+03
   5.810  0.0000E+00  0.0000E+00  0.5730E+03
   5.820  0.0000E+00  0.0000E+00  0.5730E+03
   5.830  0.0000E+00  0.0000E+00  0.5730E+03
   5.840  0.0000E+00  0.0000E+00  0.5730E+03
   5.850  0.0000E+00  0.0000E+00  0.5730E+03
   5.860  0.0000E+00  0.0000E+00  0.5730E+03
   5.870  0.0000E+00  0.0000E+00  0.5730E+03
   5.880  0.0000E+00  0.0000E+00  0.5730E+03
   5.890  0.0000E+00  0.0000E+00  0.5730E+03
   5.900  0.0000E+00  0.0000E+00  0.5730E+03
   5.910  0.0000E+00  0.0000E+00  0.5730E+03
   5.920  0.0000E+00  0.0000E+00  0.5730E+03
   5.930  0.0000E+00  0.0000E+00  0.5730E+03
   5.940  0.0000E+00  0.0000E+00  0.5730E+03
   5.950  0.0000E+00  0.0000E+00  0.5730E+03
   5.960  0.0000E+00  0.0000E+00  0.5730E+03
   5.970  0.0000E+00  0.0000E+00  0.5730E+03
   5.980  0.0000E+00  0.0000E+00  0.5730E+03
   5.990  0.0000E+00  0.0000E+00  0.5730E+03
   6.000  0.0000E+00  0.0000E+00  0.5730E+03
   6.010  0.0000E+00  0.0000E+00  0.5730E+03
   6.020  0.0000E+00  0.0000E+00  0.5730E+03
   6.030  0.0000E+00  0.0000E+00  0.5730E+03
   6.040  0.0000E+00  0.0000E+00  0.5730E+03
   6.050  0.0000E+00  0.0000E+00  0.5730E+03
   6.060  0.0000E+00  0.0000E+00  0.5730E+03
   6.070  0.0000E+00  0.0000E+00  0.5730E+03
   6.080  0.0000E+00  0.0000E+00  0.5730E+03
   6.090  0.0000E+00  0.0000E+00  0.5730E+03
   6.100  0.0000E+00  0.0000E+00  0.5730E+03
   6.110  0.0000E+00  0.0000E+00  0.5730E+03
   6.120  0.0000E+00  0.0000E+00  0.5730E+03
   6.130  0.0000E+00  0.0000E+00  0.5730E+03
   6.140  0.0000E+00  0.0000E+00  0.5730E+03
   6.150  0.0000E+00  0.0000E+00  0.5730E+03
   6.160  0.0000E+00  0.0000E+00  0.5730E+03
   6.170  0.0000E+00  0.0000E+00  0.5730E+03
   6.180  0.0000E+00  0.0000E+00  0.5730E+03
   6.190  0.0000E+00  0.0000E+00  0.5730E+03
   6.200  0.0000E+00  0.0000E+00  0.5730E+03
   6.210  0.0000E+00  0.0000E+00  0.5730E+03
   6.220  0.0000E+00  0.0000E+00  0.5730E+03
   6.230  0.0000E+00  0.0000E+00  0.5730E+03
   6.240  0.0000E+00  0.0000E+00  0.5730E+03
   6.250  0.0000E+00  0.0000E+00  0.5730E+03
   6.260  0.0000E+00  0.0000E+00  0.5730E+03
   6.270  0.0000E+00  0.2761E-01  0.5730E+03
   6.280  0.0000E+00  0.4016E+01  0.5730E+03
   6.290  0.0000E+00  0.9943E+02  0.5733E+03
   6.300  0.0000E+00  0.0000E+00  0.5740E+03
   6.310  0.0000E+00  0.0000E+00  0.5740E+03
   6.320  0.0000E+00  0.0000E+00  0.5740E+03
   6.330  0.0000E+00  0.0000E+00  0.5740E+03
   6.340  0.0000E+00  0.0000E+00  0.5740E+03
   6.350  0.0000E+00  0.0000E+00  0.5740E+03
   6.360  0.0000E+00  0.0000E+00  0.5740E+03
   6.370  0.0000E+00  0.0000E+00  0.5740E+03
   6.380  0.0000E+00  0.0000E+00  0.5740E+03
   6.390  0.0000E+00  0.0000E+00  0.5740E+03
   6.400  0.0000E+00  0.0000E+00  0.5740E+03
   6.410  0.0000E+00  0.0000E+00  0.5740E+03
   6.420  0.0000E+00  0.0000E+00  0.5740E+03
   6.430  0.0000E+00  0.0000E+00  0.5740E+03
   6.440  0.0000E+00  0.0000E+00  0.5740E+03
   6.450  0.0000E+00  0.0000E+00  0.5740E+03
   6.460  0.0000E+00  0.6333E-03  0.5740E+03
   6.470  0.0000E+00  0.2250E+01  0.5740E+03
   6.480  0.0000E+00  0.1451E+02  0.5741E+03
   6.490  0.0000E+00  0.2463E+02  0.5743E+03
   6.500  0.0000E+00  0.2245E+02  0.5745E+03
   6.510  0.0000E+00  0.1555E+02  0.5747E+03
   6.520  0.0000E+00  0.8870E+01  0.5748E+03
   6.530  0.0000E+00  0.2454E+02  0.5750E+03
   6.540  0.0000E+00  0.4040E+02  0.5753E+03
   6.550  0.0000E+00  0.3492E+02  0.5757E+03
   6.560  0.0000E+00  0.1426E+02  0.5760E+03
   6.570  0.0000E+00  0.3065E-01  0.5760E+03
   6.580  0.0000E+00  0.0000E+00  0.5760E+03
   6.590  0.0000E+00  0.0000E+00  0.5760E+03
   6.600  0.0000E+00  0.0000E+00  0.5760E+03
   6.610  0.0000E+00  0.0000E+00  0.5760E+03
   6.620  0.0000E+00  0.0000E+00  0.5760E+03
   6.630  0.0000E+00  0.0000E+00  0.5760E+03
   6.640  0.0000E+00  0.0000E+00  0.5760E+03
   6.650  0.0000E+00  0.0000E+00  0.5760E+03
   6.660  0.0000E+00  0.0000E+00  0.5760E+03
   6.670  0.0000E+00  0.0000E+00  0.5760E+03
   6.680  0.0000E+00  0.0000E+00  0.5760E+03
   6.690  0.0000E+00  0.0000E+00  0.5760E+03
   6.700  0.0000E+00  0.0000E+00  0.5760E+03
   6.710  0.0000E+00  0.0000E+00  0.5760E+03
   6.720  0.0000E+00  0.0000E+00  0.5760E+03
   6.730  0.0000E+00  0.0000E+00  0.5760E+03
   6.740  0.0000E+00  0.0000E+00  0.5760E+03
   6.750  0.0000E+00  0.0000E+00  0.5760E+03
   6.760  0.0000E+00  0.0000E+00  0.5760E+03
   6.770  0.0000E+00  0.0000E+00  0.5760E+03
   6.780  0.0000E+00  0.0000E+00  0.5760E+03
   6.790  0.0000E+00  0.0000E+00  0.5760E+03
   6.800  0.0000E+00  0.0000E+00  0.5760E+03
   6.810  0.0000E+00  0.0000E+00  0.5760E+03
   6.820  0.0000E+00  0.0000E+00  0.5760E+03
   6.830  0.0000E+00  0.0000E+00  0.5760E+03
   6.840  0.0000E+00  0.0000E+00  0.5760E+03
   6.850  0.0000E+00  0.0000E+00  0.5760E+03
   6.860  0.0000E+00  0.0000E+00  0.5760E+03
   6.870  0.0000E+00  0.0000E+00  0.5760E+03
   6.880  0.0000E+00  0.0000E+00  0.5760E+03
   6.890  0.0000E+00  0.0000E+00  0.5760E+03
   6.900  0.0000E+00  0.0000E+00  0.5760E+03
   6.910  0.0000E+00  0.0000E+00  0.5760E+03
   6.920  0.0000E+00  0.0000E+00  0.5760E+03
   6.930  0.0000E+00  0.0000E+00  0.5760E+03
   6.940  0.0000E+00  0.0000E+00  0.5760E+03
   6.950  0.0000E+00  0.0000E+00  0.5760E+03
   6.960  0.0000E+00  0.0000E+00  0.5760E+03
   6.970  0.0000E+00  0.0000E+00  0.5760E+03
   6.980  0.0000E+00  0.0000E+00  0.5760E+03
   6.990  0.0000E+00  0.0000E+00  0.5760E+03
   7.000  0.0000E+00  0.0000E+00  0.5760E+03
   7.010  0.0000E+00  0.0000E+00  0.5760E+03
   7.020  0.0000E+00  0.0000E+00  0.5760E+03
   7.030  0.0000E+00  0.0000E+00  0.5760E+03
   7.040  0.0000E+00  0.0000E+00  0.5760E+03
   7.050  0.0000E+00  0.0000E+00  0.5760E+03
   7.060  0.0000E+00  0.0000E+00  0.5760E+03
   7.070  0.0000E+00  0.0000E+00  0.5760E+03
   7.080  0.0000E+00  0.0000E+00  0.5760E+03
   7.090  0.0000E+00  0.0000E+00  0.5760E+03
   7.100  0.0000E+00  0.0000E+00  0.5760E+03
   7.110  0.0000E+00  0.0000E+00  0.5760E+03
   7.120  0.0000E+00  0.0000E+00  0.5760E+03
   7.130  0.0000E+00  0.0000E+00  0.5760E+03
   7.140  0.0000E+00  0.0000E+00  0.5760E+03
   7.150  0.0000E+00  0.0000E+00  0.5760E+03
   7.160  0.0000E+00  0.0000E+00  0.5760E+03
   7.170  0.0000E+00  0.0000E+00  0.5760E+03
   7.180  0.0000E+00  0.0000E+00  0.5760E+03
   7.190  0.0000E+00  0.0000E+00  0.5760E+03
   7.200  0.0000E+00  0.0000E+00  0.5760E+03
   7.210  0.0000E+00  0.0000E+00  0.5760E+03
   7.220  0.0000E+00  0.0000E+00  0.5760E+03
   7.230  0.0000E+00  0.0000E+00  0.5760E+03
   7.240  0.0000E+00  0.0000E+00  0.5760E+03
   7.250  0.3372E-04  0.0000E+00  0.5760E+03
   7.260  0.2334E-03  0.0000E+00  0.5760E+03
   7.270  0.7330E-03  0.0000E+00  0.5760E+03
   7.280  0.1535E-02  0.0000E+00  0.5760E+03
   7.290  0.2638E-02  0.0000E+00  0.5760E+03
   7.300  0.4044E-02  0.1234E-06  0.5760E+03
   7.310  0.5752E-02  0.4935E-04  0.5760E+03
   7.320  0.7762E-02  0.2754E-03  0.5760E+03
   7.330  0.1007E-01  0.8112E-03  0.5760E+03
   7.340  0.1269E-01  0.1658E-02  0.5760E+03
   7.350  0.1560E-01  0.2817E-02  0.5760E+03
   7.360  0.1882E-01  0.4286E-02  0.5760E+03
   7.370  0.2234E-01  0.6067E-02  0.5760E+03
   7.380  0.2617E-01  0.8159E-02  0.5760E+03
   7.390  0.3029E-01  0.1056E-01  0.5760E+03
   7.400  0.3472E-01  0.1328E-01  0.5760E+03
   7.410  0.3945E-01  0.1630E-01  0.5760E+03
   7.420  0.4448E-01  0.1964E-01  0.5760E+03
   7.430  0.4981E-01  0.2329E-01  0.5760E+03
   7.440  0.5545E-01  0.2725E-01  0.5760E+03
   7.450  0.6138E-01  0.3152E-01  0.5760E+03
   7.460  0.6762E-01  0.3610E-01  0.5760E+03
   7.470  0.7417E-01  0.4099E-01  0.5760E+03
   7.480  0.8101E-01  0.4620E-01  0.5760E+03
   7.490  0.8815E-01  0.5171E-01  0.5760E+03
   7.500  0.9560E-01  0.5754E-01  0.5760E+03
   7.510  0.1034E+00  0.6368E-01  0.5760E+03
   7.520  0.1114E+00  0.7013E-01  0.5760E+03
   7.530  0.1198E+00  0.7689E-01  0.5760E+03
   7.540  0.1284E+00  0.8396E-01  0.5760E+03
   7.550  0.1374E+00  0.9134E-01  0.5760E+03
   7.560  0.1466E+00  0.9904E-01  0.5760E+03
   7.570  0.1562E+00  0.1070E+00  0.5760E+03
   7.580  0.1661E+00  0.1154E+00  0.5760E+03
   7.590  0.1762E+00  0.1240E+00  0.5760E+03
   7.600  0.1867E+00  0.1329E+00  0.5760E+03
   7.610  0.1975E+00  0.1422E+00  0.5760E+03
   7.620  0.2084E+00  0.1517E+00  0.5760E+03
   7.630  0.2152E+00  0.1616E+00  0.5760E+03
   7.640  0.2283E+00  0.1718E+00  0.5760E+03
   7.650  0.2470E+00  0.1823E+00  0.5761E+03
   7.660  0.2646E+00  0.1931E+00  0.5761E+03
   7.670  0.2818E+00  0.2042E+00  0.5761E+03
   7.680  0.2985E+00  0.2122E+00  0.5761E+03
   7.690  0.3152E+00  0.2226E+00  0.5761E+03
   7.700  0.3320E+00  0.2401E+00  0.5761E+03
   7.710  0.3492E+00  0.2580E+00  0.5761E+03
   7.720  0.3669E+00  0.2750E+00  0.5761E+03
   7.730  0.3851E+00  0.2915E+00  0.5761E+03
   7.740  0.4039E+00  0.3077E+00  0.5761E+03
   7.750  0.4231E+00  0.3237E+00  0.5761E+03
   7.760  0.4429E+00  0.3399E+00  0.5761E+03
   7.770  0.4633E+00  0.3564E+00  0.5761E+03
   7.780  0.4841E+00  0.3732E+00  0.5761E+03
   7.790  0.5055E+00  0.3904E+00  0.5761E+03
   7.800  0.5274E+00  0.4079E+00  0.5762E+03
   7.810  0.5498E+00  0.4258E+00  0.5762E+03
   7.820  0.5728E+00  0.4441E+00  0.5762E+03
   7.830  0.5963E+00  0.4627E+00  0.5762E+03
   7.840  0.6203E+00  0.4817E+00  0.5762E+03
   7.850  0.6448E+00  0.5011E+00  0.5762E+03
   7.860  0.6698E+00  0.5208E+00  0.5762E+03
   7.870  0.6954E+00  0.5409E+00  0.5762E+03
   7.880  0.7217E+00  0.5614E+00  0.5762E+03
   7.890  0.7421E+00  0.5822E+00  0.5763E+03
   7.900  0.7513E+00  0.6033E+00  0.5763E+03
   7.910  0.7640E+00  0.6249E+00  0.5763E+03
   7.920  0.7830E+00  0.6468E+00  0.5763E+03
   7.930  0.8043E+00  0.6690E+00  0.5763E+03
   7.940  0.8286E+00  0.6897E+00  0.5763E+03
   7.950  0.8595E+00  0.6978E+00  0.5763E+03
   7.960  0.8984E+00  0.7063E+00  0.5764E+03
   7.970  0.9465E+00  0.7183E+00  0.5764E+03
   7.980  0.1004E+01  0.7349E+00  0.5764E+03
   7.990  0.1073E+01  0.7528E+00  0.5764E+03
   8.000  0.1152E+01  0.7752E+00  0.5764E+03
   8.010  0.1241E+01  0.8033E+00  0.5764E+03
   8.020  0.1341E+01  0.8381E+00  0.5765E+03
   8.030  0.1452E+01  0.8806E+00  0.5765E+03
   8.040  0.1574E+01  0.9311E+00  0.5765E+03
   8.050  0.1704E+01  0.9901E+00  0.5765E+03
   8.060  0.1838E+01  0.1058E+01  0.5766E+03
   8.070  0.1983E+01  0.1134E+01  0.5766E+03
   8.080  0.2144E+01  0.1218E+01  0.5766E+03
   8.090  0.2337E+01  0.1312E+01  0.5767E+03
   8.100  0.2609E+01  0.1414E+01  0.5767E+03
   8.110  0.2961E+01  0.1524E+01  0.5767E+03
   8.120  0.3343E+01  0.1637E+01  0.5768E+03
   8.130  0.3689E+01  0.1754E+01  0.5768E+03
   8.140  0.4002E+01  0.1877E+01  0.5769E+03
   8.150  0.4282E+01  0.2006E+01  0.5770E+03
   8.160  0.4528E+01  0.2147E+01  0.5770E+03
   8.170  0.4767E+01  0.2302E+01  0.5771E+03
   8.180  0.5062E+01  0.2468E+01  0.5772E+03
   8.190  0.5406E+01  0.2793E+01  0.5772E+03
   8.200  0.5696E+01  0.3104E+01  0.5773E+03
   8.210  0.5844E+01  0.3397E+01  0.5774E+03
   8.220  0.5873E+01  0.3672E+01  0.5775E+03
   8.230  0.5559E+01  0.3929E+01  0.5776E+03
   8.240  0.4643E+01  0.4168E+01  0.5777E+03
   8.250  0.3013E+01  0.4390E+01  0.5778E+03
   8.260  0.2415E+01  0.4595E+01  0.5779E+03
   8.270  0.2126E+01  0.4834E+01  0.5779E+03
   8.280  0.2024E+01  0.5139E+01  0.5780E+03
   8.290  0.2081E+01  0.5392E+01  0.5781E+03
   8.300  0.1391E+01  0.5552E+01  0.5781E+03
   8.310  0.1148E+01  0.5606E+01  0.5782E+03
   8.320  0.1182E+01  0.5391E+01  0.5783E+03
   8.330  0.1225E+01  0.4866E+01  0.5783E+03
   8.340  0.1271E+01  0.3785E+01  0.5784E+03
   8.350  0.1317E+01  0.2695E+01  0.5784E+03
   8.360  0.1366E+01  0.2406E+01  0.5785E+03
   8.370  0.1417E+01  0.2304E+01  0.5785E+03
   8.380  0.1470E+01  0.2339E+01  0.5786E+03
   8.390  0.1527E+01  0.2209E+01  0.5786E+03
   8.400  0.1585E+01  0.1576E+01  0.5786E+03
   8.410  0.1646E+01  0.1578E+01  0.5787E+03
   8.420  0.1710E+01  0.1639E+01  0.5787E+03
   8.430  0.1776E+01  0.1709E+01  0.5787E+03
   8.440  0.1842E+01  0.1784E+01  0.5788E+03
   8.450  0.1901E+01  0.1863E+01  0.5788E+03
   8.460  0.1953E+01  0.1945E+01  0.5788E+03
   8.470  0.1996E+01  0.2026E+01  0.5789E+03
   8.480  0.2028E+01  0.2098E+01  0.5789E+03
   8.490  0.2048E+01  0.2162E+01  0.5790E+03
   8.500  0.2058E+01  0.2213E+01  0.5790E+03
   8.510  0.2058E+01  0.2249E+01  0.5790E+03
   8.520  0.2047E+01  0.2271E+01  0.5791E+03
   8.530  0.2025E+01  0.2280E+01  0.5791E+03
   8.540  0.1993E+01  0.2276E+01  0.5792E+03
   8.550  0.1966E+01  0.2258E+01  0.5792E+03
   8.560  0.1944E+01  0.2226E+01  0.5793E+03
   8.570  0.1920E+01  0.2189E+01  0.5793E+03
   8.580  0.1929E+01  0.2158E+01  0.5793E+03
   8.590  0.1987E+01  0.2111E+01  0.5794E+03
   8.600  0.2108E+01  0.2100E+01  0.5794E+03
   8.610  0.2296E+01  0.2161E+01  0.5795E+03
   8.620  0.2462E+01  0.2291E+01  0.5795E+03
   8.630  0.2762E+01  0.2498E+01  0.5796E+03
   8.640  0.3348E+01  0.2692E+01  0.5796E+03
   8.650  0.5324E+01  0.3013E+01  0.5797E+03
   8.660  0.6232E+01  0.3487E+01  0.5798E+03
   8.670  0.6747E+01  0.4944E+01  0.5799E+03
   8.680  0.7075E+01  0.6162E+01  0.5800E+03
   8.690  0.7260E+01  0.7149E+01  0.5802E+03
   8.700  0.7299E+01  0.7596E+01  0.5803E+03
   8.710  0.7196E+01  0.7833E+01  0.5804E+03
   8.720  0.6957E+01  0.7807E+01  0.5806E+03
   8.730  0.6582E+01  0.7531E+01  0.5807E+03
   8.740  0.6076E+01  0.7006E+01  0.5809E+03
   8.750  0.5575E+01  0.6307E+01  0.5810E+03
   8.760  0.5238E+01  0.5724E+01  0.5811E+03
   8.770  0.5051E+01  0.5420E+01  0.5812E+03
   8.780  0.4944E+01  0.5228E+01  0.5813E+03
   8.790  0.4873E+01  0.5112E+01  0.5814E+03
   8.800  0.4800E+01  0.5012E+01  0.5815E+03
   8.810  0.4759E+01  0.4907E+01  0.5816E+03
   8.820  0.4640E+01  0.4834E+01  0.5817E+03
   8.830  0.4483E+01  0.4756E+01  0.5818E+03
   8.840  0.4318E+01  0.4641E+01  0.5819E+03
   8.850  0.4177E+01  0.4449E+01  0.5820E+03
   8.860  0.4240E+01  0.4204E+01  0.5821E+03
   8.870  0.4580E+01  0.5188E+01  0.5822E+03
   8.880  0.4833E+01  0.4173E+01  0.5823E+03
   8.890  0.5425E+01  0.4507E+01  0.5824E+03
   8.900  0.6253E+01  0.5091E+01  0.5825E+03
   8.910  0.7271E+01  0.5920E+01  0.5826E+03
   8.920  0.8320E+01  0.7004E+01  0.5827E+03
   8.930  0.8734E+01  0.8146E+01  0.5829E+03
   8.940  0.8812E+01  0.8824E+01  0.5831E+03
   8.950  0.9059E+01  0.8799E+01  0.5832E+03
   8.960  0.9285E+01  0.8909E+01  0.5834E+03
   8.970  0.9439E+01  0.9027E+01  0.5836E+03
   8.980  0.9605E+01  0.9121E+01  0.5838E+03
   8.990  0.9821E+01  0.9214E+01  0.5840E+03
   9.000  0.1013E+02  0.9395E+01  0.5842E+03
   9.010  0.1047E+02  0.9664E+01  0.5844E+03
   9.020  0.1075E+02  0.9961E+01  0.5846E+03
   9.030  0.1100E+02  0.1033E+02  0.5848E+03
   9.040  0.1128E+02  0.1072E+02  0.5850E+03
   9.050  0.1151E+02  0.1095E+02  0.5852E+03
   9.060  0.1263E+02  0.1112E+02  0.5855E+03
   9.070  0.1403E+02  0.1137E+02  0.5857E+03
   9.080  0.1618E+02  0.1275E+02  0.5860E+03
   9.090  0.1741E+02  0.1407E+02  0.5863E+03
   9.100  0.1661E+02  0.1584E+02  0.5866E+03
   9.110  0.1599E+02  0.1587E+02  0.5869E+03
   9.120  0.1456E+02  0.1546E+02  0.5872E+03
   9.130  0.1348E+02  0.1452E+02  0.5875E+03
   9.140  0.1215E+02  0.1363E+02  0.5878E+03
   9.150  0.1151E+02  0.1320E+02  0.5880E+03
   9.160  0.1117E+02  0.1136E+02  0.5883E+03
   9.170  0.1080E+02  0.1097E+02  0.5885E+03
   9.180  0.1029E+02  0.1081E+02  0.5887E+03
   9.190  0.9471E+01  0.1042E+02  0.5889E+03
   9.200  0.8612E+01  0.9660E+01  0.5891E+03
   9.210  0.9415E+01  0.8715E+01  0.5893E+03
   9.220  0.1016E+02  0.8750E+01  0.5895E+03
   9.230  0.1083E+02  0.9088E+01  0.5897E+03
   9.240  0.1139E+02  0.9838E+01  0.5899E+03
   9.250  0.1198E+02  0.1056E+02  0.5901E+03
   9.260  0.1271E+02  0.1127E+02  0.5903E+03
   9.270  0.1312E+02  0.1223E+02  0.5906E+03
   9.280  0.1334E+02  0.1312E+02  0.5908E+03
   9.290  0.1368E+02  0.1395E+02  0.5911E+03
   9.300  0.1426E+02  0.1467E+02  0.5914E+03
   9.310  0.1560E+02  0.1523E+02  0.5917E+03
   9.320  0.2038E+02  0.1543E+02  0.5920E+03
   9.330  0.2708E+02  0.1705E+02  0.5924E+03
   9.340  0.2557E+02  0.2198E+02  0.5929E+03
   9.350  0.2289E+02  0.2990E+02  0.5934E+03
   9.360  0.2043E+02  0.2373E+02  0.5939E+03
   9.370  0.2111E+02  0.2305E+02  0.5943E+03
   9.380  0.2436E+02  0.2294E+02  0.5948E+03
   9.390  0.2407E+02  0.2238E+02  0.5952E+03
   9.400  0.1993E+02  0.2282E+02  0.5957E+03
   9.410  0.1669E+02  0.2260E+02  0.5961E+03
   9.420  0.1455E+02  0.2084E+02  0.5965E+03
   9.430  0.1233E+02  0.1635E+02  0.5968E+03
   9.440  0.9359E+01  0.1419E+02  0.5970E+03
   9.450  0.1413E+02  0.1171E+02  0.5973E+03
   9.460  0.1591E+02  0.1004E+02  0.5976E+03
   9.470  0.1584E+02  0.1064E+02  0.5978E+03
   9.480  0.1570E+02  0.1587E+02  0.5981E+03
   9.490  0.1921E+02  0.1598E+02  0.5984E+03
   9.500  0.2054E+02  0.1652E+02  0.5988E+03
   9.510  0.2100E+02  0.1771E+02  0.5992E+03
   9.520  0.2156E+02  0.1983E+02  0.5996E+03
   9.530  0.2241E+02  0.2142E+02  0.6000E+03
   9.540  0.2834E+02  0.2248E+02  0.6005E+03
   9.550  0.2225E+02  0.3095E+02  0.6010E+03
   9.560  0.2147E+02  0.2323E+02  0.6014E+03
   9.570  0.2225E+02  0.2119E+02  0.6019E+03
   9.580  0.1980E+02  0.1887E+02  0.6023E+03
   9.590  0.1641E+02  0.1917E+02  0.6026E+03
   9.600  0.1705E+02  0.1688E+02  0.6030E+03
   9.610  0.1891E+02  0.1389E+02  0.6033E+03
   9.620  0.2057E+02  0.1789E+02  0.6037E+03
   9.630  0.2102E+02  0.2592E+02  0.6041E+03
   9.640  0.2038E+02  0.2373E+02  0.6046E+03
   9.650  0.1972E+02  0.2091E+02  0.6050E+03
   9.660  0.1935E+02  0.2061E+02  0.6054E+03
   9.670  0.2006E+02  0.2024E+02  0.6058E+03
   9.680  0.2138E+02  0.1963E+02  0.6062E+03
   9.690  0.2382E+02  0.1781E+02  0.6066E+03
   9.700  0.2374E+02  0.1760E+02  0.6071E+03
   9.710  0.1848E+02  0.1718E+02  0.6074E+03
   9.720  0.1804E+02  0.1660E+02  0.6078E+03
   9.730  0.1625E+02  0.1752E+02  0.6081E+03
   9.740  0.1895E+02  0.2283E+02  0.6085E+03
   9.750  0.2794E+02  0.1628E+02  0.6089E+03
   9.760  0.3597E+02  0.1685E+02  0.6094E+03
   9.770  0.3204E+02  0.2340E+02  0.6100E+03
   9.780  0.3756E+02  0.3728E+02  0.6106E+03
   9.790  0.2710E+02  0.4279E+02  0.6113E+03
   9.800  0.2882E+02  0.3402E+02  0.6119E+03
   9.810  0.4044E+02  0.3266E+02  0.6126E+03
   9.820  0.3770E+02  0.3768E+02  0.6134E+03
   9.830  0.2880E+02  0.4196E+02  0.6141E+03
   9.840  0.2641E+02  0.3171E+02  0.6148E+03
   9.850  0.2715E+02  0.2572E+02  0.6153E+03
   9.860  0.2734E+02  0.2390E+02  0.6159E+03
   9.870  0.2689E+02  0.2638E+02  0.6164E+03
   9.880  0.2668E+02  0.2753E+02  0.6169E+03
   9.890  0.2562E+02  0.2843E+02  0.6175E+03
   9.900  0.2441E+02  0.2615E+02  0.6180E+03
   9.910  0.2566E+02  0.2563E+02  0.6185E+03
   9.920  0.2632E+02  0.2564E+02  0.6190E+03
   9.930  0.2712E+02  0.2555E+02  0.6195E+03
   9.940  0.2777E+02  0.2590E+02  0.6201E+03
   9.950  0.2824E+02  0.2639E+02  0.6206E+03
   9.960  0.2897E+02  0.2784E+02  0.6212E+03
   9.970  0.3017E+02  0.2785E+02  0.6217E+03
   9.980  0.2848E+02  0.2738E+02  0.6223E+03
   9.990  0.2884E+02  0.2918E+02  0.6229E+03
  10.000  0.2800E+02  0.2855E+02  0.6234E+03
  10.010  0.2676E+02  0.2758E+02  0.6240E+03
  10.020  0.2614E+02  0.2553E+02  0.6245E+03
  10.030  0.2533E+02  0.2562E+02  0.6250E+03
  10.040  0.2274E+02  0.2613E+02  0.6255E+03
  10.050  0.2163E+02  0.2615E+02  0.6260E+03
  10.060  0.2182E+02  0.2556E+02  0.6265E+03
  10.070  0.2066E+02  0.2364E+02  0.6270E+03
  10.080  0.2053E+02  0.2174E+02  0.6274E+03
  10.090  0.2156E+02  0.2079E+02  0.6278E+03
  10.100  0.2263E+02  0.1898E+02  0.6282E+03
  10.110  0.2280E+02  0.1867E+02  0.6286E+03
  10.120  0.1907E+02  0.2633E+02  0.6291E+03
  10.130  0.1629E+02  0.2434E+02  0.6295E+03
  10.140  0.1439E+02  0.1934E+02  0.6299E+03
  10.150  0.1325E+02  0.1808E+02  0.6302E+03
  10.160  0.1408E+02  0.1679E+02  0.6305E+03
  10.170  0.1781E+02  0.1518E+02  0.6308E+03
  10.180  0.3293E+02  0.1479E+02  0.6312E+03
  10.190  0.2871E+02  0.2024E+02  0.6317E+03
  10.200  0.2243E+02  0.2888E+02  0.6322E+03
  10.210  0.2300E+02  0.2791E+02  0.6327E+03
  10.220  0.2262E+02  0.2814E+02  0.6332E+03
  10.230  0.2444E+02  0.2568E+02  0.6337E+03
  10.240  0.2514E+02  0.2153E+02  0.6342E+03
  10.250  0.2359E+02  0.2307E+02  0.6347E+03
  10.260  0.2374E+02  0.2250E+02  0.6351E+03
  10.270  0.2176E+02  0.2094E+02  0.6356E+03
  10.280  0.2004E+02  0.2376E+02  0.6360E+03
  10.290  0.2129E+02  0.2220E+02  0.6365E+03
  10.300  0.2023E+02  0.2211E+02  0.6369E+03
  10.310  0.1874E+02  0.2103E+02  0.6373E+03
  10.320  0.1799E+02  0.1963E+02  0.6377E+03
  10.330  0.1746E+02  0.1825E+02  0.6381E+03
  10.340  0.1724E+02  0.1740E+02  0.6384E+03
  10.350  0.1756E+02  0.1693E+02  0.6388E+03
  10.360  0.1801E+02  0.1658E+02  0.6391E+03
  10.370  0.1814E+02  0.1663E+02  0.6394E+03
  10.380  0.1785E+02  0.1688E+02  0.6398E+03
  10.390  0.1730E+02  0.1697E+02  0.6401E+03
  10.400  0.1714E+02  0.1663E+02  0.6405E+03
  10.410  0.1824E+02  0.1622E+02  0.6408E+03
  10.420  0.1768E+02  0.1612E+02  0.6412E+03
  10.430  0.1639E+02  0.1672E+02  0.6415E+03
  10.440  0.1705E+02  0.1733E+02  0.6418E+03
  10.450  0.1775E+02  0.1804E+02  0.6422E+03
  10.460  0.1834E+02  0.1857E+02  0.6425E+03
  10.470  0.1884E+02  0.1902E+02  0.6429E+03
  10.480  0.1923E+02  0.1938E+02  0.6433E+03
  10.490  0.1730E+02  0.2092E+02  0.6437E+03
  10.500  0.1579E+02  0.2005E+02  0.6441E+03
  10.510  0.1491E+02  0.1809E+02  0.6444E+03
  10.520  0.1423E+02  0.1623E+02  0.6447E+03
  10.530  0.1350E+02  0.1492E+02  0.6450E+03
  10.540  0.1295E+02  0.1398E+02  0.6453E+03
  10.550  0.1469E+02  0.1322E+02  0.6456E+03
  10.560  0.1662E+02  0.1185E+02  0.6459E+03
  10.570  0.1678E+02  0.1461E+02  0.6462E+03
  10.580  0.1731E+02  0.1488E+02  0.6465E+03
  10.590  0.2106E+02  0.1470E+02  0.6468E+03
  10.600  0.1361E+02  0.1525E+02  0.6471E+03
  10.610  0.1340E+02  0.1712E+02  0.6474E+03
  10.620  0.1439E+02  0.1456E+02  0.6477E+03
  10.630  0.1604E+02  0.1593E+02  0.6480E+03
  10.640  0.1637E+02  0.1432E+02  0.6483E+03
  10.650  0.1516E+02  0.1487E+02  0.6486E+03
  10.660  0.1384E+02  0.1604E+02  0.6489E+03
  10.670  0.1312E+02  0.1530E+02  0.6492E+03
  10.680  0.1318E+02  0.1402E+02  0.6495E+03
  10.690  0.1314E+02  0.1287E+02  0.6498E+03
  10.700  0.1274E+02  0.1264E+02  0.6500E+03
  10.710  0.1244E+02  0.1334E+02  0.6503E+03
  10.720  0.1209E+02  0.1377E+02  0.6505E+03
  10.730  0.1089E+02  0.1340E+02  0.6508E+03
  10.740  0.9356E+01  0.1255E+02  0.6510E+03
  10.750  0.1032E+02  0.1168E+02  0.6512E+03
  10.760  0.1176E+02  0.1165E+02  0.6515E+03
  10.770  0.1284E+02  0.1193E+02  0.6517E+03
  10.780  0.1344E+02  0.1279E+02  0.6520E+03
  10.790  0.1364E+02  0.1356E+02  0.6522E+03
  10.800  0.1384E+02  0.1377E+02  0.6525E+03
  10.810  0.1469E+02  0.1365E+02  0.6528E+03
  10.820  0.2130E+02  0.1393E+02  0.6531E+03
  10.830  0.1911E+02  0.1510E+02  0.6534E+03
  10.840  0.1592E+02  0.1575E+02  0.6538E+03
  10.850  0.1431E+02  0.1519E+02  0.6541E+03
  10.860  0.1563E+02  0.1416E+02  0.6544E+03
  10.870  0.1616E+02  0.1511E+02  0.6547E+03
  10.880  0.1684E+02  0.1704E+02  0.6550E+03
  10.890  0.1880E+02  0.1688E+02  0.6554E+03
  10.900  0.1881E+02  0.1705E+02  0.6557E+03
  10.910  0.1454E+02  0.1692E+02  0.6561E+03
  10.920  0.1286E+02  0.1594E+02  0.6564E+03
  10.930  0.1286E+02  0.1708E+02  0.6566E+03
  10.940  0.1549E+02  0.1525E+02  0.6570E+03
  10.950  0.1476E+02  0.1325E+02  0.6572E+03
  10.960  0.1459E+02  0.1297E+02  0.6575E+03
  10.970  0.1521E+02  0.1366E+02  0.6578E+03
  10.980  0.1610E+02  0.1537E+02  0.6581E+03
  10.990  0.1627E+02  0.1567E+02  0.6584E+03
  11.000  0.1580E+02  0.1613E+02  0.6587E+03
  11.010  0.1506E+02  0.1504E+02  0.6591E+03
  11.020  0.1410E+02  0.1416E+02  0.6593E+03
  11.030  0.1262E+02  0.1357E+02  0.6596E+03
  11.040  0.1124E+02  0.1303E+02  0.6599E+03
  11.050  0.1062E+02  0.1615E+02  0.6601E+03
  11.060  0.1064E+02  0.1280E+02  0.6604E+03
  11.070  0.1108E+02  0.1262E+02  0.6606E+03
  11.080  0.1176E+02  0.1243E+02  0.6608E+03
  11.090  0.1257E+02  0.1230E+02  0.6611E+03
  11.100  0.1578E+02  0.1220E+02  0.6613E+03
  11.110  0.1003E+02  0.1198E+02  0.6616E+03
  11.120  0.9734E+01  0.1198E+02  0.6618E+03
  11.130  0.1029E+02  0.1295E+02  0.6620E+03
  11.140  0.1142E+02  0.1431E+02  0.6623E+03
  11.150  0.1172E+02  0.1496E+02  0.6625E+03
  11.160  0.1340E+02  0.1182E+02  0.6628E+03
  11.170  0.1366E+02  0.1248E+02  0.6630E+03
  11.180  0.1297E+02  0.1312E+02  0.6633E+03
  11.190  0.1271E+02  0.1265E+02  0.6636E+03
  11.200  0.1273E+02  0.1187E+02  0.6638E+03
  11.210  0.1242E+02  0.1179E+02  0.6641E+03
  11.220  0.1208E+02  0.1160E+02  0.6643E+03
  11.230  0.1153E+02  0.1151E+02  0.6645E+03
  11.240  0.1126E+02  0.1144E+02  0.6648E+03
  11.250  0.1140E+02  0.1134E+02  0.6650E+03
  11.260  0.1172E+02  0.1116E+02  0.6652E+03
  11.270  0.1224E+02  0.1205E+02  0.6654E+03
  11.280  0.1314E+02  0.1255E+02  0.6657E+03
  11.290  0.1410E+02  0.1297E+02  0.6660E+03
  11.300  0.1495E+02  0.1346E+02  0.6662E+03
  11.310  0.1595E+02  0.1433E+02  0.6665E+03
  11.320  0.1689E+02  0.1589E+02  0.6668E+03
  11.330  0.1784E+02  0.1768E+02  0.6672E+03
  11.340  0.1916E+02  0.1890E+02  0.6676E+03
  11.350  0.2109E+02  0.2025E+02  0.6679E+03
  11.360  0.2345E+02  0.2149E+02  0.6684E+03
  11.370  0.2530E+02  0.2215E+02  0.6688E+03
  11.380  0.2617E+02  0.2347E+02  0.6693E+03
  11.390  0.2702E+02  0.2437E+02  0.6698E+03
  11.400  0.2704E+02  0.2562E+02  0.6704E+03
  11.410  0.2655E+02  0.2688E+02  0.6709E+03
  11.420  0.2636E+02  0.2606E+02  0.6714E+03
  11.430  0.2554E+02  0.2541E+02  0.6719E+03
  11.440  0.2510E+02  0.2432E+02  0.6724E+03
  11.450  0.2554E+02  0.2485E+02  0.6729E+03
  11.460  0.2504E+02  0.2440E+02  0.6734E+03
  11.470  0.2467E+02  0.2432E+02  0.6739E+03
  11.480  0.2456E+02  0.2361E+02  0.6744E+03
  11.490  0.2448E+02  0.2297E+02  0.6749E+03
  11.500  0.2457E+02  0.2315E+02  0.6754E+03
  11.510  0.2362E+02  0.2323E+02  0.6758E+03
  11.520  0.2327E+02  0.2339E+02  0.6763E+03
  11.530  0.2323E+02  0.2328E+02  0.6768E+03
  11.540  0.2208E+02  0.2340E+02  0.6772E+03
  11.550  0.2267E+02  0.2272E+02  0.6777E+03
  11.560  0.2194E+02  0.2250E+02  0.6781E+03
  11.570  0.2259E+02  0.2248E+02  0.6786E+03
  11.580  0.2552E+02  0.2147E+02  0.6791E+03
  11.590  0.2542E+02  0.2067E+02  0.6795E+03
  11.600  0.2604E+02  0.1937E+02  0.6800E+03
  11.610  0.2399E+02  0.2137E+02  0.6804E+03
  11.620  0.2107E+02  0.2736E+02  0.6809E+03
  11.630  0.1923E+02  0.3075E+02  0.6814E+03
  11.640  0.1815E+02  0.2413E+02  0.6818E+03
  11.650  0.1804E+02  0.2107E+02  0.6823E+03
  11.660  0.1789E+02  0.2037E+02  0.6826E+03
  11.670  0.1783E+02  0.1986E+02  0.6830E+03
  11.680  0.1769E+02  0.1963E+02  0.6834E+03
  11.690  0.1751E+02  0.1922E+02  0.6838E+03
  11.700  0.1729E+02  0.1885E+02  0.6841E+03
  11.710  0.1698E+02  0.1848E+02  0.6845E+03
  11.720  0.1653E+02  0.1800E+02  0.6848E+03
  11.730  0.1590E+02  0.1744E+02  0.6852E+03
  11.740  0.1479E+02  0.1674E+02  0.6855E+03
  11.750  0.1363E+02  0.1615E+02  0.6858E+03
  11.760  0.1260E+02  0.1479E+02  0.6861E+03
  11.770  0.1113E+02  0.1378E+02  0.6864E+03
  11.780  0.9623E+01  0.1253E+02  0.6866E+03
  11.790  0.7915E+01  0.1126E+02  0.6868E+03
  11.800  0.6657E+01  0.9769E+01  0.6870E+03
  11.810  0.5952E+01  0.8229E+01  0.6871E+03
  11.820  0.5686E+01  0.6730E+01  0.6873E+03
  11.830  0.5099E+01  0.6261E+01  0.6874E+03
  11.840  0.4416E+01  0.5714E+01  0.6875E+03
  11.850  0.3402E+01  0.5050E+01  0.6876E+03
  11.860  0.2797E+01  0.4163E+01  0.6877E+03
  11.870  0.2353E+01  0.3285E+01  0.6877E+03
  11.880  0.1959E+01  0.2805E+01  0.6878E+03
  11.890  0.1609E+01  0.2349E+01  0.6878E+03
  11.900  0.1303E+01  0.1863E+01  0.6878E+03
  11.910  0.1098E+01  0.1553E+01  0.6879E+03
  11.920  0.9200E+00  0.1312E+01  0.6879E+03
  11.930  0.7682E+00  0.1097E+01  0.6879E+03
  11.940  0.6416E+00  0.9068E+00  0.6879E+03
  11.950  0.5301E+00  0.7416E+00  0.6880E+03
  11.960  0.4302E+00  0.6015E+00  0.6880E+03
  11.970  0.3418E+00  0.4841E+00  0.6880E+03
  11.980  0.2647E+00  0.3824E+00  0.6880E+03
  11.990  0.1991E+00  0.2948E+00  0.6880E+03
  12.000  0.1449E+00  0.2212E+00  0.6880E+03
  12.010  0.1017E+00  0.1617E+00  0.6880E+03
  12.020  0.6688E-01  0.1145E+00  0.6880E+03
  12.030  0.3942E-01  0.7578E-01  0.6880E+03
  12.040  0.1921E-01  0.4504E-01  0.6880E+03
  12.050  0.6267E-02  0.2228E-01  0.6880E+03
  12.060  0.5833E-03  0.7494E-02  0.6880E+03
  12.070  0.0000E+00  0.6870E-03  0.6880E+03
  12.080  0.0000E+00  0.0000E+00  0.6880E+03
  12.090  0.0000E+00  0.0000E+00  0.6880E+03
  12.100  0.0000E+00  0.0000E+00  0.6880E+03
  12.110  0.0000E+00  0.0000E+00  0.6880E+03
  12.120  0.0000E+00  0.0000E+00  0.6880E+03
  12.130  0.0000E+00  0.0000E+00  0.6880E+03
  12.140  0.0000E+00  0.0000E+00  0.6880E+03
  12.150  0.0000E+00  0.0000E+00  0.6880E+03
  12.160  0.0000E+00  0.0000E+00  0.6880E+03
  12.170  0.0000E+00  0.0000E+00  0.6880E+03
  12.180  0.0000E+00  0.0000E+00  0.6880E+03
  12.190  0.0000E+00  0.0000E+00  0.6880E+03
  12.200  0.0000E+00  0.0000E+00  0.6880E+03
  12.210  0.0000E+00  0.0000E+00  0.6880E+03
  12.220  0.0000E+00  0.0000E+00  0.6880E+03
  12.230  0.0000E+00  0.0000E+00  0.6880E+03
  12.240  0.0000E+00  0.0000E+00  0.6880E+03
  12.250  0.0000E+00  0.0000E+00  0.6880E+03
  12.260  0.0000E+00  0.0000E+00  0.6880E+03
  12.270  0.0000E+00  0.0000E+00  0.6880E+03
  12.280  0.0000E+00  0.0000E+00  0.6880E+03
  12.290  0.0000E+00  0.0000E+00  0.6880E+03
  12.300  0.0000E+00  0.0000E+00  0.6880E+03
  12.310  0.0000E+00  0.0000E+00  0.6880E+03
  12.320  0.0000E+00  0.0000E+00  0.6880E+03
  12.330  0.0000E+00  0.0000E+00  0.6880E+03
  12.340  0.0000E+00  0.0000E+00  0.6880E+03
  12.350  0.0000E+00  0.0000E+00  0.6880E+03
  12.360  0.0000E+00  0.0000E+00  0.6880E+03
  12.370  0.0000E+00  0.0000E+00  0.6880E+03
  12.380  0.0000E+00  0.0000E+00  0.6880E+03
  12.390  0.0000E+00  0.0000E+00  0.6880E+03
  12.400  0.0000E+00  0.0000E+00  0.6880E+03
  12.410  0.0000E+00  0.0000E+00  0.6880E+03
  12.420  0.0000E+00  0.0000E+00  0.6880E+03
  12.430  0.0000E+00  0.0000E+00  0.6880E+03
  12.440  0.0000E+00  0.0000E+00  0.6880E+03
  12.450  0.0000E+00  0.0000E+00  0.6880E+03
  12.460  0.0000E+00  0.0000E+00  0.6880E+03
  12.470  0.0000E+00  0.0000E+00  0.6880E+03
  12.480  0.0000E+00  0.0000E+00  0.6880E+03
  12.490  0.0000E+00  0.0000E+00  0.6880E+03
  12.500  0.0000E+00  0.0000E+00  0.6880E+03
  12.510  0.0000E+00  0.0000E+00  0.6880E+03
  12.520  0.0000E+00  0.0000E+00  0.6880E+03
  12.530  0.0000E+00  0.0000E+00  0.6880E+03
  12.540  0.0000E+00  0.0000E+00  0.6880E+03
  12.550  0.0000E+00  0.0000E+00  0.6880E+03
  12.560  0.0000E+00  0.0000E+00  0.6880E+03
  12.570  0.0000E+00  0.0000E+00  0.6880E+03
  12.580  0.0000E+00  0.0000E+00  0.6880E+03
  12.590  0.0000E+00  0.0000E+00  0.6880E+03
  12.600  0.0000E+00  0.0000E+00  0.6880E+03
  12.610  0.0000E+00  0.0000E+00  0.6880E+03
  12.620  0.0000E+00  0.0000E+00  0.6880E+03
  12.630  0.0000E+00  0.0000E+00  0.6880E+03
  12.640  0.0000E+00  0.0000E+00  0.6880E+03
  12.650  0.0000E+00  0.0000E+00  0.6880E+03
  12.660  0.0000E+00  0.0000E+00  0.6880E+03
  12.670  0.0000E+00  0.0000E+00  0.6880E+03
  12.680  0.0000E+00  0.0000E+00  0.6880E+03
  12.690  0.0000E+00  0.0000E+00  0.6880E+03
  12.700  0.0000E+00  0.0000E+00  0.6880E+03
  12.710  0.0000E+00  0.0000E+00  0.6880E+03
  12.720  0.0000E+00  0.0000E+00  0.6880E+03
  12.730  0.0000E+00  0.0000E+00  0.6880E+03
  12.740  0.0000E+00  0.0000E+00  0.6880E+03
  12.750  0.0000E+00  0.0000E+00  0.6880E+03
  12.760  0.0000E+00  0.0000E+00  0.6880E+03
  12.770  0.0000E+00  0.0000E+00  0.6880E+03
  12.780  0.0000E+00  0.0000E+00  0.6880E+03
  12.790  0.0000E+00  0.0000E+00  0.6880E+03
  12.800  0.0000E+00  0.0000E+00  0.6880E+03
  12.810  0.0000E+00  0.0000E+00  0.6880E+03
  12.820  0.0000E+00  0.0000E+00  0.6880E+03
  12.830  0.0000E+00  0.0000E+00  0.6880E+03
  12.840  0.0000E+00  0.0000E+00  0.6880E+03
  12.850  0.0000E+00  0.0000E+00  0.6880E+03
  12.860  0.0000E+00  0.0000E+00  0.6880E+03
  12.870  0.0000E+00  0.0000E+00  0.6880E+03
  12.880  0.0000E+00  0.0000E+00  0.6880E+03
  12.890  0.0000E+00  0.0000E+00  0.6880E+03
  12.900  0.0000E+00  0.0000E+00  0.6880E+03
  12.910  0.0000E+00  0.0000E+00  0.6880E+03
  12.920  0.0000E+00  0.0000E+00  0.6880E+03
  12.930  0.0000E+00  0.0000E+00  0.6880E+03
  12.940  0.0000E+00  0.0000E+00  0.6880E+03
  12.950  0.0000E+00  0.0000E+00  0.6880E+03
  12.960  0.0000E+00  0.0000E+00  0.6880E+03
  12.970  0.0000E+00  0.0000E+00  0.6880E+03
  12.980  0.0000E+00  0.0000E+00  0.6880E+03
  12.990  0.0000E+00  0.0000E+00  0.6880E+03
  13.000  0.0000E+00  0.0000E+00  0.6880E+03
  13.010  0.0000E+00  0.0000E+00  0.6880E+03
  13.020  0.0000E+00  0.0000E+00  0.6880E+03
  13.030  0.0000E+00  0.0000E+00  0.6880E+03
  13.040  0.0000E+00  0.0000E+00  0.6880E+03
  13.050  0.0000E+00  0.0000E+00  0.6880E+03
  13.060  0.0000E+00  0.0000E+00  0.6880E+03
  13.070  0.0000E+00  0.0000E+00  0.6880E+03
  13.080  0.0000E+00  0.0000E+00  0.6880E+03
  13.090  0.0000E+00  0.0000E+00  0.6880E+03
  13.100  0.0000E+00  0.0000E+00  0.6880E+03
  13.110  0.0000E+00  0.0000E+00  0.6880E+03
  13.120  0.0000E+00  0.0000E+00  0.6880E+03
  13.130  0.0000E+00  0.0000E+00  0.6880E+03
  13.140  0.0000E+00  0.0000E+00  0.6880E+03
  13.150  0.0000E+00  0.0000E+00  0.6880E+03
  13.160  0.0000E+00  0.0000E+00  0.6880E+03
  13.170  0.0000E+00  0.0000E+00  0.6880E+03
  13.180  0.0000E+00  0.0000E+00  0.6880E+03
  13.190  0.0000E+00  0.0000E+00  0.6880E+03
  13.200  0.0000E+00  0.0000E+00  0.6880E+03
  13.210  0.0000E+00  0.0000E+00  0.6880E+03
  13.220  0.0000E+00  0.0000E+00  0.6880E+03
  13.230  0.0000E+00  0.0000E+00  0.6880E+03
  13.240  0.0000E+00  0.0000E+00  0.6880E+03
  13.250  0.0000E+00  0.0000E+00  0.6880E+03
  13.260  0.0000E+00  0.0000E+00  0.6880E+03
  13.270  0.0000E+00  0.0000E+00  0.6880E+03
  13.280  0.0000E+00  0.0000E+00  0.6880E+03
  13.290  0.0000E+00  0.0000E+00  0.6880E+03
  13.300  0.0000E+00  0.0000E+00  0.6880E+03
  13.310  0.0000E+00  0.0000E+00  0.6880E+03
  13.320  0.0000E+00  0.0000E+00  0.6880E+03
  13.330  0.0000E+00  0.0000E+00  0.6880E+03
  13.340  0.0000E+00  0.0000E+00  0.6880E+03
  13.350  0.0000E+00  0.0000E+00  0.6880E+03
  13.360  0.0000E+00  0.0000E+00  0.6880E+03
  13.370  0.0000E+00  0.0000E+00  0.6880E+03
  13.380  0.0000E+00  0.0000E+00  0.6880E+03
  13.390  0.0000E+00  0.0000E+00  0.6880E+03
  13.400  0.0000E+00  0.0000E+00  0.6880E+03
  13.410  0.0000E+00  0.0000E+00  0.6880E+03
  13.420  0.0000E+00  0.0000E+00  0.6880E+03
  13.430  0.0000E+00  0.0000E+00  0.6880E+03
  13.440  0.0000E+00  0.0000E+00  0.6880E+03
  13.450  0.0000E+00  0.0000E+00  0.6880E+03
  13.460  0.0000E+00  0.0000E+00  0.6880E+03
  13.470  0.0000E+00  0.0000E+00  0.6880E+03
  13.480  0.0000E+00  0.0000E+00  0.6880E+03
  13.490  0.0000E+00  0.0000E+00  0.6880E+03
  13.500  0.0000E+00  0.0000E+00  0.6880E+03
  13.510  0.0000E+00  0.0000E+00  0.6880E+03
  13.520  0.0000E+00  0.0000E+00  0.6880E+03
  13.530  0.0000E+00  0.0000E+00  0.6880E+03
  13.540  0.0000E+00  0.0000E+00  0.6880E+03
  13.550  0.0000E+00  0.0000E+00  0.6880E+03
  13.560  0.0000E+00  0.0000E+00  0.6880E+03
  13.570  0.0000E+00  0.0000E+00  0.6880E+03
  13.580  0.0000E+00  0.0000E+00  0.6880E+03
  13.590  0.0000E+00  0.0000E+00  0.6880E+03
  13.600  0.0000E+00  0.0000E+00  0.6880E+03
  13.610  0.0000E+00  0.0000E+00  0.6880E+03
  13.620  0.0000E+00  0.0000E+00  0.6880E+03
  13.630  0.0000E+00  0.0000E+00  0.6880E+03
  13.640  0.0000E+00  0.0000E+00  0.6880E+03
  13.650  0.0000E+00  0.0000E+00  0.6880E+03
  13.660  0.0000E+00  0.0000E+00  0.6880E+03
  13.670  0.0000E+00  0.0000E+00  0.6880E+03
  13.680  0.0000E+00  0.0000E+00  0.6880E+03
  13.690  0.0000E+00  0.0000E+00  0.6880E+03
  13.700  0.0000E+00  0.0000E+00  0.6880E+03
  13.710  0.0000E+00  0.0000E+00  0.6880E+03
  13.720  0.0000E+00  0.0000E+00  0.6880E+03
  13.730  0.0000E+00  0.0000E+00  0.6880E+03
  13.740  0.0000E+00  0.0000E+00  0.6880E+03
  13.750  0.0000E+00  0.0000E+00  0.6880E+03
  13.760  0.0000E+00  0.0000E+00  0.6880E+03
  13.770  0.0000E+00  0.0000E+00  0.6880E+03
  13.780  0.0000E+00  0.0000E+00  0.6880E+03
  13.790  0.0000E+00  0.0000E+00  0.6880E+03
  13.800  0.0000E+00  0.0000E+00  0.6880E+03
  13.810  0.0000E+00  0.0000E+00  0.6880E+03
  13.820  0.0000E+00  0.0000E+00  0.6880E+03
  13.830  0.0000E+00  0.0000E+00  0.6880E+03
  13.840  0.0000E+00  0.0000E+00  0.6880E+03
  13.850  0.0000E+00  0.0000E+00  0.6880E+03
  13.860  0.0000E+00  0.0000E+00  0.6880E+03
  13.870  0.0000E+00  0.0000E+00  0.6880E+03
  13.880  0.0000E+00  0.0000E+00  0.6880E+03
  13.890  0.0000E+00  0.0000E+00  0.6880E+03
  13.900  0.0000E+00  0.0000E+00  0.6880E+03
  13.910  0.0000E+00  0.0000E+00  0.6880E+03
  13.920  0.0000E+00  0.0000E+00  0.6880E+03
  13.930  0.0000E+00  0.0000E+00  0.6880E+03
  13.940  0.0000E+00  0.0000E+00  0.6880E+03
  13.950  0.0000E+00  0.0000E+00  0.6880E+03
  13.960  0.0000E+00  0.0000E+00  0.6880E+03
  13.970  0.0000E+00  0.0000E+00  0.6880E+03
  13.980  0.0000E+00  0.0000E+00  0.6880E+03
  13.990  0.0000E+00  0.0000E+00  0.6880E+03
  14.000  0.0000E+00  0.0000E+00  0.6880E+03
  14.010  0.0000E+00  0.0000E+00  0.6880E+03
  14.020  0.0000E+00  0.0000E+00  0.6880E+03
  14.030  0.0000E+00  0.0000E+00  0.6880E+03
  14.040  0.0000E+00  0.0000E+00  0.6880E+03
  14.050  0.0000E+00  0.0000E+00  0.6880E+03
  14.060  0.0000E+00  0.0000E+00  0.6880E+03
  14.070  0.0000E+00  0.0000E+00  0.6880E+03
  14.080  0.0000E+00  0.0000E+00  0.6880E+03
  14.090  0.0000E+00  0.0000E+00  0.6880E+03
  14.100  0.0000E+00  0.0000E+00  0.6880E+03
  14.110  0.0000E+00  0.0000E+00  0.6880E+03
  14.120  0.0000E+00  0.0000E+00  0.6880E+03
  14.130  0.0000E+00  0.0000E+00  0.6880E+03
  14.140  0.0000E+00  0.0000E+00  0.6880E+03
  14.150  0.0000E+00  0.0000E+00  0.6880E+03
  14.160  0.0000E+00  0.0000E+00  0.6880E+03
  14.170  0.0000E+00  0.0000E+00  0.6880E+03
  14.180  0.0000E+00  0.0000E+00  0.6880E+03
  14.190  0.0000E+00  0.0000E+00  0.6880E+03
  14.200  0.0000E+00  0.0000E+00  0.6880E+03
  14.210  0.0000E+00  0.0000E+00  0.6880E+03
  14.220  0.0000E+00  0.0000E+00  0.6880E+03
  14.230  0.0000E+00  0.0000E+00  0.6880E+03
  14.240  0.0000E+00  0.0000E+00  0.6880E+03
  14.250  0.0000E+00  0.0000E+00  0.6880E+03
  14.260  0.0000E+00  0.0000E+00  0.6880E+03
  14.270  0.0000E+00  0.0000E+00  0.6880E+03
  14.280  0.0000E+00  0.0000E+00  0.6880E+03
  14.290  0.0000E+00  0.0000E+00  0.6880E+03
  14.300  0.0000E+00  0.0000E+00  0.6880E+03
  14.310  0.0000E+00  0.0000E+00  0.6880E+03
  14.320  0.0000E+00  0.0000E+00  0.6880E+03
  14.330  0.0000E+00  0.0000E+00  0.6880E+03
  14.340  0.0000E+00  0.0000E+00  0.6880E+03
  14.350  0.0000E+00  0.0000E+00  0.6880E+03
  14.360  0.0000E+00  0.0000E+00  0.6880E+03
  14.370  0.0000E+00  0.0000E+00  0.6880E+03
  14.380  0.0000E+00  0.0000E+00  0.6880E+03
  14.390  0.0000E+00  0.0000E+00  0.6880E+03
  14.400  0.0000E+00  0.0000E+00  0.6880E+03
  14.410  0.0000E+00  0.0000E+00  0.6880E+03
  14.420  0.0000E+00  0.0000E+00  0.6880E+03
  14.430  0.0000E+00  0.0000E+00  0.6880E+03
  14.440  0.0000E+00  0.0000E+00  0.6880E+03
  14.450  0.0000E+00  0.0000E+00  0.6880E+03
  14.460  0.0000E+00  0.0000E+00  0.6880E+03
  14.470  0.0000E+00  0.0000E+00  0.6880E+03
  14.480  0.0000E+00  0.0000E+00  0.6880E+03
  14.490  0.0000E+00  0.0000E+00  0.6880E+03
  14.500  0.0000E+00  0.0000E+00  0.6880E+03
  14.510  0.0000E+00  0.0000E+00  0.6880E+03
  14.520  0.0000E+00  0.0000E+00  0.6880E+03
  14.530  0.0000E+00  0.0000E+00  0.6880E+03
  14.540  0.0000E+00  0.0000E+00  0.6880E+03
  14.550  0.0000E+00  0.0000E+00  0.6880E+03
  14.560  0.0000E+00  0.0000E+00  0.6880E+03
  14.570  0.0000E+00  0.0000E+00  0.6880E+03
  14.580  0.0000E+00  0.0000E+00  0.6880E+03
  14.590  0.0000E+00  0.0000E+00  0.6880E+03
  14.600  0.0000E+00  0.0000E+00  0.6880E+03
  14.610  0.0000E+00  0.0000E+00  0.6880E+03
  14.620  0.0000E+00  0.0000E+00  0.6880E+03
  14.630  0.0000E+00  0.0000E+00  0.6880E+03
  14.640  0.0000E+00  0.0000E+00  0.6880E+03
  14.650  0.0000E+00  0.0000E+00  0.6880E+03
  14.660  0.0000E+00  0.0000E+00  0.6880E+03
  14.670  0.0000E+00  0.0000E+00  0.6880E+03
  14.680  0.0000E+00  0.0000E+00  0.6880E+03
  14.690  0.0000E+00  0.0000E+00  0.6880E+03
  14.700  0.0000E+00  0.0000E+00  0.6880E+03
  14.710  0.0000E+00  0.0000E+00  0.6880E+03
  14.720  0.0000E+00  0.0000E+00  0.6880E+03
  14.730  0.0000E+00  0.0000E+00  0.6880E+03
  14.740  0.0000E+00  0.0000E+00  0.6880E+03
  14.750  0.0000E+00  0.0000E+00  0.6880E+03
  14.760  0.0000E+00  0.0000E+00  0.6880E+03
  14.770  0.0000E+00  0.0000E+00  0.6880E+03
  14.780  0.0000E+00  0.0000E+00  0.6880E+03
  14.790  0.0000E+00  0.0000E+00  0.6880E+03
  14.800  0.0000E+00  0.0000E+00  0.6880E+03
  14.810  0.0000E+00  0.0000E+00  0.6880E+03
  14.820  0.0000E+00  0.0000E+00  0.6880E+03
  14.830  0.0000E+00  0.0000E+00  0.6880E+03
  14.840  0.0000E+00  0.0000E+00  0.6880E+03
  14.850  0.0000E+00  0.0000E+00  0.6880E+03
  14.860  0.0000E+00  0.0000E+00  0.6880E+03
  14.870  0.0000E+00  0.0000E+00  0.6880E+03
  14.880  0.0000E+00  0.0000E+00  0.6880E+03
  14.890  0.0000E+00  0.0000E+00  0.6880E+03
  14.900  0.0000E+00  0.0000E+00  0.6880E+03
  14.910  0.0000E+00  0.0000E+00  0.6880E+03
  14.920  0.0000E+00  0.0000E+00  0.6880E+03
  14.930  0.0000E+00  0.0000E+00  0.6880E+03
  14.940  0.0000E+00  0.0000E+00  0.6880E+03
  14.950  0.0000E+00  0.0000E+00  0.6880E+03
  14.960  0.0000E+00  0.0000E+00  0.6880E+03
  14.970  0.0000E+00  0.0000E+00  0.6880E+03
  14.980  0.0000E+00  0.0000E+00  0.6880E+03
  14.990  0.0000E+00  0.0000E+00  0.6880E+03
  15.000  0.0000E+00  0.0000E+00  0.6880E+03
